TITLE	
DATA TYPE	
ORIGIN	JASCO
OWNER	
DATE	22/04/20
TIME	10:52:54
SPECTROMETER/DATA SYSTEM	
RESOLUTION	
DELTAX	0.5
XUNITS	SEC
YUNITS	INTENSITY
FIRSTX	0.0000
LASTX	2303.0000
NPOINTS	4607
FIRSTY	481.33224
MAXY	631.18146
MINY	-127.12836
XYDATA
0.0000	481.332
0.5000	481.294
1.0000	481.32
1.5000	481.308
2.0000	481.275
2.5000	481.262
3.0000	481.201
3.5000	481.176
4.0000	481.075
4.5000	481.089
5.0000	481.162
5.5000	481.197
6.0000	481.305
6.5000	481.322
7.0000	481.271
7.5000	481.257
8.0000	481.251
8.5000	481.144
9.0000	481.152
9.5000	481.174
10.0000	481.142
10.5000	481.247
11.0000	481.167
11.5000	481.132
12.0000	481.133
12.5000	481.124
13.0000	481.241
13.5000	481.262
14.0000	481.324
14.5000	481.243
15.0000	481.091
15.5000	481.096
16.0000	481.075
16.5000	481.157
17.0000	481.241
17.5000	481.258
18.0000	481.265
18.5000	481.239
19.0000	481.305
19.5000	481.24
20.0000	481.173
20.5000	481.227
21.0000	481.158
21.5000	481.189
22.0000	481.306
22.5000	481.238
23.0000	481.293
23.5000	481.313
24.0000	481.211
24.5000	481.256
25.0000	481.192
25.5000	481.177
26.0000	481.244
26.5000	481.239
27.0000	481.32
27.5000	481.306
28.0000	481.34
28.5000	481.349
29.0000	481.317
29.5000	481.365
30.0000	481.387
30.5000	481.281
31.0000	481.296
31.5000	481.204
32.0000	481.089
32.5000	481.155
33.0000	481.133
33.5000	481.128
34.0000	481.195
34.5000	481.236
35.0000	481.227
35.5000	481.284
36.0000	481.283
36.5000	481.291
37.0000	481.325
37.5000	481.315
38.0000	481.251
38.5000	481.277
39.0000	478.425
39.5000	461.617
40.0000	436.196
40.5000	368.561
41.0000	-127.128
41.5000	-53.1909
42.0000	-35.5345
42.5000	-31.2908
43.0000	-29.8293
43.5000	-28.8975
44.0000	-28.1397
44.5000	-27.5558
45.0000	-27.0785
45.5000	-26.7586
46.0000	-26.6124
46.5000	-26.4615
47.0000	-26.1998
47.5000	-25.9781
48.0000	-25.6817
48.5000	-25.5445
49.0000	-25.3694
49.5000	-25.4559
50.0000	-25.4567
50.5000	-25.4232
51.0000	-25.3732
51.5000	-25.2285
52.0000	-25.2202
52.5000	284.011
53.0000	429.65
53.5000	412.644
54.0000	405.357
54.5000	383.882
55.0000	365.451
55.5000	364.831
56.0000	364.734
56.5000	364.706
57.0000	364.919
57.5000	364.977
58.0000	365.157
58.5000	365.26
59.0000	365.252
59.5000	365.445
60.0000	365.561
60.5000	365.733
61.0000	365.869
61.5000	365.934
62.0000	366.056
62.5000	366.142
63.0000	366.326
63.5000	366.574
64.0000	366.722
64.5000	366.933
65.0000	367.089
65.5000	367.182
66.0000	367.364
66.5000	367.537
67.0000	367.649
67.5000	367.718
68.0000	367.809
68.5000	367.858
69.0000	368.011
69.5000	368.178
70.0000	368.31
70.5000	368.451
71.0000	368.585
71.5000	368.74
72.0000	368.841
72.5000	368.921
73.0000	368.949
73.5000	369.087
74.0000	369.245
74.5000	369.385
75.0000	369.657
75.5000	369.754
76.0000	369.91
76.5000	370.067
77.0000	370.156
77.5000	370.347
78.0000	370.525
78.5000	370.645
79.0000	370.743
79.5000	370.859
80.0000	370.884
80.5000	371.127
81.0000	371.369
81.5000	371.475
82.0000	371.685
82.5000	371.812
83.0000	371.929
83.5000	372.085
84.0000	372.21
84.5000	372.254
85.0000	372.277
85.5000	372.483
86.0000	372.6
86.5000	372.741
87.0000	372.968
87.5000	373.031
88.0000	373.159
88.5000	373.349
89.0000	373.511
89.5000	373.696
90.0000	373.826
90.5000	373.97
91.0000	374.063
91.5000	374.122
92.0000	374.224
92.5000	374.226
93.0000	374.392
93.5000	374.573
94.0000	374.799
94.5000	374.992
95.0000	375.135
95.5000	375.255
96.0000	375.309
96.5000	375.518
97.0000	375.652
97.5000	375.764
98.0000	375.919
98.5000	376.042
99.0000	376.198
99.5000	376.377
100.0000	376.582
100.5000	376.711
101.0000	376.846
101.5000	376.949
102.0000	377.043
102.5000	377.15
103.0000	377.245
103.5000	377.41
104.0000	377.533
104.5000	377.698
105.0000	377.874
105.5000	377.998
106.0000	378.188
106.5000	378.279
107.0000	378.402
107.5000	378.557
108.0000	378.684
108.5000	378.905
109.0000	379.053
109.5000	379.217
110.0000	379.32
110.5000	379.426
111.0000	379.529
111.5000	379.657
112.0000	379.762
112.5000	379.944
113.0000	380.146
113.5000	380.256
114.0000	380.448
114.5000	380.478
115.0000	380.527
115.5000	380.7
116.0000	380.883
116.5000	381.063
117.0000	381.283
117.5000	381.394
118.0000	381.503
118.5000	381.658
119.0000	381.715
119.5000	381.867
120.0000	382.007
120.5000	382.111
121.0000	382.251
121.5000	382.404
122.0000	382.532
122.5000	382.706
123.0000	382.868
123.5000	382.972
124.0000	383.068
124.5000	383.256
125.0000	383.372
125.5000	383.458
126.0000	383.635
126.5000	383.728
127.0000	383.834
127.5000	383.993
128.0000	384.138
128.5000	384.246
129.0000	384.459
129.5000	384.682
130.0000	384.764
130.5000	384.863
131.0000	384.916
131.5000	384.989
132.0000	385.142
132.5000	385.328
133.0000	385.503
133.5000	385.58
134.0000	385.66
134.5000	385.842
135.0000	385.991
135.5000	386.204
136.0000	386.332
136.5000	386.374
137.0000	386.537
137.5000	386.671
138.0000	386.815
138.5000	386.989
139.0000	387.038
139.5000	387.162
140.0000	387.371
140.5000	387.552
141.0000	387.747
141.5000	387.817
142.0000	387.943
142.5000	388.007
143.0000	388.068
143.5000	388.275
144.0000	388.37
144.5000	388.471
145.0000	388.677
145.5000	388.777
146.0000	388.948
146.5000	389.167
147.0000	389.302
147.5000	389.429
148.0000	389.583
148.5000	389.654
149.0000	389.761
149.5000	389.935
150.0000	389.99
150.5000	390.124
151.0000	390.254
151.5000	390.45
152.0000	390.685
152.5000	390.827
153.0000	391.017
153.5000	391.076
154.0000	391.08
154.5000	391.242
155.0000	391.373
155.5000	391.498
156.0000	391.69
156.5000	391.807
157.0000	391.867
157.5000	392.017
158.0000	392.204
158.5000	392.298
159.0000	392.516
159.5000	392.651
160.0000	392.806
160.5000	393.043
161.0000	393.128
161.5000	393.205
162.0000	393.259
162.5000	393.349
163.0000	393.478
163.5000	393.689
164.0000	393.883
164.5000	393.904
165.0000	394.041
165.5000	394.2
166.0000	394.28
166.5000	394.53
167.0000	394.669
167.5000	394.764
168.0000	394.912
168.5000	395.047
169.0000	395.207
169.5000	395.364
170.0000	395.492
170.5000	395.628
171.0000	395.7
171.5000	395.772
172.0000	395.909
172.5000	395.992
173.0000	396.185
173.5000	396.352
174.0000	396.406
174.5000	396.537
175.0000	396.65
175.5000	396.723
176.0000	396.934
176.5000	397.125
177.0000	397.228
177.5000	397.421
178.0000	397.624
178.5000	397.693
179.0000	397.762
179.5000	397.955
180.0000	398.05
180.5000	398.207
181.0000	398.449
181.5000	398.479
182.0000	398.656
182.5000	398.791
183.0000	398.956
183.5000	399.093
184.0000	399.197
184.5000	399.275
185.0000	399.376
185.5000	399.508
186.0000	399.524
186.5000	399.664
187.0000	399.79
187.5000	399.871
188.0000	400.105
188.5000	400.31
189.0000	400.408
189.5000	400.564
190.0000	400.674
190.5000	400.742
191.0000	400.876
191.5000	401.086
192.0000	401.219
192.5000	401.413
193.0000	401.584
193.5000	401.645
194.0000	401.784
194.5000	401.867
195.0000	401.958
195.5000	402.18
196.0000	402.337
196.5000	402.498
197.0000	402.712
197.5000	402.885
198.0000	402.989
198.5000	403.1
199.0000	403.139
199.5000	403.198
200.0000	403.323
200.5000	403.599
201.0000	403.738
201.5000	403.866
202.0000	403.991
202.5000	404.077
203.0000	404.246
203.5000	404.425
204.0000	404.65
204.5000	404.721
205.0000	404.923
205.5000	405.082
206.0000	405.192
206.5000	405.317
207.0000	405.369
207.5000	405.503
208.0000	405.574
208.5000	405.698
209.0000	405.909
209.5000	405.994
210.0000	406.152
210.5000	406.303
211.0000	406.376
211.5000	406.563
212.0000	406.681
212.5000	406.816
213.0000	407.026
213.5000	407.149
214.0000	407.311
214.5000	407.477
215.0000	407.631
215.5000	407.726
216.0000	407.881
216.5000	408.006
217.0000	408.042
217.5000	408.214
218.0000	408.346
218.5000	408.541
219.0000	408.655
219.5000	408.775
220.0000	408.854
220.5000	408.938
221.0000	409.175
221.5000	409.347
222.0000	409.551
222.5000	409.682
223.0000	409.804
223.5000	409.85
224.0000	410.021
224.5000	410.188
225.0000	410.383
225.5000	410.591
226.0000	410.713
226.5000	410.925
227.0000	411.013
227.5000	411.168
228.0000	411.253
228.5000	411.249
229.0000	411.347
229.5000	411.408
230.0000	411.602
230.5000	411.81
231.0000	411.959
231.5000	412.167
232.0000	412.18
232.5000	412.301
233.0000	412.426
233.5000	412.465
234.0000	412.661
234.5000	412.782
235.0000	412.899
235.5000	413.178
236.0000	413.284
236.5000	413.418
237.0000	413.594
237.5000	413.671
238.0000	413.921
238.5000	414.114
239.0000	414.2
239.5000	414.339
240.0000	414.426
240.5000	414.55
241.0000	414.747
241.5000	414.869
242.0000	415.049
242.5000	415.145
243.0000	415.309
243.5000	415.497
244.0000	415.634
244.5000	415.778
245.0000	415.835
245.5000	415.912
246.0000	416.111
246.5000	416.285
247.0000	416.49
247.5000	416.696
248.0000	416.72
248.5000	416.924
249.0000	417.052
249.5000	417.169
250.0000	417.279
250.5000	417.349
251.0000	417.373
251.5000	417.524
252.0000	417.779
252.5000	417.961
253.0000	418.21
253.5000	418.29
254.0000	418.355
254.5000	418.513
255.0000	418.627
255.5000	418.809
256.0000	418.947
256.5000	419.065
257.0000	419.227
257.5000	419.395
258.0000	419.551
258.5000	419.707
259.0000	419.844
259.5000	419.955
260.0000	420.12
260.5000	420.212
261.0000	420.371
261.5000	420.494
262.0000	420.623
262.5000	420.815
263.0000	420.919
263.5000	421.042
264.0000	421.172
264.5000	421.37
265.0000	421.578
265.5000	421.793
266.0000	421.945
266.5000	421.992
267.0000	422.15
267.5000	422.283
268.0000	422.34
268.5000	422.449
269.0000	422.577
269.5000	422.643
270.0000	422.832
270.5000	423.003
271.0000	423.11
271.5000	423.35
272.0000	423.534
272.5000	423.692
273.0000	423.906
273.5000	423.951
274.0000	424.095
274.5000	424.227
275.0000	424.247
275.5000	424.427
276.0000	424.592
276.5000	424.747
277.0000	424.97
277.5000	425.059
278.0000	425.153
278.5000	425.247
279.0000	425.401
279.5000	425.604
280.0000	425.771
280.5000	425.973
281.0000	426.075
281.5000	426.262
282.0000	426.414
282.5000	426.562
283.0000	426.663
283.5000	426.815
284.0000	426.963
284.5000	427.043
285.0000	427.183
285.5000	427.237
286.0000	427.317
286.5000	427.472
287.0000	427.642
287.5000	427.793
288.0000	427.989
288.5000	428.103
289.0000	428.279
289.5000	428.428
290.0000	428.587
290.5000	428.735
291.0000	428.878
291.5000	429.04
292.0000	429.166
292.5000	429.306
293.0000	429.424
293.5000	429.48
294.0000	429.575
294.5000	429.755
295.0000	429.862
295.5000	430.14
296.0000	430.3
296.5000	430.417
297.0000	430.6
297.5000	430.6
298.0000	430.618
298.5000	430.728
299.0000	430.9
299.5000	431.089
300.0000	431.299
300.5000	431.457
301.0000	431.51
301.5000	431.637
302.0000	431.819
302.5000	431.956
303.0000	432.074
303.5000	432.288
304.0000	432.386
304.5000	432.564
305.0000	432.782
305.5000	432.813
306.0000	432.949
306.5000	433.118
307.0000	433.211
307.5000	433.369
308.0000	433.504
308.5000	433.545
309.0000	433.699
309.5000	433.829
310.0000	433.98
310.5000	434.119
311.0000	434.277
311.5000	434.407
312.0000	434.595
312.5000	434.812
313.0000	434.924
313.5000	435.135
314.0000	435.238
314.5000	435.251
315.0000	435.311
315.5000	435.398
316.0000	435.51
316.5000	435.713
317.0000	435.867
317.5000	435.989
318.0000	436.123
318.5000	436.224
319.0000	436.42
319.5000	436.471
320.0000	436.593
320.5000	436.676
321.0000	436.766
321.5000	437.015
322.0000	437.209
322.5000	437.374
323.0000	437.515
323.5000	437.593
324.0000	437.625
324.5000	437.704
325.0000	437.808
325.5000	437.991
326.0000	438.165
326.5000	438.367
327.0000	438.567
327.5000	438.634
328.0000	438.719
328.5000	438.877
329.0000	438.933
329.5000	439.09
330.0000	439.23
330.5000	439.362
331.0000	439.45
331.5000	439.574
332.0000	439.669
332.5000	439.747
333.0000	439.922
333.5000	440.128
334.0000	440.367
334.5000	440.55
335.0000	440.716
335.5000	440.774
336.0000	440.885
336.5000	441.034
337.0000	441.099
337.5000	441.183
338.0000	441.313
338.5000	441.372
339.0000	441.527
339.5000	441.666
340.0000	441.663
340.5000	441.83
341.0000	441.944
341.5000	442.012
342.0000	442.239
342.5000	442.245
343.0000	442.388
343.5000	442.578
344.0000	442.67
344.5000	442.861
345.0000	442.902
345.5000	442.984
346.0000	443.186
346.5000	443.269
347.0000	443.429
347.5000	443.73
348.0000	443.729
348.5000	443.899
349.0000	444.064
349.5000	444.108
350.0000	444.294
350.5000	444.39
351.0000	444.483
351.5000	444.555
352.0000	444.698
352.5000	444.902
353.0000	445.023
353.5000	445.132
354.0000	445.211
354.5000	445.205
355.0000	445.383
355.5000	445.498
356.0000	445.609
356.5000	445.779
357.0000	445.924
357.5000	446.095
358.0000	446.261
358.5000	446.431
359.0000	446.469
359.5000	446.545
360.0000	446.635
360.5000	446.716
361.0000	446.847
361.5000	446.953
362.0000	447.153
362.5000	447.269
363.0000	447.377
363.5000	447.601
364.0000	447.645
364.5000	447.781
365.0000	447.92
365.5000	447.977
366.0000	448.07
366.5000	448.22
367.0000	448.354
367.5000	448.498
368.0000	448.694
368.5000	448.824
369.0000	448.982
369.5000	448.987
370.0000	449.06
370.5000	449.168
371.0000	449.125
371.5000	449.336
372.0000	449.527
372.5000	449.576
373.0000	449.817
373.5000	449.978
374.0000	450.099
374.5000	450.184
375.0000	450.357
375.5000	450.418
376.0000	450.508
376.5000	450.703
377.0000	450.742
377.5000	450.878
378.0000	450.922
378.5000	451.076
379.0000	451.147
379.5000	451.25
380.0000	451.408
380.5000	451.483
381.0000	451.702
381.5000	451.845
382.0000	451.92
382.5000	452.058
383.0000	452.129
383.5000	452.22
384.0000	452.505
384.5000	452.638
385.0000	452.75
385.5000	452.92
386.0000	452.946
386.5000	453.026
387.0000	453.173
387.5000	453.139
388.0000	453.238
388.5000	453.471
389.0000	453.6
389.5000	453.795
390.0000	453.855
390.5000	453.843
391.0000	453.936
391.5000	454.093
392.0000	454.292
392.5000	454.468
393.0000	454.527
393.5000	454.709
394.0000	454.763
394.5000	454.772
395.0000	454.894
395.5000	454.942
396.0000	455.059
396.5000	455.221
397.0000	455.403
397.5000	455.488
398.0000	455.614
398.5000	455.705
399.0000	455.767
399.5000	455.899
400.0000	456.055
400.5000	456.179
401.0000	456.244
401.5000	456.352
402.0000	456.359
402.5000	456.488
403.0000	456.643
403.5000	456.678
404.0000	456.84
404.5000	456.974
405.0000	456.943
405.5000	456.901
406.0000	456.922
406.5000	456.832
407.0000	456.985
407.5000	457.176
408.0000	457.236
408.5000	457.473
409.0000	457.545
409.5000	457.694
410.0000	457.887
410.5000	457.906
411.0000	458.1
411.5000	458.244
412.0000	458.391
412.5000	458.644
413.0000	458.757
413.5000	458.824
414.0000	458.922
414.5000	459.049
415.0000	459.207
415.5000	459.434
416.0000	459.554
416.5000	459.598
417.0000	459.754
417.5000	459.805
418.0000	459.914
418.5000	460.02
419.0000	460.084
419.5000	460.152
420.0000	460.291
420.5000	460.482
421.0000	460.698
421.5000	460.894
422.0000	460.992
422.5000	461.074
423.0000	461.043
423.5000	461.122
424.0000	461.176
424.5000	461.248
425.0000	461.367
425.5000	461.447
426.0000	461.579
426.5000	461.71
427.0000	461.859
427.5000	461.992
428.0000	462.095
428.5000	462.149
429.0000	462.172
429.5000	462.26
430.0000	462.364
430.5000	462.482
431.0000	462.641
431.5000	462.756
432.0000	462.848
432.5000	463.011
433.0000	463.152
433.5000	463.249
434.0000	463.378
434.5000	463.512
435.0000	463.625
435.5000	463.803
436.0000	463.926
436.5000	464.04
437.0000	464.116
437.5000	464.261
438.0000	464.412
438.5000	464.494
439.0000	464.669
439.5000	464.612
440.0000	464.681
440.5000	464.757
441.0000	464.817
441.5000	464.968
442.0000	465.09
442.5000	465.145
443.0000	465.281
443.5000	465.365
444.0000	465.368
444.5000	465.483
445.0000	465.532
445.5000	465.672
446.0000	465.761
446.5000	465.978
447.0000	466.113
447.5000	466.133
448.0000	466.319
448.5000	466.422
449.0000	466.567
449.5000	466.778
450.0000	466.892
450.5000	466.89
451.0000	466.927
451.5000	467.006
452.0000	467.052
452.5000	467.206
453.0000	467.288
453.5000	467.414
454.0000	467.521
454.5000	467.595
455.0000	467.671
455.5000	467.735
456.0000	467.849
456.5000	467.983
457.0000	468.152
457.5000	468.333
458.0000	468.449
458.5000	468.504
459.0000	468.54
459.5000	468.602
460.0000	468.742
460.5000	468.876
461.0000	469.046
461.5000	469.148
462.0000	469.188
462.5000	469.365
463.0000	469.42
463.5000	469.582
464.0000	469.711
464.5000	469.811
465.0000	469.948
465.5000	469.918
466.0000	470.032
466.5000	470.034
467.0000	470.132
467.5000	470.421
468.0000	470.58
468.5000	470.76
469.0000	470.957
469.5000	470.981
470.0000	471.053
470.5000	471.073
471.0000	471.062
471.5000	471.09
472.0000	471.111
472.5000	471.268
473.0000	471.422
473.5000	471.572
474.0000	471.712
474.5000	471.831
475.0000	471.92
475.5000	472.014
476.0000	472.186
476.5000	472.264
477.0000	472.347
477.5000	472.441
478.0000	472.419
478.5000	472.489
479.0000	472.576
479.5000	472.673
480.0000	472.891
480.5000	472.981
481.0000	473.039
481.5000	473.149
482.0000	473.228
482.5000	473.339
483.0000	473.45
483.5000	473.534
484.0000	473.599
484.5000	473.784
485.0000	473.965
485.5000	474.061
486.0000	474.177
486.5000	474.164
487.0000	474.173
487.5000	474.267
488.0000	474.368
488.5000	474.531
489.0000	474.658
489.5000	474.756
490.0000	474.892
490.5000	475.004
491.0000	475.105
491.5000	475.195
492.0000	475.227
492.5000	475.23
493.0000	475.326
493.5000	475.519
494.0000	475.621
494.5000	475.721
495.0000	475.861
495.5000	475.854
496.0000	475.928
496.5000	476.056
497.0000	476.07
497.5000	476.117
498.0000	476.239
498.5000	476.361
499.0000	476.604
499.5000	476.763
500.0000	476.941
500.5000	476.948
501.0000	477.007
501.5000	477.066
502.0000	477.009
502.5000	477.052
503.0000	477.119
503.5000	477.307
504.0000	477.491
504.5000	477.688
505.0000	477.681
505.5000	477.713
506.0000	477.801
506.5000	477.854
507.0000	478.062
507.5000	478.185
508.0000	478.3
508.5000	478.451
509.0000	478.564
509.5000	478.607
510.0000	478.693
510.5000	478.824
511.0000	478.884
511.5000	478.887
512.0000	479.016
512.5000	479.129
513.0000	479.241
513.5000	479.412
514.0000	479.382
514.5000	479.439
515.0000	479.476
515.5000	479.587
516.0000	479.714
516.5000	479.865
517.0000	479.928
517.5000	480.014
518.0000	480.119
518.5000	480.235
519.0000	480.354
519.5000	480.418
520.0000	480.603
520.5000	480.644
521.0000	480.748
521.5000	480.926
522.0000	481.004
522.5000	481.08
523.0000	481.148
523.5000	481.119
524.0000	481.042
524.5000	480.92
525.0000	480.885
525.5000	480.953
526.0000	481.089
526.5000	481.308
527.0000	481.492
527.5000	481.565
528.0000	481.66
528.5000	481.675
529.0000	481.788
529.5000	482.001
530.0000	482.179
530.5000	482.437
531.0000	482.526
531.5000	482.59
532.0000	482.673
532.5000	482.706
533.0000	482.745
533.5000	482.86
534.0000	483.019
534.5000	483.048
535.0000	483.206
535.5000	483.277
536.0000	483.333
536.5000	483.445
537.0000	483.536
537.5000	483.757
538.0000	483.798
538.5000	483.952
539.0000	484.042
539.5000	484.05
540.0000	484.191
540.5000	484.334
541.0000	484.459
541.5000	484.503
542.0000	484.574
542.5000	484.593
543.0000	484.709
543.5000	484.854
544.0000	484.906
544.5000	484.961
545.0000	484.984
545.5000	485.067
546.0000	485.038
546.5000	485.224
547.0000	485.381
547.5000	485.451
548.0000	485.651
548.5000	485.735
549.0000	485.779
549.5000	485.873
550.0000	485.995
550.5000	486.13
551.0000	486.201
551.5000	486.322
552.0000	486.437
552.5000	486.448
553.0000	486.541
553.5000	486.59
554.0000	486.648
554.5000	486.677
555.0000	486.774
555.5000	486.84
556.0000	486.864
556.5000	487.078
557.0000	487.19
557.5000	487.379
558.0000	487.572
558.5000	487.579
559.0000	487.655
559.5000	487.707
560.0000	487.718
560.5000	487.811
561.0000	487.906
561.5000	487.988
562.0000	488.104
562.5000	488.285
563.0000	488.379
563.5000	488.417
564.0000	488.515
564.5000	488.518
565.0000	488.612
565.5000	488.795
566.0000	488.895
566.5000	488.938
567.0000	489.035
567.5000	489.112
568.0000	489.126
568.5000	489.31
569.0000	489.426
569.5000	489.517
570.0000	489.765
570.5000	489.851
571.0000	489.891
571.5000	490.013
572.0000	489.95
572.5000	490.08
573.0000	490.289
573.5000	490.313
574.0000	490.377
574.5000	490.384
575.0000	490.376
575.5000	490.404
576.0000	490.483
576.5000	490.6
577.0000	490.666
577.5000	490.751
578.0000	490.989
578.5000	491.04
579.0000	491.153
579.5000	491.265
580.0000	491.245
580.5000	491.309
581.0000	491.348
581.5000	491.438
582.0000	491.6
582.5000	491.783
583.0000	491.835
583.5000	491.955
584.0000	491.957
584.5000	491.961
585.0000	492.048
585.5000	492.126
586.0000	492.245
586.5000	492.389
587.0000	492.6
587.5000	492.72
588.0000	492.819
588.5000	492.861
589.0000	492.846
589.5000	492.906
590.0000	493.078
590.5000	493.211
591.0000	493.355
591.5000	493.389
592.0000	493.361
592.5000	493.411
593.0000	493.431
593.5000	493.529
594.0000	493.642
594.5000	493.789
595.0000	493.955
595.5000	494.086
596.0000	494.184
596.5000	494.276
597.0000	494.315
597.5000	494.46
598.0000	494.483
598.5000	494.473
599.0000	494.574
599.5000	494.598
600.0000	494.753
600.5000	494.851
601.0000	494.992
601.5000	495.14
602.0000	495.241
602.5000	495.282
603.0000	495.337
603.5000	495.39
604.0000	495.414
604.5000	495.615
605.0000	495.709
605.5000	495.797
606.0000	495.964
606.5000	496.022
607.0000	496.004
607.5000	496.023
608.0000	496.098
608.5000	496.199
609.0000	496.393
609.5000	496.561
610.0000	496.624
610.5000	496.645
611.0000	496.717
611.5000	496.704
612.0000	496.767
612.5000	496.868
613.0000	496.964
613.5000	497.072
614.0000	497.133
614.5000	497.225
615.0000	497.293
615.5000	497.439
616.0000	497.572
616.5000	497.573
617.0000	497.69
617.5000	497.805
618.0000	497.911
618.5000	498.122
619.0000	498.214
619.5000	498.308
620.0000	498.293
620.5000	498.427
621.0000	498.435
621.5000	498.427
622.0000	498.581
622.5000	498.643
623.0000	498.764
623.5000	498.868
624.0000	498.901
624.5000	498.949
625.0000	499.071
625.5000	499.188
626.0000	499.356
626.5000	499.401
627.0000	499.372
627.5000	499.55
628.0000	499.627
628.5000	499.694
629.0000	499.963
629.5000	499.857
630.0000	499.941
630.5000	500.069
631.0000	500.061
631.5000	500.236
632.0000	500.306
632.5000	500.384
633.0000	500.474
633.5000	500.56
634.0000	500.661
634.5000	500.82
635.0000	500.844
635.5000	500.931
636.0000	501.031
636.5000	500.986
637.0000	501.094
637.5000	501.192
638.0000	501.209
638.5000	501.349
639.0000	501.465
639.5000	501.434
640.0000	501.615
640.5000	501.654
641.0000	501.818
641.5000	501.959
642.0000	502.019
642.5000	502.099
643.0000	502.111
643.5000	502.283
644.0000	502.365
644.5000	502.508
645.0000	502.543
645.5000	502.53
646.0000	502.554
646.5000	502.641
647.0000	502.845
647.5000	503.039
648.0000	503.236
648.5000	503.348
649.0000	503.374
649.5000	503.382
650.0000	503.449
650.5000	503.545
651.0000	503.547
651.5000	503.628
652.0000	503.688
652.5000	503.711
653.0000	503.792
653.5000	503.939
654.0000	503.994
654.5000	504.036
655.0000	504.25
655.5000	504.262
656.0000	504.329
656.5000	504.467
657.0000	504.566
657.5000	504.798
658.0000	504.834
658.5000	504.91
659.0000	504.874
659.5000	504.804
660.0000	504.925
660.5000	504.977
661.0000	505.096
661.5000	505.209
662.0000	505.29
662.5000	505.459
663.0000	505.47
663.5000	505.571
664.0000	505.625
664.5000	505.579
665.0000	505.74
665.5000	505.754
666.0000	506.037
666.5000	506.201
667.0000	506.188
667.5000	506.328
668.0000	506.253
668.5000	506.307
669.0000	506.516
669.5000	506.694
670.0000	506.775
670.5000	506.902
671.0000	506.959
671.5000	506.981
672.0000	507.127
672.5000	507.19
673.0000	507.265
673.5000	507.379
674.0000	507.344
674.5000	507.457
675.0000	507.641
675.5000	507.632
676.0000	507.842
676.5000	507.929
677.0000	507.896
677.5000	507.984
678.0000	508.081
678.5000	508.175
679.0000	508.183
679.5000	508.175
680.0000	508.286
680.5000	508.331
681.0000	508.471
681.5000	508.66
682.0000	508.606
682.5000	508.656
683.0000	508.728
683.5000	508.777
684.0000	508.949
684.5000	509.108
685.0000	509.207
685.5000	509.343
686.0000	509.384
686.5000	509.382
687.0000	509.495
687.5000	509.537
688.0000	509.508
688.5000	509.646
689.0000	509.735
689.5000	509.787
690.0000	510.018
690.5000	510.165
691.0000	510.213
691.5000	510.414
692.0000	510.499
692.5000	510.533
693.0000	510.578
693.5000	510.665
694.0000	510.634
694.5000	510.751
695.0000	510.849
695.5000	510.848
696.0000	511.043
696.5000	511.02
697.0000	511.131
697.5000	511.278
698.0000	511.254
698.5000	511.367
699.0000	511.501
699.5000	511.485
700.0000	511.608
700.5000	511.698
701.0000	511.714
701.5000	511.81
702.0000	511.91
702.5000	512.042
703.0000	512.145
703.5000	512.322
704.0000	512.439
704.5000	512.469
705.0000	512.63
705.5000	512.594
706.0000	512.577
706.5000	512.675
707.0000	512.71
707.5000	512.791
708.0000	512.933
708.5000	513.056
709.0000	513.047
709.5000	513.205
710.0000	513.329
710.5000	513.335
711.0000	513.479
711.5000	513.577
712.0000	513.664
712.5000	513.863
713.0000	513.935
713.5000	513.969
714.0000	513.989
714.5000	514.018
715.0000	514.068
715.5000	514.175
716.0000	514.173
716.5000	514.311
717.0000	514.501
717.5000	514.636
718.0000	514.801
718.5000	514.908
719.0000	514.886
719.5000	514.803
720.0000	514.964
720.5000	514.92
721.0000	515.032
721.5000	515.234
722.0000	515.279
722.5000	515.363
723.0000	515.406
723.5000	515.514
724.0000	515.574
724.5000	515.648
725.0000	515.773
725.5000	515.782
726.0000	515.879
726.5000	516.1
727.0000	516.213
727.5000	516.316
728.0000	516.482
728.5000	516.481
729.0000	516.514
729.5000	516.718
730.0000	516.683
730.5000	516.667
731.0000	516.808
731.5000	516.765
732.0000	516.922
732.5000	517.12
733.0000	517.267
733.5000	517.346
734.0000	517.385
734.5000	517.446
735.0000	517.479
735.5000	517.705
736.0000	517.835
736.5000	517.943
737.0000	518.073
737.5000	518.08
738.0000	518.133
738.5000	518.248
739.0000	518.331
739.5000	518.383
740.0000	518.472
740.5000	518.495
741.0000	518.519
741.5000	518.555
742.0000	518.639
742.5000	518.769
743.0000	518.851
743.5000	518.958
744.0000	519.118
744.5000	519.074
745.0000	519.2
745.5000	519.251
746.0000	519.334
746.5000	519.572
747.0000	519.632
747.5000	519.715
748.0000	519.847
748.5000	519.908
749.0000	519.914
749.5000	520.096
750.0000	520.148
750.5000	520.146
751.0000	520.321
751.5000	520.419
752.0000	520.391
752.5000	520.555
753.0000	520.608
753.5000	520.674
754.0000	520.842
754.5000	520.927
755.0000	521.144
755.5000	521.213
756.0000	521.213
756.5000	521.336
757.0000	521.363
757.5000	521.466
758.0000	521.682
758.5000	521.748
759.0000	521.767
759.5000	521.831
760.0000	521.844
760.5000	521.915
761.0000	521.887
761.5000	522.012
762.0000	522.068
762.5000	522.047
763.0000	522.269
763.5000	522.332
764.0000	522.412
764.5000	522.604
765.0000	522.708
765.5000	522.769
766.0000	522.83
766.5000	522.904
767.0000	522.986
767.5000	523.083
768.0000	523.311
768.5000	523.413
769.0000	523.486
769.5000	523.668
770.0000	523.795
770.5000	523.905
771.0000	523.999
771.5000	524.033
772.0000	524.146
772.5000	524.189
773.0000	524.236
773.5000	524.281
774.0000	524.184
774.5000	524.273
775.0000	524.504
775.5000	524.706
776.0000	524.893
776.5000	524.958
777.0000	525.029
777.5000	525.152
778.0000	525.216
778.5000	525.399
779.0000	525.428
779.5000	525.437
780.0000	525.623
780.5000	525.73
781.0000	525.828
781.5000	525.949
782.0000	526.043
782.5000	526.14
783.0000	526.306
783.5000	526.346
784.0000	526.405
784.5000	526.453
785.0000	526.423
785.5000	526.609
786.0000	526.643
786.5000	526.775
787.0000	526.95
787.5000	526.978
788.0000	527.078
788.5000	527.198
789.0000	527.349
789.5000	527.492
790.0000	527.557
790.5000	527.678
791.0000	527.729
791.5000	527.737
792.0000	527.902
792.5000	527.947
793.0000	528.025
793.5000	528.131
794.0000	528.141
794.5000	528.181
795.0000	528.187
795.5000	528.317
796.0000	528.388
796.5000	528.572
797.0000	528.701
797.5000	528.686
798.0000	528.942
798.5000	529.033
799.0000	529.154
799.5000	529.345
800.0000	529.376
800.5000	529.392
801.0000	529.5
801.5000	529.627
802.0000	529.649
802.5000	529.733
803.0000	529.81
803.5000	529.889
804.0000	530.032
804.5000	530.173
805.0000	530.237
805.5000	530.255
806.0000	530.373
806.5000	530.405
807.0000	530.494
807.5000	530.681
808.0000	530.796
808.5000	530.952
809.0000	531.058
809.5000	531.14
810.0000	531.117
810.5000	531.212
811.0000	531.404
811.5000	531.474
812.0000	531.573
812.5000	531.732
813.0000	531.745
813.5000	531.772
814.0000	531.963
814.5000	531.999
815.0000	532.199
815.5000	532.343
816.0000	532.363
816.5000	532.418
817.0000	532.463
817.5000	532.517
818.0000	532.61
818.5000	532.696
819.0000	532.71
819.5000	532.859
820.0000	533.109
820.5000	533.219
821.0000	533.304
821.5000	533.353
822.0000	533.308
822.5000	533.38
823.0000	533.529
823.5000	533.612
824.0000	533.761
824.5000	533.915
825.0000	534.08
825.5000	534.174
826.0000	534.263
826.5000	534.391
827.0000	534.396
827.5000	534.591
828.0000	534.659
828.5000	534.724
829.0000	534.846
829.5000	534.826
830.0000	534.905
830.5000	534.946
831.0000	534.982
831.5000	535.194
832.0000	535.405
832.5000	535.468
833.0000	535.661
833.5000	535.692
834.0000	535.712
834.5000	535.823
835.0000	535.906
835.5000	536.01
836.0000	536.096
836.5000	536.294
837.0000	536.358
837.5000	536.459
838.0000	536.615
838.5000	536.622
839.0000	536.667
839.5000	536.776
840.0000	536.86
840.5000	536.996
841.0000	537.091
841.5000	537.182
842.0000	537.154
842.5000	537.301
843.0000	537.502
843.5000	537.51
844.0000	537.706
844.5000	537.745
845.0000	537.818
845.5000	538.018
846.0000	538.037
846.5000	538.123
847.0000	538.193
847.5000	538.321
848.0000	538.421
848.5000	538.509
849.0000	538.502
849.5000	538.517
850.0000	538.596
850.5000	538.731
851.0000	538.938
851.5000	539.004
852.0000	539.154
852.5000	539.166
853.0000	539.19
853.5000	539.331
854.0000	539.37
854.5000	539.541
855.0000	539.58
855.5000	539.623
856.0000	539.668
856.5000	539.715
857.0000	539.89
857.5000	540.014
858.0000	540.18
858.5000	540.232
859.0000	540.361
859.5000	540.385
860.0000	540.474
860.5000	540.599
861.0000	540.63
861.5000	540.786
862.0000	540.826
862.5000	540.866
863.0000	540.95
863.5000	540.977
864.0000	541.036
864.5000	541.209
865.0000	541.341
865.5000	541.357
866.0000	541.455
866.5000	541.498
867.0000	541.591
867.5000	541.791
868.0000	542.1
868.5000	542.193
869.0000	542.276
869.5000	542.396
870.0000	542.292
870.5000	542.419
871.0000	542.511
871.5000	542.624
872.0000	542.669
872.5000	542.707
873.0000	542.78
873.5000	542.827
874.0000	543.027
874.5000	543.15
875.0000	543.235
875.5000	543.247
876.0000	543.274
876.5000	543.369
877.0000	543.466
877.5000	543.522
878.0000	543.63
878.5000	543.645
879.0000	543.627
879.5000	543.865
880.0000	544.124
880.5000	544.252
881.0000	544.44
881.5000	544.487
882.0000	544.419
882.5000	544.553
883.0000	544.536
883.5000	544.669
884.0000	544.796
884.5000	544.841
885.0000	545.049
885.5000	545.178
886.0000	545.176
886.5000	545.354
887.0000	545.395
887.5000	545.369
888.0000	545.565
888.5000	545.531
889.0000	545.582
889.5000	545.65
890.0000	545.603
890.5000	545.687
891.0000	545.818
891.5000	545.947
892.0000	546.112
892.5000	546.133
893.0000	546.217
893.5000	546.266
894.0000	546.305
894.5000	546.436
895.0000	546.451
895.5000	546.584
896.0000	546.787
896.5000	546.902
897.0000	547.053
897.5000	547.191
898.0000	547.108
898.5000	547.134
899.0000	547.24
899.5000	547.355
900.0000	547.501
900.5000	547.713
901.0000	547.827
901.5000	547.728
902.0000	547.856
902.5000	547.789
903.0000	547.817
903.5000	547.952
904.0000	548.006
904.5000	548.177
905.0000	548.296
905.5000	548.357
906.0000	548.42
906.5000	548.411
907.0000	548.364
907.5000	548.457
908.0000	548.611
908.5000	548.754
909.0000	548.886
909.5000	549.001
910.0000	549.018
910.5000	549.05
911.0000	549.12
911.5000	549.19
912.0000	549.325
912.5000	549.44
913.0000	549.525
913.5000	549.563
914.0000	549.576
914.5000	549.569
915.0000	549.69
915.5000	549.832
916.0000	549.811
916.5000	549.995
917.0000	550.103
917.5000	550.118
918.0000	550.313
918.5000	550.401
919.0000	550.504
919.5000	550.559
920.0000	550.616
920.5000	550.662
921.0000	550.526
921.5000	550.547
922.0000	550.614
922.5000	550.8
923.0000	550.941
923.5000	551.2
924.0000	551.289
924.5000	551.384
925.0000	551.555
925.5000	551.481
926.0000	551.556
926.5000	551.524
927.0000	551.551
927.5000	551.754
928.0000	551.859
928.5000	552.001
929.0000	552.044
929.5000	552.148
930.0000	552.133
930.5000	552.114
931.0000	552.285
931.5000	552.347
932.0000	552.419
932.5000	552.537
933.0000	552.588
933.5000	552.575
934.0000	552.646
934.5000	552.656
935.0000	552.613
935.5000	552.738
936.0000	552.793
936.5000	552.869
937.0000	553.041
937.5000	552.988
938.0000	553.175
938.5000	553.213
939.0000	553.298
939.5000	553.492
940.0000	553.562
940.5000	553.704
941.0000	553.663
941.5000	553.734
942.0000	553.801
942.5000	553.851
943.0000	554.06
943.5000	554.092
944.0000	554.217
944.5000	554.206
945.0000	554.259
945.5000	554.291
946.0000	554.296
946.5000	554.457
947.0000	554.465
947.5000	554.554
948.0000	554.517
948.5000	554.598
949.0000	554.762
949.5000	554.896
950.0000	555.036
950.5000	555.133
951.0000	555.128
951.5000	555.138
952.0000	555.228
952.5000	555.267
953.0000	555.369
953.5000	555.539
954.0000	555.574
954.5000	555.573
955.0000	555.706
955.5000	555.722
956.0000	555.79
956.5000	555.991
957.0000	556.041
957.5000	556.085
958.0000	556.238
958.5000	556.244
959.0000	556.319
959.5000	556.302
960.0000	556.347
960.5000	556.497
961.0000	556.565
961.5000	556.606
962.0000	556.726
962.5000	556.805
963.0000	556.828
963.5000	556.95
964.0000	556.996
964.5000	557.004
965.0000	557.096
965.5000	557.331
966.0000	557.254
966.5000	557.269
967.0000	557.328
967.5000	557.372
968.0000	557.527
968.5000	557.698
969.0000	557.725
969.5000	557.77
970.0000	557.819
970.5000	557.874
971.0000	558.057
971.5000	558.069
972.0000	558.108
972.5000	558.159
973.0000	558.116
973.5000	558.175
974.0000	558.344
974.5000	558.347
975.0000	558.424
975.5000	558.471
976.0000	558.492
976.5000	558.552
977.0000	558.625
977.5000	558.826
978.0000	558.936
978.5000	559.009
979.0000	559.006
979.5000	559.095
980.0000	559.11
980.5000	559.208
981.0000	559.388
981.5000	559.351
982.0000	559.387
982.5000	559.383
983.0000	559.359
983.5000	559.443
984.0000	559.517
984.5000	559.653
985.0000	559.743
985.5000	559.848
986.0000	559.955
986.5000	560.079
987.0000	560.192
987.5000	560.15
988.0000	560.247
988.5000	560.238
989.0000	560.291
989.5000	560.442
990.0000	560.396
990.5000	560.502
991.0000	560.509
991.5000	560.5
992.0000	560.594
992.5000	560.668
993.0000	560.798
993.5000	560.892
994.0000	560.971
994.5000	561.124
995.0000	561.125
995.5000	561.241
996.0000	561.312
996.5000	561.245
997.0000	561.365
997.5000	561.362
998.0000	561.431
998.5000	561.574
999.0000	561.645
999.5000	561.773
1000.0000	561.834
1000.5000	561.815
1001.0000	561.909
1001.5000	561.93
1002.0000	562.008
1002.5000	561.979
1003.0000	562.031
1003.5000	562.109
1004.0000	562.19
1004.5000	562.437
1005.0000	562.398
1005.5000	562.474
1006.0000	562.531
1006.5000	562.368
1007.0000	562.519
1007.5000	562.577
1008.0000	562.627
1008.5000	562.803
1009.0000	562.768
1009.5000	562.797
1010.0000	562.911
1010.5000	562.931
1011.0000	562.911
1011.5000	562.926
1012.0000	562.907
1012.5000	562.989
1013.0000	563.18
1013.5000	563.266
1014.0000	563.384
1014.5000	563.499
1015.0000	563.559
1015.5000	563.661
1016.0000	563.695
1016.5000	563.87
1017.0000	563.948
1017.5000	563.919
1018.0000	564.037
1018.5000	563.961
1019.0000	564.108
1019.5000	564.28
1020.0000	564.218
1020.5000	564.379
1021.0000	564.296
1021.5000	564.21
1022.0000	564.319
1022.5000	564.317
1023.0000	564.382
1023.5000	564.569
1024.0000	564.633
1024.5000	564.601
1025.0000	564.617
1025.5000	564.63
1026.0000	564.684
1026.5000	564.725
1027.0000	564.889
1027.5000	564.914
1028.0000	564.949
1028.5000	565.169
1029.0000	565.254
1029.5000	565.359
1030.0000	565.448
1030.5000	565.447
1031.0000	565.411
1031.5000	565.522
1032.0000	565.531
1032.5000	565.636
1033.0000	565.751
1033.5000	565.752
1034.0000	565.85
1034.5000	565.881
1035.0000	565.96
1035.5000	566.021
1036.0000	566.092
1036.5000	566.191
1037.0000	566.17
1037.5000	566.172
1038.0000	566.216
1038.5000	566.127
1039.0000	566.218
1039.5000	566.362
1040.0000	566.426
1040.5000	566.451
1041.0000	566.526
1041.5000	566.578
1042.0000	566.638
1042.5000	566.745
1043.0000	566.766
1043.5000	566.845
1044.0000	566.865
1044.5000	566.949
1045.0000	566.976
1045.5000	566.987
1046.0000	567.004
1046.5000	566.992
1047.0000	567.242
1047.5000	567.245
1048.0000	567.262
1048.5000	567.416
1049.0000	567.247
1049.5000	567.235
1050.0000	567.413
1050.5000	567.526
1051.0000	567.619
1051.5000	567.808
1052.0000	567.818
1052.5000	567.718
1053.0000	567.69
1053.5000	567.795
1054.0000	567.841
1054.5000	567.932
1055.0000	568.095
1055.5000	568.169
1056.0000	568.184
1056.5000	568.265
1057.0000	568.427
1057.5000	568.373
1058.0000	568.399
1058.5000	568.531
1059.0000	568.536
1059.5000	568.593
1060.0000	568.746
1060.5000	568.669
1061.0000	568.77
1061.5000	568.805
1062.0000	568.838
1062.5000	568.986
1063.0000	568.956
1063.5000	569.035
1064.0000	569.127
1064.5000	569.152
1065.0000	569.21
1065.5000	569.284
1066.0000	569.337
1066.5000	569.366
1067.0000	569.431
1067.5000	569.367
1068.0000	569.382
1068.5000	569.448
1069.0000	569.488
1069.5000	569.653
1070.0000	569.714
1070.5000	569.763
1071.0000	569.768
1071.5000	569.879
1072.0000	569.927
1072.5000	570.02
1073.0000	570.181
1073.5000	570.146
1074.0000	570.21
1074.5000	570.164
1075.0000	570.163
1075.5000	570.215
1076.0000	570.286
1076.5000	570.397
1077.0000	570.522
1077.5000	570.72
1078.0000	570.708
1078.5000	570.899
1079.0000	570.742
1079.5000	570.702
1080.0000	570.824
1080.5000	570.798
1081.0000	571.012
1081.5000	571.095
1082.0000	571.098
1082.5000	571.157
1083.0000	571.161
1083.5000	571.139
1084.0000	571.354
1084.5000	571.357
1085.0000	571.407
1085.5000	571.502
1086.0000	571.503
1086.5000	571.559
1087.0000	571.582
1087.5000	571.679
1088.0000	571.634
1088.5000	571.692
1089.0000	571.781
1089.5000	571.782
1090.0000	571.929
1090.5000	571.967
1091.0000	571.978
1091.5000	571.988
1092.0000	572.064
1092.5000	572.119
1093.0000	572.176
1093.5000	572.258
1094.0000	572.295
1094.5000	572.299
1095.0000	572.397
1095.5000	572.466
1096.0000	572.438
1096.5000	572.619
1097.0000	572.801
1097.5000	572.828
1098.0000	573.006
1098.5000	573.036
1099.0000	572.963
1099.5000	572.996
1100.0000	573.02
1100.5000	573.004
1101.0000	573.02
1101.5000	573.108
1102.0000	573.016
1102.5000	573.057
1103.0000	573.133
1103.5000	573.113
1104.0000	573.298
1104.5000	573.334
1105.0000	573.453
1105.5000	573.648
1106.0000	573.553
1106.5000	573.608
1107.0000	573.525
1107.5000	573.588
1108.0000	573.833
1108.5000	573.923
1109.0000	574.088
1109.5000	574.069
1110.0000	573.99
1110.5000	574.058
1111.0000	574.109
1111.5000	574.123
1112.0000	574.175
1112.5000	574.323
1113.0000	574.496
1113.5000	574.648
1114.0000	574.72
1114.5000	574.682
1115.0000	574.612
1115.5000	574.723
1116.0000	574.823
1116.5000	574.858
1117.0000	574.914
1117.5000	574.889
1118.0000	574.897
1118.5000	574.97
1119.0000	575.029
1119.5000	575.149
1120.0000	575.234
1120.5000	575.373
1121.0000	575.499
1121.5000	575.563
1122.0000	575.676
1122.5000	575.63
1123.0000	575.665
1123.5000	575.599
1124.0000	575.682
1124.5000	575.733
1125.0000	575.784
1125.5000	575.956
1126.0000	575.897
1126.5000	575.998
1127.0000	575.999
1127.5000	576
1128.0000	576.146
1128.5000	576.099
1129.0000	576.196
1129.5000	576.333
1130.0000	576.189
1130.5000	576.385
1131.0000	576.43
1131.5000	576.361
1132.0000	576.399
1132.5000	576.338
1133.0000	576.355
1133.5000	576.43
1134.0000	576.647
1134.5000	576.844
1135.0000	577.013
1135.5000	577.106
1136.0000	577.228
1136.5000	577.275
1137.0000	577.331
1137.5000	577.372
1138.0000	577.304
1138.5000	577.289
1139.0000	577.252
1139.5000	577.436
1140.0000	577.552
1140.5000	577.563
1141.0000	577.713
1141.5000	577.553
1142.0000	577.527
1142.5000	577.73
1143.0000	577.654
1143.5000	577.785
1144.0000	577.915
1144.5000	578.005
1145.0000	578.196
1145.5000	578.267
1146.0000	578.337
1146.5000	578.294
1147.0000	578.404
1147.5000	578.446
1148.0000	578.531
1148.5000	578.654
1149.0000	578.709
1149.5000	578.801
1150.0000	578.915
1150.5000	578.941
1151.0000	578.802
1151.5000	578.809
1152.0000	578.741
1152.5000	578.874
1153.0000	579.05
1153.5000	579.148
1154.0000	579.314
1154.5000	579.239
1155.0000	579.303
1155.5000	579.275
1156.0000	579.191
1156.5000	579.341
1157.0000	579.367
1157.5000	579.515
1158.0000	579.74
1158.5000	579.765
1159.0000	579.78
1159.5000	579.904
1160.0000	579.86
1160.5000	579.879
1161.0000	579.913
1161.5000	579.876
1162.0000	580.014
1162.5000	580.008
1163.0000	580.101
1163.5000	580.24
1164.0000	580.276
1164.5000	580.336
1165.0000	580.373
1165.5000	580.483
1166.0000	580.555
1166.5000	580.619
1167.0000	580.715
1167.5000	580.695
1168.0000	580.733
1168.5000	580.778
1169.0000	580.922
1169.5000	580.909
1170.0000	580.927
1170.5000	580.977
1171.0000	580.902
1171.5000	580.974
1172.0000	581.01
1172.5000	581.171
1173.0000	581.306
1173.5000	581.335
1174.0000	581.436
1174.5000	581.416
1175.0000	581.507
1175.5000	581.516
1176.0000	581.58
1176.5000	581.753
1177.0000	581.67
1177.5000	581.824
1178.0000	581.777
1178.5000	581.734
1179.0000	581.846
1179.5000	581.926
1180.0000	581.973
1180.5000	582.035
1181.0000	582.061
1181.5000	582.007
1182.0000	582.184
1182.5000	582.209
1183.0000	582.283
1183.5000	582.449
1184.0000	582.502
1184.5000	582.618
1185.0000	582.69
1185.5000	582.688
1186.0000	582.756
1186.5000	582.849
1187.0000	583.02
1187.5000	583.073
1188.0000	583.053
1188.5000	582.986
1189.0000	582.924
1189.5000	582.918
1190.0000	582.965
1190.5000	583.167
1191.0000	583.208
1191.5000	583.325
1192.0000	583.39
1192.5000	583.36
1193.0000	583.449
1193.5000	583.485
1194.0000	583.506
1194.5000	583.652
1195.0000	583.764
1195.5000	583.84
1196.0000	583.913
1196.5000	583.816
1197.0000	583.774
1197.5000	583.912
1198.0000	583.984
1198.5000	584.166
1199.0000	584.213
1199.5000	584.195
1200.0000	584.4
1200.5000	584.442
1201.0000	584.459
1201.5000	584.628
1202.0000	584.637
1202.5000	584.66
1203.0000	584.884
1203.5000	584.855
1204.0000	584.77
1204.5000	584.802
1205.0000	584.665
1205.5000	584.772
1206.0000	585.009
1206.5000	585.124
1207.0000	585.368
1207.5000	585.413
1208.0000	585.358
1208.5000	585.338
1209.0000	585.318
1209.5000	585.257
1210.0000	585.228
1210.5000	585.295
1211.0000	585.352
1211.5000	585.475
1212.0000	585.597
1212.5000	585.758
1213.0000	585.846
1213.5000	585.889
1214.0000	585.973
1214.5000	586.082
1215.0000	586.186
1215.5000	586.278
1216.0000	586.365
1216.5000	586.328
1217.0000	586.324
1217.5000	586.351
1218.0000	586.461
1218.5000	586.458
1219.0000	586.528
1219.5000	586.497
1220.0000	586.464
1220.5000	586.614
1221.0000	586.602
1221.5000	586.86
1222.0000	586.865
1222.5000	586.864
1223.0000	586.944
1223.5000	586.863
1224.0000	587.091
1224.5000	587.191
1225.0000	587.263
1225.5000	587.362
1226.0000	587.353
1226.5000	587.396
1227.0000	587.515
1227.5000	587.573
1228.0000	587.569
1228.5000	587.642
1229.0000	587.552
1229.5000	587.632
1230.0000	587.752
1230.5000	587.715
1231.0000	587.833
1231.5000	587.931
1232.0000	587.944
1232.5000	588.131
1233.0000	588.318
1233.5000	588.287
1234.0000	588.375
1234.5000	588.366
1235.0000	588.284
1235.5000	588.445
1236.0000	588.583
1236.5000	588.604
1237.0000	588.632
1237.5000	588.634
1238.0000	588.596
1238.5000	588.658
1239.0000	588.72
1239.5000	588.769
1240.0000	588.788
1240.5000	588.883
1241.0000	589.004
1241.5000	588.987
1242.0000	589.047
1242.5000	589.085
1243.0000	589.258
1243.5000	589.323
1244.0000	589.299
1244.5000	589.387
1245.0000	589.279
1245.5000	589.304
1246.0000	589.423
1246.5000	589.469
1247.0000	589.492
1247.5000	589.664
1248.0000	589.707
1248.5000	589.824
1249.0000	589.912
1249.5000	589.794
1250.0000	589.955
1250.5000	589.971
1251.0000	590.103
1251.5000	590.305
1252.0000	590.3
1252.5000	590.405
1253.0000	590.398
1253.5000	590.341
1254.0000	590.449
1254.5000	590.404
1255.0000	590.55
1255.5000	590.755
1256.0000	590.703
1256.5000	590.738
1257.0000	590.798
1257.5000	590.851
1258.0000	590.964
1258.5000	591.093
1259.0000	591.099
1259.5000	591.139
1260.0000	591.203
1260.5000	591.104
1261.0000	591.153
1261.5000	591.16
1262.0000	591.259
1262.5000	591.384
1263.0000	591.471
1263.5000	591.492
1264.0000	591.558
1264.5000	591.543
1265.0000	591.511
1265.5000	591.593
1266.0000	591.594
1266.5000	591.885
1267.0000	591.975
1267.5000	592.036
1268.0000	592.07
1268.5000	592.078
1269.0000	592.089
1269.5000	592.232
1270.0000	592.314
1270.5000	592.348
1271.0000	592.44
1271.5000	592.421
1272.0000	592.466
1272.5000	592.48
1273.0000	592.457
1273.5000	592.519
1274.0000	592.544
1274.5000	592.588
1275.0000	592.729
1275.5000	592.823
1276.0000	592.966
1276.5000	593.073
1277.0000	593.088
1277.5000	593.177
1278.0000	593.151
1278.5000	593.191
1279.0000	593.315
1279.5000	593.243
1280.0000	593.309
1280.5000	593.401
1281.0000	593.471
1281.5000	593.478
1282.0000	593.521
1282.5000	593.574
1283.0000	593.667
1283.5000	593.791
1284.0000	593.878
1284.5000	593.967
1285.0000	594.083
1285.5000	594.092
1286.0000	594.075
1286.5000	594.068
1287.0000	593.967
1287.5000	594.111
1288.0000	594.261
1288.5000	594.252
1289.0000	594.335
1289.5000	594.376
1290.0000	594.488
1290.5000	594.491
1291.0000	594.542
1291.5000	594.591
1292.0000	594.53
1292.5000	594.689
1293.0000	594.703
1293.5000	594.731
1294.0000	594.789
1294.5000	594.843
1295.0000	595.034
1295.5000	595.17
1296.0000	595.199
1296.5000	595.331
1297.0000	595.211
1297.5000	595.219
1298.0000	595.383
1298.5000	595.21
1299.0000	595.354
1299.5000	595.37
1300.0000	595.347
1300.5000	595.556
1301.0000	595.555
1301.5000	595.631
1302.0000	595.81
1302.5000	595.734
1303.0000	595.859
1303.5000	595.969
1304.0000	595.891
1304.5000	596.044
1305.0000	596.023
1305.5000	595.935
1306.0000	595.99
1306.5000	595.99
1307.0000	595.985
1307.5000	596.094
1308.0000	596.202
1308.5000	596.286
1309.0000	596.355
1309.5000	596.518
1310.0000	596.519
1310.5000	596.562
1311.0000	596.748
1311.5000	596.805
1312.0000	596.784
1312.5000	596.856
1313.0000	596.878
1313.5000	596.956
1314.0000	597.028
1314.5000	597.032
1315.0000	597.087
1315.5000	596.999
1316.0000	597.065
1316.5000	597.164
1317.0000	597.255
1317.5000	597.269
1318.0000	597.461
1318.5000	597.58
1319.0000	597.588
1319.5000	597.788
1320.0000	597.775
1320.5000	597.77
1321.0000	597.842
1321.5000	597.845
1322.0000	597.869
1322.5000	597.853
1323.0000	597.822
1323.5000	597.895
1324.0000	597.97
1324.5000	598.031
1325.0000	598.142
1325.5000	598.114
1326.0000	598.167
1326.5000	598.31
1327.0000	598.348
1327.5000	598.276
1328.0000	598.205
1328.5000	598.189
1329.0000	598.09
1329.5000	598.254
1330.0000	598.256
1330.5000	598.305
1331.0000	598.474
1331.5000	598.423
1332.0000	598.563
1332.5000	598.68
1333.0000	598.725
1333.5000	598.857
1334.0000	598.926
1334.5000	598.865
1335.0000	598.87
1335.5000	598.887
1336.0000	598.964
1336.5000	599.117
1337.0000	599.21
1337.5000	599.308
1338.0000	599.149
1338.5000	599.103
1339.0000	599.153
1339.5000	599.244
1340.0000	599.438
1340.5000	599.519
1341.0000	599.676
1341.5000	599.648
1342.0000	599.741
1342.5000	599.776
1343.0000	599.735
1343.5000	599.812
1344.0000	599.856
1344.5000	599.847
1345.0000	599.765
1345.5000	599.859
1346.0000	599.936
1346.5000	599.938
1347.0000	600.108
1347.5000	600.099
1348.0000	600.092
1348.5000	600.2
1349.0000	600.248
1349.5000	600.261
1350.0000	600.287
1350.5000	600.39
1351.0000	600.382
1351.5000	600.42
1352.0000	600.527
1352.5000	600.478
1353.0000	600.506
1353.5000	600.595
1354.0000	600.624
1354.5000	600.694
1355.0000	600.731
1355.5000	600.723
1356.0000	600.621
1356.5000	600.721
1357.0000	600.797
1357.5000	600.85
1358.0000	600.991
1358.5000	600.989
1359.0000	600.988
1359.5000	601.062
1360.0000	601.239
1360.5000	601.291
1361.0000	601.3
1361.5000	601.356
1362.0000	601.279
1362.5000	601.156
1363.0000	601.291
1363.5000	601.293
1364.0000	601.286
1364.5000	601.414
1365.0000	601.36
1365.5000	601.367
1366.0000	601.431
1366.5000	601.503
1367.0000	601.687
1367.5000	601.788
1368.0000	601.833
1368.5000	601.949
1369.0000	601.871
1369.5000	601.922
1370.0000	601.955
1370.5000	601.956
1371.0000	602.038
1371.5000	602.067
1372.0000	602.146
1372.5000	602.261
1373.0000	602.264
1373.5000	602.258
1374.0000	602.276
1374.5000	602.324
1375.0000	602.375
1375.5000	602.477
1376.0000	602.515
1376.5000	602.471
1377.0000	602.476
1377.5000	602.576
1378.0000	602.587
1378.5000	602.611
1379.0000	602.712
1379.5000	602.624
1380.0000	602.668
1380.5000	602.733
1381.0000	602.814
1381.5000	602.863
1382.0000	602.948
1382.5000	602.965
1383.0000	603
1383.5000	603.036
1384.0000	603.054
1384.5000	603.107
1385.0000	603.074
1385.5000	603.099
1386.0000	603.034
1386.5000	603.031
1387.0000	603.06
1387.5000	603.153
1388.0000	603.31
1388.5000	603.324
1389.0000	603.423
1389.5000	603.372
1390.0000	603.328
1390.5000	603.346
1391.0000	603.342
1391.5000	603.489
1392.0000	603.664
1392.5000	603.778
1393.0000	603.778
1393.5000	603.719
1394.0000	603.69
1394.5000	603.763
1395.0000	603.842
1395.5000	603.92
1396.0000	603.921
1396.5000	603.933
1397.0000	603.878
1397.5000	603.93
1398.0000	603.896
1398.5000	603.988
1399.0000	604.133
1399.5000	604.151
1400.0000	604.273
1400.5000	604.308
1401.0000	604.285
1401.5000	604.332
1402.0000	604.433
1402.5000	604.376
1403.0000	604.497
1403.5000	604.565
1404.0000	604.584
1404.5000	604.619
1405.0000	604.682
1405.5000	604.692
1406.0000	604.688
1406.5000	604.762
1407.0000	604.763
1407.5000	604.88
1408.0000	604.885
1408.5000	604.857
1409.0000	604.886
1409.5000	604.831
1410.0000	604.846
1410.5000	604.935
1411.0000	604.912
1411.5000	604.885
1412.0000	605.036
1412.5000	605
1413.0000	604.966
1413.5000	605.034
1414.0000	604.857
1414.5000	604.921
1415.0000	605.018
1415.5000	605.175
1416.0000	605.403
1416.5000	605.562
1417.0000	605.593
1417.5000	605.481
1418.0000	605.483
1418.5000	605.454
1419.0000	605.52
1419.5000	605.669
1420.0000	605.682
1420.5000	605.695
1421.0000	605.797
1421.5000	605.697
1422.0000	605.717
1422.5000	605.812
1423.0000	605.849
1423.5000	605.9
1424.0000	605.901
1424.5000	605.821
1425.0000	605.7
1425.5000	605.83
1426.0000	605.94
1426.5000	606.04
1427.0000	606.231
1427.5000	606.225
1428.0000	606.229
1428.5000	606.299
1429.0000	606.313
1429.5000	606.317
1430.0000	606.201
1430.5000	606.199
1431.0000	606.116
1431.5000	606.172
1432.0000	606.319
1432.5000	606.359
1433.0000	606.425
1433.5000	606.428
1434.0000	606.466
1434.5000	606.499
1435.0000	606.621
1435.5000	606.773
1436.0000	606.818
1436.5000	606.905
1437.0000	606.962
1437.5000	606.894
1438.0000	606.808
1438.5000	606.866
1439.0000	606.797
1439.5000	606.806
1440.0000	606.883
1440.5000	606.839
1441.0000	606.891
1441.5000	607.001
1442.0000	607.16
1442.5000	607.104
1443.0000	607.21
1443.5000	607.158
1444.0000	607.159
1444.5000	607.343
1445.0000	607.322
1445.5000	607.415
1446.0000	607.408
1446.5000	607.363
1447.0000	607.408
1447.5000	607.448
1448.0000	607.513
1448.5000	607.432
1449.0000	607.533
1449.5000	607.651
1450.0000	607.679
1450.5000	607.845
1451.0000	607.814
1451.5000	607.716
1452.0000	607.72
1452.5000	607.806
1453.0000	607.813
1453.5000	607.871
1454.0000	607.89
1454.5000	607.832
1455.0000	607.893
1455.5000	607.887
1456.0000	607.977
1456.5000	608.123
1457.0000	608.102
1457.5000	608.153
1458.0000	608.206
1458.5000	608.135
1459.0000	608.129
1459.5000	608.207
1460.0000	608.118
1460.5000	608.218
1461.0000	608.307
1461.5000	608.347
1462.0000	608.403
1462.5000	608.31
1463.0000	608.39
1463.5000	608.461
1464.0000	608.542
1464.5000	608.647
1465.0000	608.582
1465.5000	608.518
1466.0000	608.559
1466.5000	608.617
1467.0000	608.682
1467.5000	608.635
1468.0000	608.656
1468.5000	608.772
1469.0000	608.8
1469.5000	609.002
1470.0000	609.093
1470.5000	609.005
1471.0000	609.083
1471.5000	609.079
1472.0000	609.079
1472.5000	609.026
1473.0000	608.969
1473.5000	609.036
1474.0000	609.095
1474.5000	609.158
1475.0000	609.34
1475.5000	609.297
1476.0000	609.275
1476.5000	609.261
1477.0000	609.234
1477.5000	609.183
1478.0000	609.269
1478.5000	609.291
1479.0000	609.262
1479.5000	609.392
1480.0000	609.346
1480.5000	609.404
1481.0000	609.436
1481.5000	609.368
1482.0000	609.385
1482.5000	609.493
1483.0000	609.529
1483.5000	609.547
1484.0000	609.544
1484.5000	609.576
1485.0000	609.744
1485.5000	609.933
1486.0000	610.041
1486.5000	610.048
1487.0000	610
1487.5000	609.938
1488.0000	609.939
1488.5000	609.849
1489.0000	609.791
1489.5000	609.733
1490.0000	609.829
1490.5000	609.937
1491.0000	609.997
1491.5000	610.094
1492.0000	609.941
1492.5000	610.078
1493.0000	610.091
1493.5000	610.106
1494.0000	610.225
1494.5000	610.166
1495.0000	610.412
1495.5000	610.484
1496.0000	610.505
1496.5000	610.567
1497.0000	610.402
1497.5000	610.378
1498.0000	610.401
1498.5000	610.45
1499.0000	610.484
1499.5000	610.534
1500.0000	610.584
1500.5000	610.639
1501.0000	610.705
1501.5000	610.713
1502.0000	610.856
1502.5000	610.733
1503.0000	610.633
1503.5000	610.672
1504.0000	610.595
1504.5000	610.648
1505.0000	610.758
1505.5000	610.821
1506.0000	610.851
1506.5000	610.95
1507.0000	610.903
1507.5000	610.917
1508.0000	610.966
1508.5000	610.967
1509.0000	611.08
1509.5000	611.036
1510.0000	611.053
1510.5000	611.136
1511.0000	611.153
1511.5000	611.221
1512.0000	611.22
1512.5000	611.199
1513.0000	611.132
1513.5000	611.093
1514.0000	610.988
1514.5000	611.018
1515.0000	611.152
1515.5000	611.229
1516.0000	611.399
1516.5000	611.435
1517.0000	611.376
1517.5000	611.437
1518.0000	611.347
1518.5000	611.316
1519.0000	611.342
1519.5000	611.317
1520.0000	611.495
1520.5000	611.509
1521.0000	611.499
1521.5000	611.544
1522.0000	611.524
1522.5000	611.512
1523.0000	611.571
1523.5000	611.683
1524.0000	611.709
1524.5000	611.816
1525.0000	611.828
1525.5000	611.832
1526.0000	611.915
1526.5000	611.919
1527.0000	612.018
1527.5000	612.012
1528.0000	611.942
1528.5000	611.857
1529.0000	611.87
1529.5000	611.798
1530.0000	611.765
1530.5000	611.779
1531.0000	611.808
1531.5000	611.808
1532.0000	612.068
1532.5000	612.208
1533.0000	612.3
1533.5000	612.521
1534.0000	612.411
1534.5000	612.407
1535.0000	612.318
1535.5000	612.297
1536.0000	612.276
1536.5000	612.424
1537.0000	612.483
1537.5000	612.425
1538.0000	612.56
1538.5000	612.415
1539.0000	612.46
1539.5000	612.398
1540.0000	612.4
1540.5000	612.395
1541.0000	612.323
1541.5000	612.405
1542.0000	612.348
1542.5000	612.518
1543.0000	612.498
1543.5000	612.587
1544.0000	612.555
1544.5000	612.597
1545.0000	612.672
1545.5000	612.666
1546.0000	612.794
1546.5000	612.711
1547.0000	612.733
1547.5000	612.844
1548.0000	612.949
1548.5000	613.045
1549.0000	613.188
1549.5000	613.161
1550.0000	613.08
1550.5000	613.059
1551.0000	613.059
1551.5000	613.071
1552.0000	613.116
1552.5000	613.143
1553.0000	613.146
1553.5000	613.164
1554.0000	613.188
1554.5000	613.281
1555.0000	613.203
1555.5000	613.201
1556.0000	613.158
1556.5000	613.12
1557.0000	613.252
1557.5000	613.353
1558.0000	613.443
1558.5000	613.467
1559.0000	613.475
1559.5000	613.397
1560.0000	613.368
1560.5000	613.419
1561.0000	613.337
1561.5000	613.397
1562.0000	613.401
1562.5000	613.318
1563.0000	613.483
1563.5000	613.552
1564.0000	613.62
1564.5000	613.68
1565.0000	613.607
1565.5000	613.564
1566.0000	613.667
1566.5000	613.72
1567.0000	613.853
1567.5000	613.933
1568.0000	613.872
1568.5000	613.979
1569.0000	613.815
1569.5000	613.703
1570.0000	613.67
1570.5000	613.658
1571.0000	613.857
1571.5000	614.008
1572.0000	614.14
1572.5000	614.113
1573.0000	614.175
1573.5000	614.176
1574.0000	614.13
1574.5000	614.226
1575.0000	614.095
1575.5000	614.146
1576.0000	614.189
1576.5000	614.186
1577.0000	614.217
1577.5000	614.207
1578.0000	614.179
1578.5000	614.232
1579.0000	614.342
1579.5000	614.381
1580.0000	614.508
1580.5000	614.473
1581.0000	614.359
1581.5000	614.379
1582.0000	614.292
1582.5000	614.359
1583.0000	614.477
1583.5000	614.472
1584.0000	614.541
1584.5000	614.475
1585.0000	614.535
1585.5000	614.58
1586.0000	614.585
1586.5000	614.677
1587.0000	614.707
1587.5000	614.702
1588.0000	614.753
1588.5000	614.688
1589.0000	614.623
1589.5000	614.732
1590.0000	614.679
1590.5000	614.756
1591.0000	614.868
1591.5000	614.841
1592.0000	614.858
1592.5000	614.882
1593.0000	614.895
1593.5000	614.863
1594.0000	615.003
1594.5000	615.016
1595.0000	615.017
1595.5000	615.143
1596.0000	615.128
1596.5000	615.167
1597.0000	615.13
1597.5000	615.124
1598.0000	615.129
1598.5000	615.085
1599.0000	615.18
1599.5000	615.251
1600.0000	615.275
1600.5000	615.313
1601.0000	615.333
1601.5000	615.289
1602.0000	615.205
1602.5000	615.19
1603.0000	615.274
1603.5000	615.263
1604.0000	615.368
1604.5000	615.504
1605.0000	615.426
1605.5000	615.416
1606.0000	615.408
1606.5000	615.449
1607.0000	615.489
1607.5000	615.46
1608.0000	615.546
1608.5000	615.546
1609.0000	615.489
1609.5000	615.55
1610.0000	615.569
1610.5000	615.492
1611.0000	615.522
1611.5000	615.539
1612.0000	615.508
1612.5000	615.555
1613.0000	615.595
1613.5000	615.601
1614.0000	615.662
1614.5000	615.663
1615.0000	615.696
1615.5000	615.723
1616.0000	615.794
1616.5000	615.938
1617.0000	616.046
1617.5000	616.188
1618.0000	616.106
1618.5000	616.202
1619.0000	616.138
1619.5000	616.121
1620.0000	616.065
1620.5000	615.929
1621.0000	616.041
1621.5000	616.117
1622.0000	616.313
1622.5000	616.252
1623.0000	616.199
1623.5000	616.119
1624.0000	616.03
1624.5000	616.131
1625.0000	616.17
1625.5000	616.071
1626.0000	616.195
1626.5000	616.33
1627.0000	616.378
1627.5000	616.519
1628.0000	616.458
1628.5000	616.365
1629.0000	616.261
1629.5000	616.346
1630.0000	616.368
1630.5000	616.242
1631.0000	616.336
1631.5000	616.262
1632.0000	616.255
1632.5000	616.439
1633.0000	616.501
1633.5000	616.592
1634.0000	616.67
1634.5000	616.587
1635.0000	616.604
1635.5000	616.595
1636.0000	616.694
1636.5000	616.783
1637.0000	616.689
1637.5000	616.804
1638.0000	616.671
1638.5000	616.693
1639.0000	616.816
1639.5000	616.692
1640.0000	616.688
1640.5000	616.65
1641.0000	616.616
1641.5000	616.572
1642.0000	616.549
1642.5000	616.639
1643.0000	616.683
1643.5000	616.762
1644.0000	616.936
1644.5000	616.901
1645.0000	616.842
1645.5000	616.888
1646.0000	616.86
1646.5000	616.851
1647.0000	616.845
1647.5000	616.885
1648.0000	616.941
1648.5000	617.016
1649.0000	617.115
1649.5000	617.072
1650.0000	617.045
1650.5000	617.055
1651.0000	617.257
1651.5000	617.302
1652.0000	617.301
1652.5000	617.317
1653.0000	617.105
1653.5000	617.099
1654.0000	617.128
1654.5000	617.196
1655.0000	617.175
1655.5000	617.232
1656.0000	617.179
1656.5000	617.141
1657.0000	617.233
1657.5000	617.207
1658.0000	617.339
1658.5000	617.382
1659.0000	617.441
1659.5000	617.417
1660.0000	617.383
1660.5000	617.413
1661.0000	617.382
1661.5000	617.458
1662.0000	617.436
1662.5000	617.411
1663.0000	617.466
1663.5000	617.344
1664.0000	617.348
1664.5000	617.407
1665.0000	617.32
1665.5000	617.437
1666.0000	617.452
1666.5000	617.419
1667.0000	617.464
1667.5000	617.5
1668.0000	617.595
1668.5000	617.552
1669.0000	617.731
1669.5000	617.838
1670.0000	617.843
1670.5000	617.91
1671.0000	617.761
1671.5000	617.744
1672.0000	617.843
1672.5000	617.899
1673.0000	617.979
1673.5000	618.025
1674.0000	617.992
1674.5000	618.026
1675.0000	618.045
1675.5000	618.074
1676.0000	617.997
1676.5000	617.887
1677.0000	617.904
1677.5000	617.833
1678.0000	617.89
1678.5000	618.09
1679.0000	618.048
1679.5000	618.085
1680.0000	618.19
1680.5000	618.147
1681.0000	618.163
1681.5000	618.085
1682.0000	618.02
1682.5000	618.032
1683.0000	618.064
1683.5000	618.201
1684.0000	618.278
1684.5000	618.215
1685.0000	618.31
1685.5000	618.396
1686.0000	618.414
1686.5000	618.569
1687.0000	618.488
1687.5000	618.367
1688.0000	618.372
1688.5000	618.354
1689.0000	618.378
1689.5000	618.463
1690.0000	618.383
1690.5000	618.411
1691.0000	618.424
1691.5000	618.451
1692.0000	618.536
1692.5000	618.523
1693.0000	618.542
1693.5000	618.551
1694.0000	618.47
1694.5000	618.421
1695.0000	618.449
1695.5000	618.362
1696.0000	618.451
1696.5000	618.531
1697.0000	618.567
1697.5000	618.653
1698.0000	618.614
1698.5000	618.607
1699.0000	618.665
1699.5000	618.632
1700.0000	618.73
1700.5000	618.638
1701.0000	618.573
1701.5000	618.66
1702.0000	618.619
1702.5000	618.836
1703.0000	618.908
1703.5000	618.827
1704.0000	618.907
1704.5000	618.841
1705.0000	618.837
1705.5000	618.914
1706.0000	618.899
1706.5000	618.909
1707.0000	619.017
1707.5000	618.991
1708.0000	619.015
1708.5000	619.001
1709.0000	618.87
1709.5000	618.892
1710.0000	618.997
1710.5000	619.015
1711.0000	619.124
1711.5000	619.251
1712.0000	619.084
1712.5000	619.073
1713.0000	619.105
1713.5000	619.089
1714.0000	619.225
1714.5000	619.281
1715.0000	619.143
1715.5000	619.049
1716.0000	618.977
1716.5000	618.846
1717.0000	618.886
1717.5000	618.879
1718.0000	618.88
1718.5000	618.888
1719.0000	618.981
1719.5000	619.092
1720.0000	619.221
1720.5000	619.353
1721.0000	619.322
1721.5000	619.231
1722.0000	619.128
1722.5000	619.132
1723.0000	619.168
1723.5000	619.289
1724.0000	619.403
1724.5000	619.41
1725.0000	619.469
1725.5000	619.446
1726.0000	619.423
1726.5000	619.507
1727.0000	619.551
1727.5000	619.655
1728.0000	619.748
1728.5000	619.87
1729.0000	619.859
1729.5000	619.747
1730.0000	619.641
1730.5000	619.478
1731.0000	619.446
1731.5000	619.507
1732.0000	619.614
1732.5000	619.71
1733.0000	619.685
1733.5000	619.732
1734.0000	619.67
1734.5000	619.6
1735.0000	619.674
1735.5000	619.654
1736.0000	619.614
1736.5000	619.688
1737.0000	619.573
1737.5000	619.54
1738.0000	619.65
1738.5000	619.682
1739.0000	619.768
1739.5000	619.831
1740.0000	619.748
1740.5000	619.739
1741.0000	619.737
1741.5000	619.739
1742.0000	619.878
1742.5000	619.848
1743.0000	620.028
1743.5000	620.07
1744.0000	620.087
1744.5000	620.148
1745.0000	620.04
1745.5000	620.093
1746.0000	620.094
1746.5000	620.19
1747.0000	620.206
1747.5000	620.151
1748.0000	620.071
1748.5000	620.016
1749.0000	619.972
1749.5000	620.081
1750.0000	620.231
1750.5000	620.233
1751.0000	620.325
1751.5000	620.325
1752.0000	620.288
1752.5000	620.231
1753.0000	620.171
1753.5000	620.108
1754.0000	620.023
1754.5000	620.03
1755.0000	620.174
1755.5000	620.282
1756.0000	620.267
1756.5000	620.247
1757.0000	620.127
1757.5000	620.135
1758.0000	620.165
1758.5000	620.319
1759.0000	620.369
1759.5000	620.405
1760.0000	620.473
1760.5000	620.484
1761.0000	620.451
1761.5000	620.297
1762.0000	620.411
1762.5000	620.395
1763.0000	620.423
1763.5000	620.508
1764.0000	620.581
1764.5000	620.552
1765.0000	620.502
1765.5000	620.534
1766.0000	620.412
1766.5000	620.581
1767.0000	620.673
1767.5000	620.645
1768.0000	620.607
1768.5000	620.617
1769.0000	620.665
1769.5000	620.656
1770.0000	620.623
1770.5000	620.427
1771.0000	620.422
1771.5000	620.532
1772.0000	620.534
1772.5000	620.576
1773.0000	620.664
1773.5000	620.689
1774.0000	620.75
1774.5000	620.918
1775.0000	620.881
1775.5000	620.93
1776.0000	621.04
1776.5000	620.95
1777.0000	620.965
1777.5000	620.969
1778.0000	620.907
1778.5000	621.03
1779.0000	621.047
1779.5000	621.015
1780.0000	621.054
1780.5000	621.046
1781.0000	621.032
1781.5000	621.054
1782.0000	621.242
1782.5000	621.228
1783.0000	621.257
1783.5000	621.308
1784.0000	621.068
1784.5000	621.047
1785.0000	621.094
1785.5000	620.93
1786.0000	621.06
1786.5000	621.03
1787.0000	620.956
1787.5000	620.954
1788.0000	620.93
1788.5000	620.976
1789.0000	621.117
1789.5000	621.282
1790.0000	621.325
1790.5000	621.344
1791.0000	621.334
1791.5000	621.284
1792.0000	621.352
1792.5000	621.272
1793.0000	621.244
1793.5000	621.156
1794.0000	621.153
1794.5000	621.226
1795.0000	621.246
1795.5000	621.364
1796.0000	621.399
1796.5000	621.4
1797.0000	621.398
1797.5000	621.564
1798.0000	621.525
1798.5000	621.519
1799.0000	621.502
1799.5000	621.5
1800.0000	621.619
1800.5000	621.684
1801.0000	621.713
1801.5000	621.616
1802.0000	621.381
1802.5000	621.452
1803.0000	621.487
1803.5000	621.526
1804.0000	621.63
1804.5000	621.612
1805.0000	621.676
1805.5000	621.654
1806.0000	621.771
1806.5000	621.902
1807.0000	621.933
1807.5000	621.955
1808.0000	621.865
1808.5000	621.788
1809.0000	621.706
1809.5000	621.76
1810.0000	621.735
1810.5000	621.779
1811.0000	621.89
1811.5000	621.868
1812.0000	621.996
1812.5000	622.004
1813.0000	621.929
1813.5000	622.063
1814.0000	622.038
1814.5000	622.032
1815.0000	622.107
1815.5000	622.053
1816.0000	622.127
1816.5000	622.122
1817.0000	622.135
1817.5000	622.121
1818.0000	622.041
1818.5000	622.079
1819.0000	622.081
1819.5000	622.167
1820.0000	622.278
1820.5000	622.351
1821.0000	622.445
1821.5000	622.381
1822.0000	622.271
1822.5000	622.204
1823.0000	622.11
1823.5000	622.012
1824.0000	622.093
1824.5000	622.088
1825.0000	622.188
1825.5000	622.443
1826.0000	622.427
1826.5000	622.492
1827.0000	622.34
1827.5000	622.217
1828.0000	622.269
1828.5000	622.273
1829.0000	622.344
1829.5000	622.3
1830.0000	622.346
1830.5000	622.336
1831.0000	622.396
1831.5000	622.429
1832.0000	622.366
1832.5000	622.226
1833.0000	622.207
1833.5000	622.285
1834.0000	622.293
1834.5000	622.391
1835.0000	622.491
1835.5000	622.482
1836.0000	622.539
1836.5000	622.555
1837.0000	622.362
1837.5000	622.394
1838.0000	622.391
1838.5000	622.515
1839.0000	622.716
1839.5000	622.6
1840.0000	622.579
1840.5000	622.45
1841.0000	622.381
1841.5000	622.591
1842.0000	622.557
1842.5000	622.54
1843.0000	622.607
1843.5000	622.614
1844.0000	622.776
1844.5000	622.99
1845.0000	622.995
1845.5000	623.018
1846.0000	622.933
1846.5000	622.763
1847.0000	622.709
1847.5000	622.549
1848.0000	622.605
1848.5000	622.624
1849.0000	622.701
1849.5000	622.806
1850.0000	622.767
1850.5000	622.821
1851.0000	622.647
1851.5000	622.642
1852.0000	622.7
1852.5000	622.746
1853.0000	622.939
1853.5000	622.891
1854.0000	622.903
1854.5000	622.923
1855.0000	622.941
1855.5000	622.979
1856.0000	623.03
1856.5000	622.972
1857.0000	622.919
1857.5000	623.046
1858.0000	623.03
1858.5000	623.017
1859.0000	623.032
1859.5000	622.946
1860.0000	622.959
1860.5000	623.111
1861.0000	623.12
1861.5000	623.115
1862.0000	623.081
1862.5000	623.157
1863.0000	623.228
1863.5000	623.22
1864.0000	623.232
1864.5000	623.06
1865.0000	623.047
1865.5000	623.16
1866.0000	623.205
1866.5000	623.307
1867.0000	623.34
1867.5000	623.318
1868.0000	623.281
1868.5000	623.281
1869.0000	623.217
1869.5000	623.181
1870.0000	623.29
1870.5000	623.313
1871.0000	623.319
1871.5000	623.388
1872.0000	623.416
1872.5000	623.359
1873.0000	623.485
1873.5000	623.432
1874.0000	623.418
1874.5000	623.387
1875.0000	623.406
1875.5000	623.454
1876.0000	623.48
1876.5000	623.657
1877.0000	623.551
1877.5000	623.511
1878.0000	623.496
1878.5000	623.382
1879.0000	623.412
1879.5000	623.461
1880.0000	623.422
1880.5000	623.45
1881.0000	623.399
1881.5000	623.321
1882.0000	623.312
1882.5000	623.306
1883.0000	623.383
1883.5000	623.508
1884.0000	623.472
1884.5000	623.402
1885.0000	623.417
1885.5000	623.496
1886.0000	623.657
1886.5000	623.721
1887.0000	623.796
1887.5000	623.797
1888.0000	623.729
1888.5000	623.772
1889.0000	623.833
1889.5000	623.843
1890.0000	623.881
1890.5000	623.854
1891.0000	623.811
1891.5000	623.772
1892.0000	623.851
1892.5000	623.905
1893.0000	623.862
1893.5000	623.834
1894.0000	623.742
1894.5000	623.746
1895.0000	623.791
1895.5000	623.786
1896.0000	623.778
1896.5000	623.821
1897.0000	623.96
1897.5000	624.029
1898.0000	624.084
1898.5000	624.15
1899.0000	624.013
1899.5000	624.071
1900.0000	624.032
1900.5000	623.907
1901.0000	623.861
1901.5000	623.74
1902.0000	623.809
1902.5000	623.982
1903.0000	624.012
1903.5000	624.064
1904.0000	624.057
1904.5000	623.952
1905.0000	624.006
1905.5000	624.064
1906.0000	624.085
1906.5000	624.246
1907.0000	624.314
1907.5000	624.293
1908.0000	624.309
1908.5000	624.188
1909.0000	624.153
1909.5000	624.154
1910.0000	624.128
1910.5000	624.082
1911.0000	624.102
1911.5000	624.189
1912.0000	624.165
1912.5000	624.396
1913.0000	624.414
1913.5000	624.285
1914.0000	624.387
1914.5000	624.313
1915.0000	624.312
1915.5000	624.376
1916.0000	624.32
1916.5000	624.409
1917.0000	624.442
1917.5000	624.43
1918.0000	624.596
1918.5000	624.558
1919.0000	624.454
1919.5000	624.646
1920.0000	624.499
1920.5000	624.458
1921.0000	624.533
1921.5000	624.438
1922.0000	624.486
1922.5000	624.568
1923.0000	624.554
1923.5000	624.607
1924.0000	624.707
1924.5000	624.532
1925.0000	624.676
1925.5000	624.722
1926.0000	624.681
1926.5000	624.896
1927.0000	624.87
1927.5000	624.814
1928.0000	624.883
1928.5000	624.779
1929.0000	624.798
1929.5000	624.782
1930.0000	624.752
1930.5000	624.846
1931.0000	624.964
1931.5000	624.975
1932.0000	624.994
1932.5000	625.07
1933.0000	625.021
1933.5000	624.965
1934.0000	624.981
1934.5000	624.841
1935.0000	624.726
1935.5000	624.914
1936.0000	624.931
1936.5000	624.983
1937.0000	625.032
1937.5000	624.917
1938.0000	624.97
1938.5000	625.103
1939.0000	625.117
1939.5000	625.159
1940.0000	625.153
1940.5000	625.085
1941.0000	625.182
1941.5000	625.286
1942.0000	625.275
1942.5000	625.311
1943.0000	625.297
1943.5000	625.34
1944.0000	625.387
1944.5000	625.251
1945.0000	625.158
1945.5000	625.07
1946.0000	624.95
1946.5000	625.124
1947.0000	625.218
1947.5000	625.285
1948.0000	625.312
1948.5000	625.218
1949.0000	625.156
1949.5000	625.014
1950.0000	625.074
1950.5000	625.121
1951.0000	625.176
1951.5000	625.322
1952.0000	625.353
1952.5000	625.338
1953.0000	625.345
1953.5000	625.295
1954.0000	625.301
1954.5000	625.289
1955.0000	625.333
1955.5000	625.315
1956.0000	625.326
1956.5000	625.326
1957.0000	625.39
1957.5000	625.485
1958.0000	625.551
1958.5000	625.585
1959.0000	625.559
1959.5000	625.525
1960.0000	625.502
1960.5000	625.548
1961.0000	625.48
1961.5000	625.493
1962.0000	625.56
1962.5000	625.652
1963.0000	625.696
1963.5000	625.744
1964.0000	625.572
1964.5000	625.557
1965.0000	625.546
1965.5000	625.515
1966.0000	625.631
1966.5000	625.556
1967.0000	625.604
1967.5000	625.608
1968.0000	625.579
1968.5000	625.58
1969.0000	625.61
1969.5000	625.66
1970.0000	625.756
1970.5000	625.879
1971.0000	625.873
1971.5000	625.85
1972.0000	625.803
1972.5000	625.776
1973.0000	625.834
1973.5000	625.807
1974.0000	625.827
1974.5000	625.854
1975.0000	625.82
1975.5000	625.873
1976.0000	625.845
1976.5000	625.808
1977.0000	625.829
1977.5000	625.813
1978.0000	625.792
1978.5000	625.853
1979.0000	625.927
1979.5000	625.938
1980.0000	626.053
1980.5000	625.947
1981.0000	625.854
1981.5000	625.945
1982.0000	625.977
1982.5000	625.994
1983.0000	625.986
1983.5000	626.01
1984.0000	626.003
1984.5000	626.117
1985.0000	626.204
1985.5000	626.165
1986.0000	626.036
1986.5000	626.111
1987.0000	626.09
1987.5000	626.034
1988.0000	626.217
1988.5000	626.065
1989.0000	626.134
1989.5000	626.345
1990.0000	626.209
1990.5000	626.338
1991.0000	626.298
1991.5000	626.156
1992.0000	626.17
1992.5000	626.095
1993.0000	626.161
1993.5000	626.192
1994.0000	626.218
1994.5000	626.222
1995.0000	626.136
1995.5000	626.194
1996.0000	626.279
1996.5000	626.193
1997.0000	626.261
1997.5000	626.176
1998.0000	626.129
1998.5000	626.233
1999.0000	626.25
1999.5000	626.198
2000.0000	626.239
2000.5000	626.197
2001.0000	626.245
2001.5000	626.372
2002.0000	626.443
2002.5000	626.597
2003.0000	626.612
2003.5000	626.604
2004.0000	626.602
2004.5000	626.536
2005.0000	626.435
2005.5000	626.393
2006.0000	626.385
2006.5000	626.361
2007.0000	626.405
2007.5000	626.526
2008.0000	626.484
2008.5000	626.495
2009.0000	626.566
2009.5000	626.584
2010.0000	626.574
2010.5000	626.629
2011.0000	626.612
2011.5000	626.49
2012.0000	626.541
2012.5000	626.481
2013.0000	626.435
2013.5000	626.512
2014.0000	626.597
2014.5000	626.555
2015.0000	626.6
2015.5000	626.599
2016.0000	626.399
2016.5000	626.527
2017.0000	626.465
2017.5000	626.408
2018.0000	626.676
2018.5000	626.614
2019.0000	626.72
2019.5000	626.908
2020.0000	626.773
2020.5000	626.821
2021.0000	626.912
2021.5000	626.774
2022.0000	626.846
2022.5000	626.829
2023.0000	626.677
2023.5000	626.675
2024.0000	626.651
2024.5000	626.623
2025.0000	626.694
2025.5000	626.744
2026.0000	626.684
2026.5000	626.774
2027.0000	626.725
2027.5000	626.701
2028.0000	626.883
2028.5000	626.768
2029.0000	626.704
2029.5000	626.787
2030.0000	626.584
2030.5000	626.693
2031.0000	626.77
2031.5000	626.884
2032.0000	626.943
2032.5000	626.912
2033.0000	627.055
2033.5000	626.997
2034.0000	626.994
2034.5000	627.002
2035.0000	626.762
2035.5000	626.565
2036.0000	626.547
2036.5000	626.614
2037.0000	626.674
2037.5000	626.771
2038.0000	626.874
2038.5000	626.881
2039.0000	626.949
2039.5000	626.977
2040.0000	627.041
2040.5000	626.976
2041.0000	626.888
2041.5000	626.854
2042.0000	626.831
2042.5000	626.949
2043.0000	627.031
2043.5000	627.099
2044.0000	627.054
2044.5000	627.025
2045.0000	627.118
2045.5000	627.038
2046.0000	627.024
2046.5000	627.025
2047.0000	627.032
2047.5000	627.074
2048.0000	627.06
2048.5000	627.117
2049.0000	627.043
2049.5000	627.057
2050.0000	627.235
2050.5000	627.128
2051.0000	627.233
2051.5000	627.289
2052.0000	627.067
2052.5000	627.225
2053.0000	627.165
2053.5000	627.278
2054.0000	627.526
2054.5000	627.348
2055.0000	627.402
2055.5000	627.332
2056.0000	627.187
2056.5000	627.275
2057.0000	627.319
2057.5000	627.297
2058.0000	627.259
2058.5000	627.383
2059.0000	627.305
2059.5000	627.301
2060.0000	627.343
2060.5000	627.242
2061.0000	627.268
2061.5000	627.23
2062.0000	627.229
2062.5000	627.193
2063.0000	627.161
2063.5000	627.258
2064.0000	627.22
2064.5000	627.25
2065.0000	627.321
2065.5000	627.241
2066.0000	627.212
2066.5000	627.272
2067.0000	627.288
2067.5000	627.354
2068.0000	627.418
2068.5000	627.309
2069.0000	627.246
2069.5000	627.209
2070.0000	627.309
2070.5000	627.466
2071.0000	627.566
2071.5000	627.515
2072.0000	627.538
2072.5000	627.459
2073.0000	627.474
2073.5000	627.576
2074.0000	627.519
2074.5000	627.498
2075.0000	627.466
2075.5000	627.521
2076.0000	627.494
2076.5000	627.589
2077.0000	627.509
2077.5000	627.445
2078.0000	627.499
2078.5000	627.554
2079.0000	627.554
2079.5000	627.543
2080.0000	627.554
2080.5000	627.404
2081.0000	627.603
2081.5000	627.711
2082.0000	627.802
2082.5000	627.83
2083.0000	627.73
2083.5000	627.741
2084.0000	627.812
2084.5000	627.813
2085.0000	627.833
2085.5000	627.784
2086.0000	627.699
2086.5000	627.862
2087.0000	627.806
2087.5000	627.797
2088.0000	627.793
2088.5000	627.695
2089.0000	627.726
2089.5000	627.84
2090.0000	627.799
2090.5000	627.915
2091.0000	628.015
2091.5000	627.868
2092.0000	627.941
2092.5000	627.867
2093.0000	627.797
2093.5000	627.854
2094.0000	627.916
2094.5000	627.96
2095.0000	627.968
2095.5000	628.058
2096.0000	628.038
2096.5000	628.028
2097.0000	628.131
2097.5000	628.07
2098.0000	627.999
2098.5000	628.03
2099.0000	628.031
2099.5000	627.992
2100.0000	627.995
2100.5000	627.979
2101.0000	627.905
2101.5000	627.985
2102.0000	628.033
2102.5000	628.07
2103.0000	627.993
2103.5000	628.008
2104.0000	628.022
2104.5000	628.084
2105.0000	628.196
2105.5000	628.105
2106.0000	628.047
2106.5000	627.872
2107.0000	627.941
2107.5000	628.021
2108.0000	628.078
2108.5000	628.203
2109.0000	628.14
2109.5000	628.151
2110.0000	628.2
2110.5000	628.203
2111.0000	628.099
2111.5000	628.141
2112.0000	628.157
2112.5000	628.023
2113.0000	628.132
2113.5000	628.147
2114.0000	628.107
2114.5000	628.229
2115.0000	628.307
2115.5000	628.316
2116.0000	628.291
2116.5000	628.276
2117.0000	628.198
2117.5000	628.118
2118.0000	628.203
2118.5000	628.143
2119.0000	628.246
2119.5000	628.446
2120.0000	628.37
2120.5000	628.417
2121.0000	628.378
2121.5000	628.293
2122.0000	628.293
2122.5000	628.398
2123.0000	628.382
2123.5000	628.299
2124.0000	628.205
2124.5000	628.162
2125.0000	628.112
2125.5000	628.24
2126.0000	628.422
2126.5000	628.42
2127.0000	628.492
2127.5000	628.43
2128.0000	628.442
2128.5000	628.438
2129.0000	628.413
2129.5000	628.405
2130.0000	628.431
2130.5000	628.368
2131.0000	628.408
2131.5000	628.464
2132.0000	628.354
2132.5000	628.425
2133.0000	628.416
2133.5000	628.28
2134.0000	628.366
2134.5000	628.435
2135.0000	628.455
2135.5000	628.584
2136.0000	628.482
2136.5000	628.587
2137.0000	628.512
2137.5000	628.421
2138.0000	628.542
2138.5000	628.431
2139.0000	628.571
2139.5000	628.655
2140.0000	628.619
2140.5000	628.667
2141.0000	628.61
2141.5000	628.607
2142.0000	628.569
2142.5000	628.504
2143.0000	628.496
2143.5000	628.507
2144.0000	628.706
2144.5000	628.764
2145.0000	628.781
2145.5000	628.825
2146.0000	628.618
2146.5000	628.64
2147.0000	628.604
2147.5000	628.508
2148.0000	628.639
2148.5000	628.571
2149.0000	628.644
2149.5000	628.799
2150.0000	628.726
2150.5000	628.81
2151.0000	628.853
2151.5000	628.79
2152.0000	628.834
2152.5000	628.792
2153.0000	628.804
2153.5000	628.681
2154.0000	628.791
2154.5000	628.763
2155.0000	628.711
2155.5000	628.877
2156.0000	628.792
2156.5000	628.821
2157.0000	628.81
2157.5000	628.722
2158.0000	628.814
2158.5000	628.899
2159.0000	628.922
2159.5000	629.035
2160.0000	629.011
2160.5000	628.969
2161.0000	629.017
2161.5000	629.016
2162.0000	628.858
2162.5000	628.784
2163.0000	628.816
2163.5000	628.793
2164.0000	628.85
2164.5000	629.009
2165.0000	628.994
2165.5000	628.909
2166.0000	628.982
2166.5000	628.969
2167.0000	628.894
2167.5000	629.054
2168.0000	629.001
2168.5000	628.965
2169.0000	629.072
2169.5000	629.002
2170.0000	628.996
2170.5000	628.979
2171.0000	628.949
2171.5000	628.997
2172.0000	628.876
2172.5000	628.958
2173.0000	628.99
2173.5000	628.991
2174.0000	629.158
2174.5000	629.005
2175.0000	628.998
2175.5000	628.947
2176.0000	629.062
2176.5000	629.112
2177.0000	629.075
2177.5000	628.998
2178.0000	628.942
2178.5000	628.929
2179.0000	628.939
2179.5000	629.004
2180.0000	629.036
2180.5000	629.056
2181.0000	629.037
2181.5000	629.05
2182.0000	629.154
2182.5000	629.234
2183.0000	629.362
2183.5000	629.438
2184.0000	629.323
2184.5000	629.4
2185.0000	629.331
2185.5000	629.192
2186.0000	629.106
2186.5000	629.053
2187.0000	629.093
2187.5000	629.178
2188.0000	629.331
2188.5000	629.298
2189.0000	629.25
2189.5000	629.287
2190.0000	629.193
2190.5000	629.215
2191.0000	629.271
2191.5000	629.281
2192.0000	629.308
2192.5000	629.332
2193.0000	629.39
2193.5000	629.263
2194.0000	629.296
2194.5000	629.384
2195.0000	629.292
2195.5000	629.498
2196.0000	629.541
2196.5000	629.488
2197.0000	629.493
2197.5000	629.261
2198.0000	629.263
2198.5000	629.26
2199.0000	629.306
2199.5000	629.599
2200.0000	629.514
2200.5000	629.428
2201.0000	629.409
2201.5000	629.235
2202.0000	629.331
2202.5000	629.462
2203.0000	629.554
2203.5000	629.659
2204.0000	629.631
2204.5000	629.443
2205.0000	629.369
2205.5000	629.302
2206.0000	629.279
2206.5000	629.401
2207.0000	629.403
2207.5000	629.365
2208.0000	629.47
2208.5000	629.536
2209.0000	629.607
2209.5000	629.809
2210.0000	629.671
2210.5000	629.64
2211.0000	629.651
2211.5000	629.625
2212.0000	629.711
2212.5000	629.646
2213.0000	629.562
2213.5000	629.54
2214.0000	629.526
2214.5000	629.597
2215.0000	629.552
2215.5000	629.516
2216.0000	629.539
2216.5000	629.567
2217.0000	629.665
2217.5000	629.719
2218.0000	629.755
2218.5000	629.759
2219.0000	629.849
2219.5000	629.798
2220.0000	629.745
2220.5000	629.774
2221.0000	629.687
2221.5000	629.745
2222.0000	629.756
2222.5000	629.78
2223.0000	629.783
2223.5000	629.766
2224.0000	629.852
2224.5000	629.763
2225.0000	629.796
2225.5000	629.886
2226.0000	629.75
2226.5000	629.761
2227.0000	629.713
2227.5000	629.641
2228.0000	629.597
2228.5000	629.594
2229.0000	629.569
2229.5000	629.535
2230.0000	629.669
2230.5000	629.651
2231.0000	629.714
2231.5000	629.726
2232.0000	629.726
2232.5000	629.76
2233.0000	629.851
2233.5000	629.889
2234.0000	629.976
2234.5000	630.096
2235.0000	630.075
2235.5000	630.22
2236.0000	630.168
2236.5000	630.139
2237.0000	630.057
2237.5000	629.937
2238.0000	630.034
2238.5000	629.967
2239.0000	630.076
2239.5000	630.074
2240.0000	629.931
2240.5000	630.03
2241.0000	629.945
2241.5000	629.997
2242.0000	630.161
2242.5000	630.155
2243.0000	630.225
2243.5000	630.267
2244.0000	630.204
2244.5000	630.188
2245.0000	630.128
2245.5000	630.113
2246.0000	630.137
2246.5000	630.222
2247.0000	630.257
2247.5000	630.25
2248.0000	630.237
2248.5000	630.129
2249.0000	630.204
2249.5000	630.249
2250.0000	630.304
2250.5000	630.46
2251.0000	630.538
2251.5000	630.526
2252.0000	630.394
2252.5000	630.291
2253.0000	630.2
2253.5000	630.13
2254.0000	630.249
2254.5000	630.322
2255.0000	630.381
2255.5000	630.334
2256.0000	630.364
2256.5000	630.366
2257.0000	630.346
2257.5000	630.42
2258.0000	630.283
2258.5000	630.321
2259.0000	630.216
2259.5000	630.279
2260.0000	630.353
2260.5000	630.268
2261.0000	630.386
2261.5000	630.302
2262.0000	630.403
2262.5000	630.442
2263.0000	630.42
2263.5000	630.49
2264.0000	630.54
2264.5000	630.559
2265.0000	630.555
2265.5000	630.66
2266.0000	630.478
2266.5000	630.419
2267.0000	630.453
2267.5000	630.372
2268.0000	630.404
2268.5000	630.508
2269.0000	630.587
2269.5000	630.474
2270.0000	630.56
2270.5000	630.446
2271.0000	630.358
2271.5000	630.457
2272.0000	630.393
2272.5000	630.475
2273.0000	630.44
2273.5000	630.49
2274.0000	630.582
2274.5000	630.637
2275.0000	630.662
2275.5000	630.506
2276.0000	630.497
2276.5000	630.376
2277.0000	630.405
2277.5000	630.554
2278.0000	630.594
2278.5000	630.675
2279.0000	630.811
2279.5000	630.742
2280.0000	630.704
2280.5000	630.738
2281.0000	630.555
2281.5000	630.619
2282.0000	630.506
2282.5000	630.541
2283.0000	630.609
2283.5000	630.619
2284.0000	630.777
2284.5000	630.713
2285.0000	630.677
2285.5000	630.714
2286.0000	630.761
2286.5000	630.737
2287.0000	630.828
2287.5000	630.826
2288.0000	630.716
2288.5000	630.85
2289.0000	630.813
2289.5000	630.752
2290.0000	630.848
2290.5000	630.843
2291.0000	630.903
2291.5000	630.996
2292.0000	631.015
2292.5000	630.974
2293.0000	630.84
2293.5000	630.94
2294.0000	630.859
2294.5000	630.984
2295.0000	631.107
2295.5000	630.974
2296.0000	631.181
2296.5000	631.056
2297.0000	631.022
2297.5000	630.882
2298.0000	630.687
2298.5000	630.644
2299.0000	630.642
2299.5000	630.859
2300.0000	630.837
2300.5000	630.808
2301.0000	630.89
2301.5000	630.828
2302.0000	630.883
2302.5000	631.033
2303.0000	630.982
