TITLE	
DATA TYPE	
ORIGIN	JASCO
OWNER	
DATE	21/10/28
TIME	15:11:00
SPECTROMETER/DATA SYSTEM	
RESOLUTION	
DELTAX	1
XUNITS	SEC
YUNITS	INTENSITY
FIRSTX	0.0000
LASTX	4659.0000
NPOINTS	4660
FIRSTY	383.44852
MAXY	489.52106
MINY	-341.95425
XYDATA
0.0000	383.449
1.0000	383.365
2.0000	389.385
3.0000	389.625
4.0000	387.279
5.0000	389.379
6.0000	387.021
7.0000	385.697
8.0000	386.822
9.0000	387.094
10.0000	386.567
11.0000	384.2
12.0000	386.348
13.0000	385.229
14.0000	385.087
15.0000	388.307
16.0000	385.44
17.0000	385.967
18.0000	382.962
19.0000	378.995
20.0000	384.143
21.0000	388.48
22.0000	390.075
23.0000	386.447
24.0000	383.449
25.0000	383.748
26.0000	386.225
27.0000	388.569
28.0000	387.009
29.0000	386.448
30.0000	385.898
31.0000	383.905
32.0000	384.527
33.0000	387.692
34.0000	390.007
35.0000	387.478
36.0000	388.335
37.0000	388.235
38.0000	385.189
39.0000	384.976
40.0000	386.45
41.0000	387.664
42.0000	385.426
43.0000	385.783
44.0000	385.422
45.0000	384.751
46.0000	386.189
47.0000	388.201
48.0000	384.576
49.0000	386.914
50.0000	388.992
51.0000	384.297
52.0000	375.786
53.0000	319.717
54.0000	-341.954
55.0000	-224.925
56.0000	-207.382
57.0000	306.46
58.0000	245.679
59.0000	206.741
60.0000	205.278
61.0000	203.983
62.0000	204.799
63.0000	205.839
64.0000	207.024
65.0000	205.72
66.0000	205.099
67.0000	205.406
68.0000	205.48
69.0000	207.705
70.0000	208.644
71.0000	209.944
72.0000	210.526
73.0000	210.813
74.0000	209.216
75.0000	210.583
76.0000	213.772
77.0000	212.176
78.0000	211.643
79.0000	212.024
80.0000	213.738
81.0000	212.88
82.0000	213.09
83.0000	212.029
84.0000	211.501
85.0000	215.352
86.0000	214.639
87.0000	213.678
88.0000	214.384
89.0000	214.993
90.0000	217.136
91.0000	218.001
92.0000	218.571
93.0000	219.536
94.0000	217.866
95.0000	219.213
96.0000	219.562
97.0000	217.829
98.0000	220.48
99.0000	221.867
100.0000	220.846
101.0000	219.146
102.0000	217.963
103.0000	220.515
104.0000	220.575
105.0000	218.576
106.0000	219.664
107.0000	221.662
108.0000	223.144
109.0000	224.286
110.0000	223.56
111.0000	222.318
112.0000	222.555
113.0000	222.484
114.0000	223.823
115.0000	226.497
116.0000	225.335
117.0000	224.266
118.0000	225.137
119.0000	225.701
120.0000	226.746
121.0000	229.707
122.0000	230.14
123.0000	228.752
124.0000	228.438
125.0000	228.233
126.0000	226.639
127.0000	226.772
128.0000	228.626
129.0000	227.93
130.0000	226.701
131.0000	227.155
132.0000	226.647
133.0000	227.862
134.0000	229.561
135.0000	228.713
136.0000	230.084
137.0000	229.587
138.0000	229.526
139.0000	231.911
140.0000	235.528
141.0000	233.441
142.0000	230.949
143.0000	231.179
144.0000	229.308
145.0000	230.429
146.0000	234.937
147.0000	235.28
148.0000	234.285
149.0000	236.335
150.0000	236.734
151.0000	236.311
152.0000	235.776
153.0000	235.147
154.0000	235.393
155.0000	235.594
156.0000	235.131
157.0000	235.463
158.0000	238.298
159.0000	237.828
160.0000	235.37
161.0000	237.397
162.0000	238.813
163.0000	240.029
164.0000	240.496
165.0000	239.533
166.0000	240.122
167.0000	238.951
168.0000	241.107
169.0000	242.069
170.0000	237.515
171.0000	239.507
172.0000	240.824
173.0000	237.285
174.0000	237.874
175.0000	240.712
176.0000	240.707
177.0000	240.17
178.0000	242.954
179.0000	244.438
180.0000	244.482
181.0000	245.279
182.0000	243.119
183.0000	244.259
184.0000	246.048
185.0000	245.149
186.0000	247.666
187.0000	250.927
188.0000	250.783
189.0000	250.29
190.0000	248.577
191.0000	243.364
192.0000	245.708
193.0000	247.879
194.0000	247.414
195.0000	249.08
196.0000	250.378
197.0000	251.958
198.0000	251.592
199.0000	249.731
200.0000	248.865
201.0000	251.502
202.0000	251.684
203.0000	251.161
204.0000	253.014
205.0000	254.327
206.0000	253.836
207.0000	251.402
208.0000	253.657
209.0000	254.283
210.0000	249.546
211.0000	246.602
212.0000	247.597
213.0000	250.446
214.0000	252.399
215.0000	255.809
216.0000	257.622
217.0000	253.278
218.0000	251.403
219.0000	253.749
220.0000	257.092
221.0000	256.745
222.0000	256.797
223.0000	258.118
224.0000	254.367
225.0000	255.992
226.0000	258.333
227.0000	255.868
228.0000	254.384
229.0000	254.592
230.0000	252.832
231.0000	254.657
232.0000	260.997
233.0000	261.8
234.0000	257.991
235.0000	256.998
236.0000	258.766
237.0000	260.145
238.0000	258.783
239.0000	259.186
240.0000	259.492
241.0000	259.975
242.0000	259.641
243.0000	261.155
244.0000	263.431
245.0000	263.435
246.0000	263.605
247.0000	260.891
248.0000	260.49
249.0000	260.576
250.0000	258.931
251.0000	256.514
252.0000	261.515
253.0000	265.083
254.0000	263.409
255.0000	263.85
256.0000	265.066
257.0000	267.083
258.0000	267.125
259.0000	263.705
260.0000	261.313
261.0000	265.947
262.0000	268.783
263.0000	267.339
264.0000	267.43
265.0000	267.559
266.0000	265.465
267.0000	264.999
268.0000	266.549
269.0000	268.093
270.0000	268.924
271.0000	268.928
272.0000	268.516
273.0000	267.082
274.0000	268.61
275.0000	267.706
276.0000	267.913
277.0000	268.257
278.0000	268.309
279.0000	269
280.0000	269.391
281.0000	272.417
282.0000	272.201
283.0000	270.368
284.0000	271.395
285.0000	271.811
286.0000	271.419
287.0000	271.625
288.0000	270.71
289.0000	270.797
290.0000	273.51
291.0000	273.368
292.0000	272.49
293.0000	271.041
294.0000	269.186
295.0000	271.422
296.0000	272.371
297.0000	270.353
298.0000	271.28
299.0000	275.714
300.0000	275.41
301.0000	274.473
302.0000	277.003
303.0000	278.434
304.0000	277.195
305.0000	275.417
306.0000	272.248
307.0000	271.38
308.0000	273.326
309.0000	276.488
310.0000	275.891
311.0000	274.463
312.0000	275.219
313.0000	275.067
314.0000	278.386
315.0000	276.964
316.0000	277.087
317.0000	279.174
318.0000	278.699
319.0000	279.386
320.0000	280.987
321.0000	278.657
322.0000	278.69
323.0000	278.329
324.0000	276.367
325.0000	279.195
326.0000	275.596
327.0000	275.914
328.0000	278.214
329.0000	280.76
330.0000	281.83
331.0000	281.372
332.0000	280.977
333.0000	278.399
334.0000	279.041
335.0000	282.964
336.0000	280.953
337.0000	279.245
338.0000	283.227
339.0000	283.9
340.0000	283.416
341.0000	284.117
342.0000	286.295
343.0000	285.081
344.0000	284.42
345.0000	285.37
346.0000	283.593
347.0000	279.053
348.0000	279.7
349.0000	285.055
350.0000	285.475
351.0000	284.636
352.0000	282.313
353.0000	284.266
354.0000	286.05
355.0000	286.147
356.0000	287.714
357.0000	286.986
358.0000	287.712
359.0000	284.25
360.0000	280.548
361.0000	283.554
362.0000	286.938
363.0000	288.596
364.0000	287.357
365.0000	289.148
366.0000	289.966
367.0000	285.124
368.0000	286.208
369.0000	288.904
370.0000	289.245
371.0000	290.783
372.0000	289.548
373.0000	289.446
374.0000	288.713
375.0000	286.397
376.0000	287.584
377.0000	290.973
378.0000	292.564
379.0000	290.376
380.0000	290.652
381.0000	291.971
382.0000	292.709
383.0000	293.439
384.0000	291.24
385.0000	288.999
386.0000	290.198
387.0000	292.101
388.0000	291.508
389.0000	291.142
390.0000	296.013
391.0000	297.29
392.0000	295.292
393.0000	293.025
394.0000	291.575
395.0000	291.232
396.0000	294.526
397.0000	297.386
398.0000	299.056
399.0000	300.798
400.0000	295.301
401.0000	292.288
402.0000	293.694
403.0000	293.583
404.0000	294.421
405.0000	294.264
406.0000	292.402
407.0000	294.774
408.0000	297.843
409.0000	297.55
410.0000	295.843
411.0000	296.779
412.0000	296.817
413.0000	295.978
414.0000	296.929
415.0000	301.079
416.0000	300.8
417.0000	296.576
418.0000	297.834
419.0000	298.098
420.0000	297.315
421.0000	296.746
422.0000	298.44
423.0000	300.227
424.0000	299.406
425.0000	300.143
426.0000	302.669
427.0000	303.868
428.0000	303.976
429.0000	303.65
430.0000	304.156
431.0000	302.856
432.0000	300.043
433.0000	301.102
434.0000	300.393
435.0000	301.57
436.0000	303.226
437.0000	300.721
438.0000	301.695
439.0000	301.671
440.0000	301.107
441.0000	302.417
442.0000	300.97
443.0000	301.408
444.0000	304.743
445.0000	304.543
446.0000	302.679
447.0000	303.741
448.0000	303.024
449.0000	301.594
450.0000	304.422
451.0000	307.469
452.0000	308.216
453.0000	307.067
454.0000	305.148
455.0000	306.214
456.0000	305.331
457.0000	304.973
458.0000	310.23
459.0000	310.29
460.0000	306.415
461.0000	303.504
462.0000	303.608
463.0000	309.255
464.0000	308.493
465.0000	307.228
466.0000	310.673
467.0000	307.428
468.0000	307.165
469.0000	309.813
470.0000	311.911
471.0000	313.329
472.0000	309.898
473.0000	307.01
474.0000	307.21
475.0000	307.972
476.0000	309.664
477.0000	310.135
478.0000	306.259
479.0000	306.141
480.0000	306.213
481.0000	309.231
482.0000	313.655
483.0000	310.044
484.0000	309.954
485.0000	312.172
486.0000	312.807
487.0000	311.771
488.0000	309.461
489.0000	311.606
490.0000	313.154
491.0000	312.635
492.0000	311.913
493.0000	313.257
494.0000	315.467
495.0000	311.62
496.0000	309.513
497.0000	313.152
498.0000	314.324
499.0000	313.758
500.0000	313.894
501.0000	311.887
502.0000	313.377
503.0000	316.795
504.0000	316.986
505.0000	317.88
506.0000	317.18
507.0000	316.092
508.0000	315.226
509.0000	315.746
510.0000	316.447
511.0000	317.353
512.0000	316.309
513.0000	313.606
514.0000	312.412
515.0000	312.374
516.0000	313.866
517.0000	313.117
518.0000	311.714
519.0000	314.347
520.0000	317.368
521.0000	315.786
522.0000	314.389
523.0000	316.175
524.0000	317.707
525.0000	318.149
526.0000	317.849
527.0000	317.763
528.0000	321.18
529.0000	322.361
530.0000	322.091
531.0000	320.785
532.0000	319.037
533.0000	321.789
534.0000	321.528
535.0000	320.747
536.0000	320.365
537.0000	318.729
538.0000	319.976
539.0000	321.779
540.0000	323.958
541.0000	322.216
542.0000	319.829
543.0000	320.472
544.0000	322.765
545.0000	322.874
546.0000	321.919
547.0000	319.877
548.0000	320.845
549.0000	324.901
550.0000	324.492
551.0000	323.209
552.0000	323.357
553.0000	321.738
554.0000	321.169
555.0000	322.944
556.0000	323.13
557.0000	321.83
558.0000	320.293
559.0000	323.096
560.0000	323.07
561.0000	325.352
562.0000	326.359
563.0000	323.838
564.0000	325.247
565.0000	326.15
566.0000	323.107
567.0000	319.986
568.0000	325.118
569.0000	326.385
570.0000	323.115
571.0000	324.555
572.0000	324.685
573.0000	324.999
574.0000	325.739
575.0000	326.907
576.0000	331.278
577.0000	329.183
578.0000	326.87
579.0000	327.238
580.0000	324.537
581.0000	327.72
582.0000	331.802
583.0000	329.252
584.0000	328.363
585.0000	328.461
586.0000	327.997
587.0000	331.229
588.0000	328.397
589.0000	330.262
590.0000	332.858
591.0000	331.241
592.0000	329.847
593.0000	327.249
594.0000	329.283
595.0000	329.095
596.0000	331.689
597.0000	333.09
598.0000	327.362
599.0000	329.107
600.0000	334.331
601.0000	332.197
602.0000	328.124
603.0000	326.52
604.0000	330.789
605.0000	334.764
606.0000	334.219
607.0000	332.094
608.0000	332.75
609.0000	335.067
610.0000	334.772
611.0000	333.695
612.0000	333.868
613.0000	335.784
614.0000	335.884
615.0000	333.069
616.0000	334.25
617.0000	332.946
618.0000	331.728
619.0000	335.42
620.0000	333.247
621.0000	334.228
622.0000	335.821
623.0000	333.396
624.0000	332.739
625.0000	332.962
626.0000	336.564
627.0000	336.228
628.0000	336.613
629.0000	339.1
630.0000	336.543
631.0000	333.948
632.0000	336.999
633.0000	340.252
634.0000	334.473
635.0000	335
636.0000	338.697
637.0000	340.142
638.0000	339.871
639.0000	338.606
640.0000	339.292
641.0000	339.58
642.0000	338.119
643.0000	337.749
644.0000	337.7
645.0000	334.499
646.0000	337.197
647.0000	338.411
648.0000	340.463
649.0000	342.295
650.0000	339.356
651.0000	337.46
652.0000	337.371
653.0000	334.412
654.0000	334.135
655.0000	341.435
656.0000	343.157
657.0000	339.054
658.0000	339.121
659.0000	339.727
660.0000	340.846
661.0000	344.893
662.0000	343.579
663.0000	340.317
664.0000	343.391
665.0000	344.38
666.0000	340.506
667.0000	341.777
668.0000	341.355
669.0000	339.654
670.0000	343.674
671.0000	345.958
672.0000	344.496
673.0000	343.039
674.0000	343.027
675.0000	342.364
676.0000	341.756
677.0000	342.605
678.0000	344.425
679.0000	346.174
680.0000	344.702
681.0000	341.884
682.0000	345.548
683.0000	347.612
684.0000	343.011
685.0000	343.231
686.0000	347.118
687.0000	350.77
688.0000	346.924
689.0000	344.811
690.0000	346.425
691.0000	342.949
692.0000	345.763
693.0000	347.33
694.0000	345.437
695.0000	344.098
696.0000	343.466
697.0000	345.448
698.0000	346.115
699.0000	345.709
700.0000	345.258
701.0000	346.169
702.0000	348.897
703.0000	346.59
704.0000	344.863
705.0000	347.249
706.0000	349.017
707.0000	349.004
708.0000	347.538
709.0000	348.105
710.0000	349.034
711.0000	349.273
712.0000	347.432
713.0000	347.84
714.0000	347.167
715.0000	347.462
716.0000	350.388
717.0000	346.913
718.0000	344.621
719.0000	350.114
720.0000	349.755
721.0000	347.04
722.0000	348.802
723.0000	351.575
724.0000	350.154
725.0000	348.192
726.0000	349.594
727.0000	350.096
728.0000	354.051
729.0000	354.28
730.0000	351.513
731.0000	352.289
732.0000	351.154
733.0000	347.508
734.0000	346.606
735.0000	348.777
736.0000	350.834
737.0000	350.506
738.0000	351.048
739.0000	349.678
740.0000	347.178
741.0000	350.671
742.0000	353.555
743.0000	351.743
744.0000	350.541
745.0000	353.267
746.0000	356.772
747.0000	358.294
748.0000	357.878
749.0000	352.431
750.0000	351.89
751.0000	354.382
752.0000	353.228
753.0000	352.777
754.0000	352.956
755.0000	352.4
756.0000	353.163
757.0000	356.839
758.0000	355.479
759.0000	355.29
760.0000	355.373
761.0000	354.246
762.0000	354.383
763.0000	352.856
764.0000	354.11
765.0000	357.631
766.0000	358.654
767.0000	358.56
768.0000	358.209
769.0000	356.846
770.0000	355.785
771.0000	357.576
772.0000	357.277
773.0000	356.918
774.0000	360.116
775.0000	358.473
776.0000	353.437
777.0000	354.682
778.0000	358.332
779.0000	358.375
780.0000	360.759
781.0000	358.099
782.0000	356.534
783.0000	359.083
784.0000	357.411
785.0000	358.844
786.0000	361.01
787.0000	357.834
788.0000	358.04
789.0000	360.175
790.0000	359.152
791.0000	357.331
792.0000	358.578
793.0000	361.91
794.0000	360.775
795.0000	361.841
796.0000	366.066
797.0000	364.725
798.0000	360.186
799.0000	356.649
800.0000	358.743
801.0000	363.315
802.0000	365.691
803.0000	364.562
804.0000	360.576
805.0000	360.515
806.0000	362.235
807.0000	362.037
808.0000	361.007
809.0000	358.959
810.0000	359.286
811.0000	362.356
812.0000	363.119
813.0000	364.489
814.0000	366.753
815.0000	366.982
816.0000	365.443
817.0000	360.074
818.0000	360.551
819.0000	366.335
820.0000	364.039
821.0000	363.499
822.0000	365.902
823.0000	363.514
824.0000	363.427
825.0000	364.332
826.0000	366.429
827.0000	364.446
828.0000	362.53
829.0000	364.031
830.0000	363.25
831.0000	363.773
832.0000	362.852
833.0000	361.777
834.0000	360.219
835.0000	365.498
836.0000	368.874
837.0000	365.402
838.0000	368.059
839.0000	367.984
840.0000	366.594
841.0000	367.191
842.0000	368.434
843.0000	367.537
844.0000	363.957
845.0000	366.139
846.0000	366.827
847.0000	365.102
848.0000	366.96
849.0000	367.832
850.0000	369.662
851.0000	371.393
852.0000	370.466
853.0000	370.331
854.0000	369.915
855.0000	368.869
856.0000	366.54
857.0000	366.975
858.0000	368.3
859.0000	367.288
860.0000	369.966
861.0000	369.347
862.0000	366.694
863.0000	367.701
864.0000	367.751
865.0000	368.947
866.0000	367.914
867.0000	367.347
868.0000	369.818
869.0000	371.048
870.0000	369.999
871.0000	369.329
872.0000	368.174
873.0000	369.249
874.0000	370.846
875.0000	370.515
876.0000	370.425
877.0000	371.896
878.0000	374.249
879.0000	373.782
880.0000	372.45
881.0000	373.136
882.0000	372.901
883.0000	373.814
884.0000	373.666
885.0000	370.817
886.0000	368.68
887.0000	371.496
888.0000	376.291
889.0000	375.105
890.0000	375.601
891.0000	374.387
892.0000	371.799
893.0000	369.852
894.0000	372.377
895.0000	376.291
896.0000	375.468
897.0000	374.194
898.0000	374.977
899.0000	374.543
900.0000	374.569
901.0000	377.846
902.0000	379.808
903.0000	375.615
904.0000	374.94
905.0000	377.689
906.0000	376.642
907.0000	378.787
908.0000	375.858
909.0000	373.462
910.0000	375.183
911.0000	373.731
912.0000	374.881
913.0000	377.482
914.0000	377.988
915.0000	377.701
916.0000	376.729
917.0000	372.258
918.0000	373.628
919.0000	379.355
920.0000	377.326
921.0000	376.526
922.0000	377.042
923.0000	376.059
924.0000	378.401
925.0000	379.376
926.0000	377.048
927.0000	375.555
928.0000	377.276
929.0000	378.423
930.0000	377.23
931.0000	377.503
932.0000	379.457
933.0000	381.01
934.0000	380.682
935.0000	380.577
936.0000	378.835
937.0000	375.689
938.0000	378.91
939.0000	378.482
940.0000	376.243
941.0000	378.825
942.0000	376.494
943.0000	377.284
944.0000	380.188
945.0000	378.493
946.0000	380.148
947.0000	381.286
948.0000	380.849
949.0000	382.649
950.0000	384.287
951.0000	380.412
952.0000	378.134
953.0000	380.668
954.0000	382.553
955.0000	381.861
956.0000	382.089
957.0000	386.58
958.0000	385.831
959.0000	382.309
960.0000	381.593
961.0000	383.927
962.0000	383.81
963.0000	382.112
964.0000	382.49
965.0000	383.086
966.0000	381.234
967.0000	381.343
968.0000	382.474
969.0000	384.465
970.0000	384.429
971.0000	384.375
972.0000	384.279
973.0000	381.917
974.0000	383.087
975.0000	384.374
976.0000	385.119
977.0000	383.366
978.0000	384.467
979.0000	386.763
980.0000	383.243
981.0000	381.545
982.0000	384.21
983.0000	387.196
984.0000	384.101
985.0000	380.602
986.0000	384.246
987.0000	385.656
988.0000	383.199
989.0000	386.203
990.0000	386.482
991.0000	384.95
992.0000	387.709
993.0000	386.179
994.0000	385.992
995.0000	387.386
996.0000	387.87
997.0000	390.021
998.0000	386.59
999.0000	385.098
1000.0000	389.027
1001.0000	388.693
1002.0000	389.092
1003.0000	390.161
1004.0000	387.729
1005.0000	386.264
1006.0000	384.378
1007.0000	385.269
1008.0000	386.632
1009.0000	386.17
1010.0000	388.919
1011.0000	390.481
1012.0000	388.81
1013.0000	387.901
1014.0000	389.403
1015.0000	385.867
1016.0000	383.281
1017.0000	388.108
1018.0000	388.586
1019.0000	387.485
1020.0000	388.358
1021.0000	389.653
1022.0000	389.08
1023.0000	387.701
1024.0000	387.623
1025.0000	387.229
1026.0000	389.857
1027.0000	389.223
1028.0000	385.349
1029.0000	386.268
1030.0000	390.345
1031.0000	390.111
1032.0000	386.256
1033.0000	386.806
1034.0000	390.434
1035.0000	390.413
1036.0000	389.719
1037.0000	389.862
1038.0000	391.811
1039.0000	393.722
1040.0000	391.427
1041.0000	390.61
1042.0000	394.534
1043.0000	394.974
1044.0000	392.293
1045.0000	387.331
1046.0000	385.02
1047.0000	388.422
1048.0000	393.852
1049.0000	396.873
1050.0000	392.24
1051.0000	393.229
1052.0000	394.71
1053.0000	390.901
1054.0000	390.948
1055.0000	392.327
1056.0000	395.303
1057.0000	395.115
1058.0000	396.074
1059.0000	396.168
1060.0000	394.06
1061.0000	393.747
1062.0000	395.097
1063.0000	393.275
1064.0000	389.55
1065.0000	393.981
1066.0000	396.481
1067.0000	396.455
1068.0000	395.882
1069.0000	393.953
1070.0000	394.007
1071.0000	392.242
1072.0000	392.355
1073.0000	396.292
1074.0000	395.138
1075.0000	393.978
1076.0000	394.059
1077.0000	394.319
1078.0000	396.432
1079.0000	395.551
1080.0000	392.613
1081.0000	392.335
1082.0000	396.078
1083.0000	398.825
1084.0000	396.233
1085.0000	391.784
1086.0000	392.734
1087.0000	396.513
1088.0000	398.548
1089.0000	397.509
1090.0000	396.654
1091.0000	397.997
1092.0000	398.553
1093.0000	400.641
1094.0000	402.605
1095.0000	400.323
1096.0000	398.029
1097.0000	398.037
1098.0000	397.752
1099.0000	395.481
1100.0000	396.519
1101.0000	395.95
1102.0000	395.804
1103.0000	398.225
1104.0000	398.844
1105.0000	400.12
1106.0000	400.997
1107.0000	401.339
1108.0000	395.603
1109.0000	397.264
1110.0000	401.087
1111.0000	400.573
1112.0000	404.05
1113.0000	405.181
1114.0000	400.826
1115.0000	398.064
1116.0000	401.025
1117.0000	401.573
1118.0000	397.228
1119.0000	395.439
1120.0000	398.444
1121.0000	399.782
1122.0000	399.724
1123.0000	398.523
1124.0000	400.378
1125.0000	404.077
1126.0000	401.382
1127.0000	398.175
1128.0000	399.649
1129.0000	404.622
1130.0000	403.624
1131.0000	398.98
1132.0000	402.862
1133.0000	402.419
1134.0000	399.64
1135.0000	401.803
1136.0000	402.094
1137.0000	403.019
1138.0000	401.477
1139.0000	400.651
1140.0000	403.602
1141.0000	402.693
1142.0000	401.271
1143.0000	400.612
1144.0000	400.721
1145.0000	402.19
1146.0000	400.71
1147.0000	399.438
1148.0000	397.323
1149.0000	396.573
1150.0000	399.156
1151.0000	399.03
1152.0000	398.49
1153.0000	398.503
1154.0000	400.05
1155.0000	399.462
1156.0000	398.198
1157.0000	401.301
1158.0000	402.665
1159.0000	402.696
1160.0000	403.275
1161.0000	403.629
1162.0000	402.692
1163.0000	401.561
1164.0000	403.528
1165.0000	403.818
1166.0000	402.936
1167.0000	402.638
1168.0000	404.146
1169.0000	407.186
1170.0000	404.478
1171.0000	403.407
1172.0000	401.937
1173.0000	402.718
1174.0000	399.975
1175.0000	398.12
1176.0000	404.458
1177.0000	406.578
1178.0000	408.039
1179.0000	407.685
1180.0000	405.271
1181.0000	404.205
1182.0000	404.436
1183.0000	402.562
1184.0000	404.194
1185.0000	404.522
1186.0000	403.333
1187.0000	404.694
1188.0000	404.893
1189.0000	406.436
1190.0000	406.516
1191.0000	407.766
1192.0000	407.946
1193.0000	403.967
1194.0000	402.758
1195.0000	406.988
1196.0000	406.42
1197.0000	402.401
1198.0000	401.987
1199.0000	404.623
1200.0000	406.278
1201.0000	408.249
1202.0000	408.688
1203.0000	405.729
1204.0000	405.546
1205.0000	405.508
1206.0000	403.729
1207.0000	401.565
1208.0000	404.297
1209.0000	408.03
1210.0000	406.705
1211.0000	402.894
1212.0000	400.367
1213.0000	403.007
1214.0000	408.322
1215.0000	408.022
1216.0000	406.369
1217.0000	408.975
1218.0000	408.552
1219.0000	403.699
1220.0000	405.441
1221.0000	407.585
1222.0000	407.817
1223.0000	409.208
1224.0000	406.489
1225.0000	404.193
1226.0000	403.278
1227.0000	406.424
1228.0000	406.791
1229.0000	406.151
1230.0000	407.487
1231.0000	407.112
1232.0000	405.461
1233.0000	405.18
1234.0000	409.536
1235.0000	407.435
1236.0000	406.282
1237.0000	409.938
1238.0000	409.458
1239.0000	407.07
1240.0000	407.17
1241.0000	407.105
1242.0000	404.11
1243.0000	405.471
1244.0000	409.078
1245.0000	408.959
1246.0000	408.602
1247.0000	409.525
1248.0000	409.232
1249.0000	407.693
1250.0000	404.495
1251.0000	404.663
1252.0000	408.338
1253.0000	409.486
1254.0000	410.503
1255.0000	408.333
1256.0000	407.634
1257.0000	408.468
1258.0000	405.989
1259.0000	404.794
1260.0000	405.385
1261.0000	405.777
1262.0000	408.839
1263.0000	412.273
1264.0000	412.515
1265.0000	414.128
1266.0000	411.225
1267.0000	405.726
1268.0000	405.818
1269.0000	407.789
1270.0000	409.967
1271.0000	410.92
1272.0000	410.225
1273.0000	408.255
1274.0000	408.873
1275.0000	410.188
1276.0000	409.792
1277.0000	411.716
1278.0000	413.126
1279.0000	414.314
1280.0000	414.986
1281.0000	416.054
1282.0000	410.973
1283.0000	410.205
1284.0000	414.401
1285.0000	410.879
1286.0000	409.433
1287.0000	409.818
1288.0000	409.054
1289.0000	412.929
1290.0000	413.668
1291.0000	412.264
1292.0000	414.668
1293.0000	411.268
1294.0000	412.343
1295.0000	415.785
1296.0000	411.893
1297.0000	410.773
1298.0000	411.682
1299.0000	412.436
1300.0000	413.27
1301.0000	413.167
1302.0000	415.999
1303.0000	416.827
1304.0000	415.158
1305.0000	413.018
1306.0000	413.438
1307.0000	413.058
1308.0000	410.67
1309.0000	411.908
1310.0000	413.057
1311.0000	411.129
1312.0000	409.762
1313.0000	412.064
1314.0000	416.092
1315.0000	415.921
1316.0000	415.486
1317.0000	413.764
1318.0000	410.476
1319.0000	411.006
1320.0000	409.664
1321.0000	411.216
1322.0000	413.058
1323.0000	415
1324.0000	417.268
1325.0000	417.298
1326.0000	414.915
1327.0000	412.773
1328.0000	413.953
1329.0000	414.851
1330.0000	416.004
1331.0000	412.016
1332.0000	412.63
1333.0000	414.627
1334.0000	413.469
1335.0000	414.494
1336.0000	414.688
1337.0000	416.753
1338.0000	418.193
1339.0000	416.877
1340.0000	417.491
1341.0000	417.717
1342.0000	415.207
1343.0000	413.745
1344.0000	417.306
1345.0000	420.367
1346.0000	417.043
1347.0000	415.705
1348.0000	415.789
1349.0000	414.686
1350.0000	421.372
1351.0000	422.72
1352.0000	416.491
1353.0000	416.161
1354.0000	413.583
1355.0000	414.028
1356.0000	418.039
1357.0000	414.531
1358.0000	412.22
1359.0000	415.647
1360.0000	414.894
1361.0000	416.721
1362.0000	419.574
1363.0000	415.627
1364.0000	413.395
1365.0000	417.14
1366.0000	416.898
1367.0000	415.122
1368.0000	419.218
1369.0000	421.637
1370.0000	418.654
1371.0000	416.788
1372.0000	416.267
1373.0000	413.141
1374.0000	414.752
1375.0000	416.113
1376.0000	414.469
1377.0000	417.151
1378.0000	417.714
1379.0000	418.374
1380.0000	420.027
1381.0000	421.106
1382.0000	422.746
1383.0000	417.17
1384.0000	413.082
1385.0000	414.659
1386.0000	417.424
1387.0000	420.195
1388.0000	419.168
1389.0000	417.687
1390.0000	417.828
1391.0000	416.008
1392.0000	415.935
1393.0000	416.674
1394.0000	416.284
1395.0000	417.525
1396.0000	418.111
1397.0000	418.178
1398.0000	416.251
1399.0000	414.306
1400.0000	412.343
1401.0000	416.495
1402.0000	421.608
1403.0000	418.749
1404.0000	420.176
1405.0000	419.441
1406.0000	416.167
1407.0000	418.401
1408.0000	416.966
1409.0000	417.547
1410.0000	421.632
1411.0000	423.103
1412.0000	423.586
1413.0000	421.865
1414.0000	421.085
1415.0000	418.506
1416.0000	416.63
1417.0000	419.811
1418.0000	421.092
1419.0000	418.708
1420.0000	418.697
1421.0000	418.436
1422.0000	418.241
1423.0000	420.891
1424.0000	419.125
1425.0000	418.145
1426.0000	417.258
1427.0000	416.394
1428.0000	419.833
1429.0000	422.682
1430.0000	421.572
1431.0000	420.761
1432.0000	423.464
1433.0000	420.278
1434.0000	416.965
1435.0000	420.772
1436.0000	422.649
1437.0000	423.171
1438.0000	423.874
1439.0000	426.208
1440.0000	425.625
1441.0000	424.258
1442.0000	422.705
1443.0000	421.072
1444.0000	421.703
1445.0000	421.985
1446.0000	423.546
1447.0000	422.162
1448.0000	418.607
1449.0000	419.048
1450.0000	424.512
1451.0000	424.159
1452.0000	420.034
1453.0000	419.299
1454.0000	419.716
1455.0000	422.15
1456.0000	424.141
1457.0000	424.65
1458.0000	423.639
1459.0000	421.25
1460.0000	420.455
1461.0000	422.741
1462.0000	423.061
1463.0000	420.871
1464.0000	423.013
1465.0000	423.695
1466.0000	423.54
1467.0000	423.731
1468.0000	422.13
1469.0000	421.619
1470.0000	421.702
1471.0000	421.561
1472.0000	422.536
1473.0000	428.068
1474.0000	429.429
1475.0000	425.129
1476.0000	424.462
1477.0000	424.27
1478.0000	424.95
1479.0000	423.393
1480.0000	423.713
1481.0000	426.721
1482.0000	426.936
1483.0000	424.181
1484.0000	420.929
1485.0000	423.307
1486.0000	426.526
1487.0000	427.439
1488.0000	424.486
1489.0000	425.025
1490.0000	426.453
1491.0000	424.045
1492.0000	423.653
1493.0000	426.293
1494.0000	425.375
1495.0000	425.514
1496.0000	426.604
1497.0000	424.17
1498.0000	426.385
1499.0000	427.774
1500.0000	426.986
1501.0000	427.346
1502.0000	423.71
1503.0000	424.396
1504.0000	427.724
1505.0000	426.754
1506.0000	426.124
1507.0000	425.515
1508.0000	421.768
1509.0000	424.3
1510.0000	426.327
1511.0000	421.637
1512.0000	421.294
1513.0000	418.104
1514.0000	419.369
1515.0000	425.037
1516.0000	427.572
1517.0000	429.398
1518.0000	426.056
1519.0000	423.738
1520.0000	428.351
1521.0000	428.553
1522.0000	428.881
1523.0000	432.574
1524.0000	430.612
1525.0000	428.328
1526.0000	429.523
1527.0000	431.499
1528.0000	430.562
1529.0000	426.046
1530.0000	423.958
1531.0000	422.417
1532.0000	419.435
1533.0000	425.479
1534.0000	431.164
1535.0000	428.861
1536.0000	430.681
1537.0000	430.433
1538.0000	427.15
1539.0000	425.527
1540.0000	422.738
1541.0000	426.761
1542.0000	429.16
1543.0000	428.591
1544.0000	432.416
1545.0000	430.953
1546.0000	428.33
1547.0000	427.598
1548.0000	427.487
1549.0000	427.77
1550.0000	428.638
1551.0000	428.282
1552.0000	427.682
1553.0000	429.555
1554.0000	429.581
1555.0000	432.184
1556.0000	432.314
1557.0000	429.281
1558.0000	427.916
1559.0000	425.828
1560.0000	423.608
1561.0000	427.569
1562.0000	429.708
1563.0000	425.421
1564.0000	427.643
1565.0000	429.224
1566.0000	428.175
1567.0000	426.662
1568.0000	430.331
1569.0000	431.989
1570.0000	425.901
1571.0000	425.753
1572.0000	429.682
1573.0000	427.693
1574.0000	426.026
1575.0000	426.641
1576.0000	427.595
1577.0000	431.228
1578.0000	430.975
1579.0000	429.005
1580.0000	430.027
1581.0000	429.88
1582.0000	427.985
1583.0000	429.01
1584.0000	429.043
1585.0000	428.454
1586.0000	427.899
1587.0000	429.781
1588.0000	431.943
1589.0000	431.326
1590.0000	429.644
1591.0000	428.228
1592.0000	428.36
1593.0000	430.535
1594.0000	432.113
1595.0000	430.769
1596.0000	434.358
1597.0000	431.586
1598.0000	430.219
1599.0000	432.809
1600.0000	429.873
1601.0000	431.197
1602.0000	433.721
1603.0000	430.232
1604.0000	428.313
1605.0000	435.824
1606.0000	434.231
1607.0000	431.634
1608.0000	434.514
1609.0000	434.383
1610.0000	431.173
1611.0000	427.584
1612.0000	428.669
1613.0000	432.509
1614.0000	432.943
1615.0000	427.119
1616.0000	425.511
1617.0000	427.319
1618.0000	430.615
1619.0000	433.134
1620.0000	430.903
1621.0000	428.24
1622.0000	430.93
1623.0000	432.033
1624.0000	427.207
1625.0000	429.203
1626.0000	434.097
1627.0000	432.08
1628.0000	432.318
1629.0000	436.219
1630.0000	434.493
1631.0000	430.922
1632.0000	428.269
1633.0000	433.33
1634.0000	435.663
1635.0000	429.745
1636.0000	430.904
1637.0000	435.805
1638.0000	435.588
1639.0000	433.527
1640.0000	430.673
1641.0000	430.701
1642.0000	434.83
1643.0000	431.98
1644.0000	431.245
1645.0000	433.427
1646.0000	429.749
1647.0000	432.055
1648.0000	434.883
1649.0000	431.21
1650.0000	436.282
1651.0000	437.335
1652.0000	432.261
1653.0000	432.986
1654.0000	436.31
1655.0000	436.088
1656.0000	432.78
1657.0000	434.109
1658.0000	435.474
1659.0000	433.019
1660.0000	434.384
1661.0000	437.753
1662.0000	436.369
1663.0000	435.282
1664.0000	435.864
1665.0000	435.032
1666.0000	434.746
1667.0000	433.616
1668.0000	433.609
1669.0000	431.471
1670.0000	432.215
1671.0000	433.51
1672.0000	431.763
1673.0000	433.928
1674.0000	433.578
1675.0000	436.996
1676.0000	437.465
1677.0000	439.131
1678.0000	442.121
1679.0000	437.175
1680.0000	433.217
1681.0000	432.449
1682.0000	436.794
1683.0000	438.72
1684.0000	434.249
1685.0000	431.716
1686.0000	431.232
1687.0000	434.803
1688.0000	438.334
1689.0000	436.26
1690.0000	435.625
1691.0000	438.425
1692.0000	439.569
1693.0000	437.748
1694.0000	436.376
1695.0000	436.716
1696.0000	437.214
1697.0000	437.12
1698.0000	439.436
1699.0000	435.215
1700.0000	431.344
1701.0000	434.854
1702.0000	434.558
1703.0000	437.372
1704.0000	438.544
1705.0000	439.368
1706.0000	436.742
1707.0000	433.486
1708.0000	436.038
1709.0000	435.079
1710.0000	433.866
1711.0000	434.998
1712.0000	435.518
1713.0000	436.836
1714.0000	439.528
1715.0000	436.781
1716.0000	436.092
1717.0000	437.473
1718.0000	437.111
1719.0000	435.8
1720.0000	432.442
1721.0000	435.746
1722.0000	437.194
1723.0000	435.321
1724.0000	438.718
1725.0000	438.487
1726.0000	437.063
1727.0000	435.098
1728.0000	435.722
1729.0000	437.909
1730.0000	437.68
1731.0000	437.771
1732.0000	437.13
1733.0000	436.006
1734.0000	437.7
1735.0000	436.155
1736.0000	435.652
1737.0000	439.845
1738.0000	440.109
1739.0000	441.022
1740.0000	436.514
1741.0000	434.998
1742.0000	436.122
1743.0000	436.679
1744.0000	441.859
1745.0000	437.698
1746.0000	434.904
1747.0000	437.868
1748.0000	437.3
1749.0000	438.445
1750.0000	438.24
1751.0000	435.739
1752.0000	438.638
1753.0000	438.175
1754.0000	438.062
1755.0000	439.605
1756.0000	437.352
1757.0000	441.087
1758.0000	442.92
1759.0000	439.407
1760.0000	437.656
1761.0000	439.042
1762.0000	440.139
1763.0000	440.658
1764.0000	437.413
1765.0000	437.891
1766.0000	440.085
1767.0000	436.47
1768.0000	438.298
1769.0000	440.113
1770.0000	438.595
1771.0000	437.811
1772.0000	438.448
1773.0000	438.431
1774.0000	436.064
1775.0000	437.762
1776.0000	438.39
1777.0000	438.458
1778.0000	442.638
1779.0000	441.698
1780.0000	441.142
1781.0000	443.228
1782.0000	440.279
1783.0000	440.747
1784.0000	440.025
1785.0000	437.324
1786.0000	437.343
1787.0000	442.769
1788.0000	445.86
1789.0000	441.827
1790.0000	441.704
1791.0000	443.454
1792.0000	440.36
1793.0000	439.999
1794.0000	442.234
1795.0000	440.709
1796.0000	436.293
1797.0000	435.628
1798.0000	442.251
1799.0000	442.27
1800.0000	439.059
1801.0000	439.167
1802.0000	439.256
1803.0000	439.321
1804.0000	444.261
1805.0000	446.983
1806.0000	443.745
1807.0000	443.014
1808.0000	443.67
1809.0000	444.199
1810.0000	440.767
1811.0000	439.109
1812.0000	441.261
1813.0000	437.591
1814.0000	438.771
1815.0000	442.666
1816.0000	440.18
1817.0000	441.498
1818.0000	441.697
1819.0000	440.046
1820.0000	442.282
1821.0000	443.661
1822.0000	440.186
1823.0000	436.266
1824.0000	441.987
1825.0000	445.091
1826.0000	444.583
1827.0000	441.622
1828.0000	442.286
1829.0000	446.26
1830.0000	444.603
1831.0000	441.89
1832.0000	440.145
1833.0000	443.049
1834.0000	444.097
1835.0000	440.247
1836.0000	441.734
1837.0000	443.715
1838.0000	442.257
1839.0000	443.548
1840.0000	443.402
1841.0000	443.156
1842.0000	441.312
1843.0000	441.443
1844.0000	443.297
1845.0000	446.063
1846.0000	447.68
1847.0000	446.622
1848.0000	444.025
1849.0000	443.168
1850.0000	445.983
1851.0000	446.305
1852.0000	444.419
1853.0000	441.742
1854.0000	440.205
1855.0000	443.522
1856.0000	447.085
1857.0000	445.313
1858.0000	447.778
1859.0000	446.563
1860.0000	443.814
1861.0000	445.438
1862.0000	445.503
1863.0000	446.776
1864.0000	443.767
1865.0000	443.073
1866.0000	446.092
1867.0000	443.346
1868.0000	441.362
1869.0000	443.079
1870.0000	443.306
1871.0000	444.145
1872.0000	441.396
1873.0000	439.824
1874.0000	441.942
1875.0000	441.274
1876.0000	442.025
1877.0000	445.703
1878.0000	449.732
1879.0000	447.686
1880.0000	442.315
1881.0000	444.931
1882.0000	446.212
1883.0000	441.904
1884.0000	444.816
1885.0000	448.402
1886.0000	446.144
1887.0000	444.094
1888.0000	445.541
1889.0000	446.593
1890.0000	447.467
1891.0000	448.456
1892.0000	449.411
1893.0000	447.916
1894.0000	445.042
1895.0000	443.061
1896.0000	442.121
1897.0000	443.999
1898.0000	444.2
1899.0000	444.768
1900.0000	445.61
1901.0000	446.064
1902.0000	446.014
1903.0000	443.083
1904.0000	442.937
1905.0000	445.156
1906.0000	447.877
1907.0000	447.399
1908.0000	445.116
1909.0000	447.527
1910.0000	449.195
1911.0000	448.236
1912.0000	446.287
1913.0000	447.961
1914.0000	448.295
1915.0000	446.07
1916.0000	447.04
1917.0000	446.431
1918.0000	445.51
1919.0000	448.973
1920.0000	451.6
1921.0000	450.591
1922.0000	447.392
1923.0000	445.414
1924.0000	447.505
1925.0000	448.553
1926.0000	442.606
1927.0000	442.438
1928.0000	447.998
1929.0000	446.183
1930.0000	446.743
1931.0000	444.345
1932.0000	442.499
1933.0000	446.61
1934.0000	446.388
1935.0000	446.482
1936.0000	447.763
1937.0000	447.037
1938.0000	449.462
1939.0000	452.447
1940.0000	450.263
1941.0000	446.557
1942.0000	447.019
1943.0000	449.798
1944.0000	449.027
1945.0000	446.668
1946.0000	446.942
1947.0000	448.461
1948.0000	451.637
1949.0000	451.021
1950.0000	449.068
1951.0000	446.091
1952.0000	442.186
1953.0000	447.18
1954.0000	450.637
1955.0000	450.396
1956.0000	447.041
1957.0000	446.917
1958.0000	450.404
1959.0000	451.517
1960.0000	445.721
1961.0000	442.862
1962.0000	443.255
1963.0000	445.185
1964.0000	452.083
1965.0000	450.27
1966.0000	449.033
1967.0000	451.702
1968.0000	448.989
1969.0000	448.195
1970.0000	451.062
1971.0000	447.348
1972.0000	446.539
1973.0000	448.732
1974.0000	450.036
1975.0000	449.933
1976.0000	446.289
1977.0000	446.609
1978.0000	446.528
1979.0000	445.629
1980.0000	448.508
1981.0000	447.998
1982.0000	452.021
1983.0000	455.197
1984.0000	451.808
1985.0000	448.001
1986.0000	445.785
1987.0000	445.097
1988.0000	445.46
1989.0000	446.555
1990.0000	448.717
1991.0000	452.471
1992.0000	454.714
1993.0000	454.841
1994.0000	450.715
1995.0000	445.618
1996.0000	444.693
1997.0000	447.416
1998.0000	450.405
1999.0000	449.385
2000.0000	447.959
2001.0000	449.562
2002.0000	450.4
2003.0000	453.863
2004.0000	449.871
2005.0000	447.298
2006.0000	449.167
2007.0000	447.079
2008.0000	449.046
2009.0000	451.291
2010.0000	452.852
2011.0000	454.794
2012.0000	452.878
2013.0000	448.153
2014.0000	449.042
2015.0000	450.879
2016.0000	452.049
2017.0000	455.688
2018.0000	451.829
2019.0000	450.417
2020.0000	453.924
2021.0000	452.226
2022.0000	448.991
2023.0000	446.918
2024.0000	449.528
2025.0000	452.046
2026.0000	450.267
2027.0000	451.823
2028.0000	452.96
2029.0000	449.99
2030.0000	448.71
2031.0000	450.428
2032.0000	450.821
2033.0000	450.517
2034.0000	450.199
2035.0000	447.137
2036.0000	448.882
2037.0000	451.778
2038.0000	452.252
2039.0000	451.866
2040.0000	449.446
2041.0000	450.369
2042.0000	450.386
2043.0000	449.126
2044.0000	449.252
2045.0000	450.376
2046.0000	449.033
2047.0000	445.536
2048.0000	448.144
2049.0000	451.813
2050.0000	453.102
2051.0000	451.272
2052.0000	451.191
2053.0000	452.126
2054.0000	447.474
2055.0000	445.38
2056.0000	449.302
2057.0000	452.352
2058.0000	448.638
2059.0000	451.108
2060.0000	451.341
2061.0000	445.723
2062.0000	451.707
2063.0000	456.537
2064.0000	454.128
2065.0000	449.017
2066.0000	449.801
2067.0000	451.97
2068.0000	450.135
2069.0000	450.437
2070.0000	448.986
2071.0000	449.133
2072.0000	451.301
2073.0000	450.69
2074.0000	453.27
2075.0000	455.095
2076.0000	454.622
2077.0000	459.248
2078.0000	456.833
2079.0000	448.732
2080.0000	446.642
2081.0000	451.641
2082.0000	457.324
2083.0000	453.994
2084.0000	448.506
2085.0000	450.785
2086.0000	456.215
2087.0000	455.568
2088.0000	456.412
2089.0000	454.632
2090.0000	451.364
2091.0000	451.617
2092.0000	451.432
2093.0000	452.098
2094.0000	450.547
2095.0000	449.65
2096.0000	447.897
2097.0000	450.437
2098.0000	454.125
2099.0000	453.495
2100.0000	452.294
2101.0000	453.275
2102.0000	453.666
2103.0000	451.797
2104.0000	450.272
2105.0000	453.078
2106.0000	455.399
2107.0000	455.027
2108.0000	457.628
2109.0000	454.018
2110.0000	451.199
2111.0000	453.93
2112.0000	456.112
2113.0000	458.076
2114.0000	455.587
2115.0000	453.106
2116.0000	452.685
2117.0000	456.115
2118.0000	455.914
2119.0000	454.212
2120.0000	453.665
2121.0000	454.53
2122.0000	455.645
2123.0000	451.593
2124.0000	452.242
2125.0000	455.002
2126.0000	452.612
2127.0000	452.749
2128.0000	453.748
2129.0000	454.46
2130.0000	454.879
2131.0000	452.156
2132.0000	456.213
2133.0000	456.849
2134.0000	454.137
2135.0000	456.161
2136.0000	457.835
2137.0000	457.212
2138.0000	456.621
2139.0000	456.851
2140.0000	453.385
2141.0000	451.903
2142.0000	453.716
2143.0000	453.741
2144.0000	456.847
2145.0000	456.636
2146.0000	454.538
2147.0000	452.791
2148.0000	455.932
2149.0000	459.324
2150.0000	457.002
2151.0000	453.546
2152.0000	450.288
2153.0000	452.768
2154.0000	455.173
2155.0000	451.875
2156.0000	451.967
2157.0000	454.823
2158.0000	457.143
2159.0000	458.965
2160.0000	457.893
2161.0000	458.829
2162.0000	457.388
2163.0000	454.604
2164.0000	453.903
2165.0000	455.529
2166.0000	452.748
2167.0000	452.427
2168.0000	454.258
2169.0000	453.88
2170.0000	452.436
2171.0000	451.993
2172.0000	456.992
2173.0000	458.079
2174.0000	455.912
2175.0000	455.16
2176.0000	456.7
2177.0000	456.287
2178.0000	454.729
2179.0000	457.181
2180.0000	462.334
2181.0000	458.858
2182.0000	452.368
2183.0000	452.493
2184.0000	455.668
2185.0000	458.64
2186.0000	457.213
2187.0000	454.347
2188.0000	452.976
2189.0000	455.77
2190.0000	456.6
2191.0000	455.809
2192.0000	454.944
2193.0000	454.341
2194.0000	455.736
2195.0000	454.284
2196.0000	459.274
2197.0000	461.235
2198.0000	458.495
2199.0000	455.411
2200.0000	451.519
2201.0000	452.835
2202.0000	454.724
2203.0000	451.89
2204.0000	453.422
2205.0000	458.767
2206.0000	458.017
2207.0000	457.378
2208.0000	455.554
2209.0000	457.516
2210.0000	452.866
2211.0000	457.674
2212.0000	463.279
2213.0000	457.704
2214.0000	458.81
2215.0000	456.625
2216.0000	455.071
2217.0000	458.093
2218.0000	460.16
2219.0000	459.666
2220.0000	458.862
2221.0000	458.243
2222.0000	457.301
2223.0000	453.568
2224.0000	456.152
2225.0000	460.466
2226.0000	457.876
2227.0000	452.655
2228.0000	452.826
2229.0000	454.722
2230.0000	454.832
2231.0000	455.658
2232.0000	455.649
2233.0000	455.535
2234.0000	454.536
2235.0000	454.306
2236.0000	457.186
2237.0000	457.906
2238.0000	455.649
2239.0000	456.215
2240.0000	456.943
2241.0000	456.386
2242.0000	457.725
2243.0000	458.083
2244.0000	454.437
2245.0000	453.727
2246.0000	458.244
2247.0000	457.763
2248.0000	457.923
2249.0000	457.746
2250.0000	455.7
2251.0000	459.825
2252.0000	464.891
2253.0000	458.625
2254.0000	457.085
2255.0000	461.391
2256.0000	456.308
2257.0000	455.369
2258.0000	456.898
2259.0000	459.352
2260.0000	457.605
2261.0000	456.6
2262.0000	459.679
2263.0000	457.229
2264.0000	455.685
2265.0000	453.077
2266.0000	450.814
2267.0000	454.554
2268.0000	452.484
2269.0000	450.375
2270.0000	455.111
2271.0000	458.627
2272.0000	460.657
2273.0000	461.182
2274.0000	460.606
2275.0000	457.139
2276.0000	456.715
2277.0000	455.506
2278.0000	454.233
2279.0000	457.463
2280.0000	458.676
2281.0000	462.059
2282.0000	460.517
2283.0000	455.45
2284.0000	457.007
2285.0000	458.598
2286.0000	458.52
2287.0000	458.894
2288.0000	456.799
2289.0000	457.767
2290.0000	458.647
2291.0000	458.691
2292.0000	458.375
2293.0000	459.057
2294.0000	461.664
2295.0000	459.178
2296.0000	457.091
2297.0000	457.98
2298.0000	458.782
2299.0000	457.035
2300.0000	455.901
2301.0000	455.96
2302.0000	457.603
2303.0000	461.281
2304.0000	459.725
2305.0000	461.076
2306.0000	464.027
2307.0000	462.051
2308.0000	460.669
2309.0000	462.453
2310.0000	460.953
2311.0000	458.173
2312.0000	457.198
2313.0000	456.626
2314.0000	461.187
2315.0000	462.784
2316.0000	459.861
2317.0000	458.457
2318.0000	456.37
2319.0000	457.153
2320.0000	458.668
2321.0000	458.975
2322.0000	457.046
2323.0000	454.927
2324.0000	458.163
2325.0000	459.755
2326.0000	456.449
2327.0000	458.076
2328.0000	461.214
2329.0000	458.032
2330.0000	459.085
2331.0000	457.875
2332.0000	459.255
2333.0000	461.872
2334.0000	458.054
2335.0000	460.113
2336.0000	462.302
2337.0000	460.185
2338.0000	458.692
2339.0000	457.78
2340.0000	459.433
2341.0000	457.8
2342.0000	453.968
2343.0000	454.974
2344.0000	459.014
2345.0000	460.416
2346.0000	460.423
2347.0000	464.807
2348.0000	467.905
2349.0000	463.265
2350.0000	456.855
2351.0000	457.558
2352.0000	459.198
2353.0000	456.556
2354.0000	457.151
2355.0000	458.834
2356.0000	460.45
2357.0000	459.066
2358.0000	457.923
2359.0000	461.194
2360.0000	460.834
2361.0000	458.442
2362.0000	456.047
2363.0000	454.936
2364.0000	459.624
2365.0000	462.018
2366.0000	458.597
2367.0000	458.182
2368.0000	458.67
2369.0000	458.98
2370.0000	460.132
2371.0000	459.115
2372.0000	457.165
2373.0000	457.665
2374.0000	455.097
2375.0000	455.217
2376.0000	459.103
2377.0000	458.545
2378.0000	457.838
2379.0000	461.131
2380.0000	462.212
2381.0000	462.427
2382.0000	461.666
2383.0000	461.264
2384.0000	462.97
2385.0000	458.884
2386.0000	457.872
2387.0000	458.769
2388.0000	458.24
2389.0000	461.854
2390.0000	465.31
2391.0000	464.556
2392.0000	462.43
2393.0000	461.83
2394.0000	461.82
2395.0000	460.952
2396.0000	459.422
2397.0000	458.746
2398.0000	457.713
2399.0000	458.07
2400.0000	461.271
2401.0000	461.181
2402.0000	462.587
2403.0000	463.909
2404.0000	461.61
2405.0000	460.401
2406.0000	455.339
2407.0000	455.249
2408.0000	458.941
2409.0000	462.297
2410.0000	462.985
2411.0000	458.918
2412.0000	459.37
2413.0000	464.012
2414.0000	462.243
2415.0000	460.603
2416.0000	460.199
2417.0000	454.606
2418.0000	457.011
2419.0000	462.982
2420.0000	459.047
2421.0000	458.465
2422.0000	463.052
2423.0000	461.959
2424.0000	462.182
2425.0000	461.598
2426.0000	463.457
2427.0000	464.467
2428.0000	461.332
2429.0000	460.093
2430.0000	460.96
2431.0000	461.389
2432.0000	460.7
2433.0000	460.853
2434.0000	461.879
2435.0000	460.81
2436.0000	457.403
2437.0000	456.59
2438.0000	461.07
2439.0000	463.245
2440.0000	460.8
2441.0000	458.488
2442.0000	459.67
2443.0000	461.949
2444.0000	461.303
2445.0000	459.689
2446.0000	456.664
2447.0000	455.955
2448.0000	460.957
2449.0000	459.806
2450.0000	457.655
2451.0000	460.525
2452.0000	464.096
2453.0000	463.566
2454.0000	461.293
2455.0000	463.518
2456.0000	462.296
2457.0000	463.049
2458.0000	461.647
2459.0000	460.422
2460.0000	462.433
2461.0000	461.565
2462.0000	462.815
2463.0000	462.479
2464.0000	460.822
2465.0000	459.894
2466.0000	460.968
2467.0000	462.667
2468.0000	460.883
2469.0000	463.282
2470.0000	465.888
2471.0000	460.988
2472.0000	461.689
2473.0000	462.012
2474.0000	461.437
2475.0000	461.435
2476.0000	461.335
2477.0000	461.94
2478.0000	460.296
2479.0000	461.021
2480.0000	462.567
2481.0000	464.607
2482.0000	464.238
2483.0000	462.713
2484.0000	463.691
2485.0000	465.601
2486.0000	462.822
2487.0000	464.158
2488.0000	464.518
2489.0000	464.333
2490.0000	463.695
2491.0000	462.209
2492.0000	460.39
2493.0000	460.991
2494.0000	464.039
2495.0000	464.089
2496.0000	461.423
2497.0000	460.191
2498.0000	461.5
2499.0000	460.341
2500.0000	464.414
2501.0000	465.418
2502.0000	462.272
2503.0000	461.719
2504.0000	463.678
2505.0000	466.781
2506.0000	467.304
2507.0000	465.64
2508.0000	461.899
2509.0000	458.57
2510.0000	461.672
2511.0000	463.659
2512.0000	462.071
2513.0000	461.346
2514.0000	461.719
2515.0000	464.049
2516.0000	464.434
2517.0000	463.296
2518.0000	462.017
2519.0000	462.149
2520.0000	459.658
2521.0000	459.396
2522.0000	463.309
2523.0000	462.762
2524.0000	460.872
2525.0000	461.206
2526.0000	460.882
2527.0000	460.589
2528.0000	460.672
2529.0000	463.544
2530.0000	463.93
2531.0000	460.843
2532.0000	458.785
2533.0000	461.782
2534.0000	465.714
2535.0000	463.096
2536.0000	461.685
2537.0000	462.831
2538.0000	465.19
2539.0000	466.952
2540.0000	466.261
2541.0000	467.347
2542.0000	465.642
2543.0000	460.849
2544.0000	459.856
2545.0000	459.692
2546.0000	460.441
2547.0000	465.247
2548.0000	466.965
2549.0000	461.528
2550.0000	460.708
2551.0000	466.554
2552.0000	464.68
2553.0000	461.414
2554.0000	463.448
2555.0000	464.396
2556.0000	462.837
2557.0000	463.247
2558.0000	464.703
2559.0000	461.56
2560.0000	462.533
2561.0000	466.027
2562.0000	466.406
2563.0000	466.994
2564.0000	467.924
2565.0000	470.668
2566.0000	466.065
2567.0000	461.488
2568.0000	465.016
2569.0000	466.603
2570.0000	467.18
2571.0000	462.088
2572.0000	463.344
2573.0000	465.504
2574.0000	464.434
2575.0000	467.273
2576.0000	469.451
2577.0000	467.406
2578.0000	462.37
2579.0000	465.931
2580.0000	468.117
2581.0000	465.424
2582.0000	462.442
2583.0000	466.341
2584.0000	470.062
2585.0000	463.302
2586.0000	464.727
2587.0000	466.683
2588.0000	463.924
2589.0000	464.686
2590.0000	465.878
2591.0000	466.844
2592.0000	466.072
2593.0000	463.893
2594.0000	461.667
2595.0000	463.74
2596.0000	466.771
2597.0000	464.719
2598.0000	462.862
2599.0000	464.726
2600.0000	465.306
2601.0000	464.933
2602.0000	466.585
2603.0000	466.34
2604.0000	466.607
2605.0000	465.068
2606.0000	463.921
2607.0000	467.603
2608.0000	469.425
2609.0000	465.2
2610.0000	462.778
2611.0000	464.366
2612.0000	460.234
2613.0000	461.053
2614.0000	465.353
2615.0000	466.896
2616.0000	465.898
2617.0000	463.355
2618.0000	465.498
2619.0000	468.174
2620.0000	465.534
2621.0000	464.009
2622.0000	465.331
2623.0000	459.655
2624.0000	458.483
2625.0000	461.572
2626.0000	459.396
2627.0000	460.549
2628.0000	466.156
2629.0000	469.431
2630.0000	465.745
2631.0000	462.323
2632.0000	465.627
2633.0000	466.869
2634.0000	466.004
2635.0000	462.035
2636.0000	462.156
2637.0000	468.653
2638.0000	467.507
2639.0000	465.069
2640.0000	464.886
2641.0000	462.024
2642.0000	464.849
2643.0000	468.194
2644.0000	466.411
2645.0000	466.945
2646.0000	466.391
2647.0000	464.729
2648.0000	467.705
2649.0000	467.752
2650.0000	466.487
2651.0000	468.141
2652.0000	464.288
2653.0000	463.302
2654.0000	463.934
2655.0000	462.265
2656.0000	462.839
2657.0000	464.605
2658.0000	465.283
2659.0000	464.694
2660.0000	465.377
2661.0000	467.447
2662.0000	468.58
2663.0000	466.937
2664.0000	466.7
2665.0000	467.481
2666.0000	466.605
2667.0000	465.185
2668.0000	464.066
2669.0000	467.09
2670.0000	468.298
2671.0000	462.607
2672.0000	464.493
2673.0000	465.323
2674.0000	465.194
2675.0000	470.057
2676.0000	466.178
2677.0000	460.237
2678.0000	460.533
2679.0000	462.256
2680.0000	462.994
2681.0000	466.006
2682.0000	466.492
2683.0000	465.16
2684.0000	464.811
2685.0000	467.222
2686.0000	467.965
2687.0000	464.991
2688.0000	466.039
2689.0000	463.402
2690.0000	464.838
2691.0000	468.222
2692.0000	466.462
2693.0000	467.619
2694.0000	465.941
2695.0000	461.515
2696.0000	464.774
2697.0000	467.376
2698.0000	465.412
2699.0000	465.924
2700.0000	465.328
2701.0000	466.058
2702.0000	463.595
2703.0000	461.807
2704.0000	465.882
2705.0000	466.389
2706.0000	465.867
2707.0000	467.883
2708.0000	467.429
2709.0000	468.515
2710.0000	466.645
2711.0000	463.16
2712.0000	463.222
2713.0000	464.47
2714.0000	468.804
2715.0000	472.917
2716.0000	468.555
2717.0000	463.585
2718.0000	463.336
2719.0000	460.932
2720.0000	463.709
2721.0000	468.476
2722.0000	466.536
2723.0000	465.973
2724.0000	467.856
2725.0000	465.879
2726.0000	466.816
2727.0000	465.973
2728.0000	462.523
2729.0000	467.285
2730.0000	467.546
2731.0000	465.972
2732.0000	467.781
2733.0000	467.822
2734.0000	467.392
2735.0000	466.38
2736.0000	463.145
2737.0000	462.262
2738.0000	462.096
2739.0000	461.372
2740.0000	464.87
2741.0000	465.329
2742.0000	465.284
2743.0000	468.095
2744.0000	469.264
2745.0000	468.56
2746.0000	465.45
2747.0000	463.02
2748.0000	465.833
2749.0000	468.728
2750.0000	467.249
2751.0000	465.952
2752.0000	466.417
2753.0000	468.036
2754.0000	468.596
2755.0000	469.058
2756.0000	467.807
2757.0000	468.97
2758.0000	473.007
2759.0000	469.598
2760.0000	467.147
2761.0000	470.169
2762.0000	467.639
2763.0000	466.263
2764.0000	468.943
2765.0000	468.629
2766.0000	466.927
2767.0000	469.549
2768.0000	473.462
2769.0000	469.566
2770.0000	466.811
2771.0000	465.402
2772.0000	466.785
2773.0000	469.456
2774.0000	467.348
2775.0000	467.866
2776.0000	469.32
2777.0000	465.818
2778.0000	467.341
2779.0000	467.268
2780.0000	463.5
2781.0000	466.992
2782.0000	469.39
2783.0000	468.242
2784.0000	469.061
2785.0000	468.204
2786.0000	471.064
2787.0000	469.654
2788.0000	465.623
2789.0000	465.718
2790.0000	465.56
2791.0000	471.835
2792.0000	471.944
2793.0000	464.482
2794.0000	466.543
2795.0000	469.296
2796.0000	466.591
2797.0000	468.913
2798.0000	467.288
2799.0000	464.238
2800.0000	465.249
2801.0000	467.735
2802.0000	469.238
2803.0000	470.023
2804.0000	468.182
2805.0000	466.531
2806.0000	465.832
2807.0000	463.674
2808.0000	464.792
2809.0000	464.379
2810.0000	464.458
2811.0000	468.277
2812.0000	470.565
2813.0000	470.094
2814.0000	470.327
2815.0000	470.349
2816.0000	470.517
2817.0000	468.858
2818.0000	467.265
2819.0000	467.386
2820.0000	467.729
2821.0000	468.205
2822.0000	466.547
2823.0000	466.081
2824.0000	467.363
2825.0000	465.158
2826.0000	464.275
2827.0000	466.496
2828.0000	470.035
2829.0000	474.486
2830.0000	472.294
2831.0000	468.714
2832.0000	469.893
2833.0000	467.678
2834.0000	464.833
2835.0000	466.323
2836.0000	468.394
2837.0000	471.909
2838.0000	474.93
2839.0000	472.317
2840.0000	466.02
2841.0000	463.982
2842.0000	466.39
2843.0000	470.572
2844.0000	468.421
2845.0000	465.66
2846.0000	471.163
2847.0000	472.086
2848.0000	467.18
2849.0000	465.512
2850.0000	464.93
2851.0000	468.138
2852.0000	470.508
2853.0000	469.784
2854.0000	472.023
2855.0000	472.081
2856.0000	470.406
2857.0000	469.829
2858.0000	467.864
2859.0000	468.584
2860.0000	469.731
2861.0000	468.973
2862.0000	469.597
2863.0000	468.388
2864.0000	470.584
2865.0000	472.11
2866.0000	469.552
2867.0000	467.749
2868.0000	468.171
2869.0000	468.262
2870.0000	467.852
2871.0000	470.556
2872.0000	471.551
2873.0000	470.636
2874.0000	469.041
2875.0000	470.348
2876.0000	469.56
2877.0000	466.919
2878.0000	466.854
2879.0000	467.428
2880.0000	469.131
2881.0000	467.234
2882.0000	468.1
2883.0000	468.858
2884.0000	469.616
2885.0000	473.896
2886.0000	474.254
2887.0000	473.073
2888.0000	473.517
2889.0000	470.657
2890.0000	466.941
2891.0000	468.475
2892.0000	469.478
2893.0000	469.022
2894.0000	469.808
2895.0000	469.488
2896.0000	468.36
2897.0000	469.648
2898.0000	472.76
2899.0000	471.627
2900.0000	471.767
2901.0000	471.029
2902.0000	466.366
2903.0000	466.262
2904.0000	469.922
2905.0000	469.174
2906.0000	471.774
2907.0000	474.391
2908.0000	469.736
2909.0000	466.583
2910.0000	472.209
2911.0000	472.564
2912.0000	468.586
2913.0000	470.59
2914.0000	467.389
2915.0000	469.833
2916.0000	471.526
2917.0000	469.299
2918.0000	469.939
2919.0000	467.333
2920.0000	469.305
2921.0000	470.055
2922.0000	468.26
2923.0000	468.837
2924.0000	468.9
2925.0000	471.489
2926.0000	472.935
2927.0000	468.206
2928.0000	466.213
2929.0000	469.533
2930.0000	470.197
2931.0000	469.125
2932.0000	470.455
2933.0000	470.505
2934.0000	470.344
2935.0000	470.964
2936.0000	470.034
2937.0000	470.805
2938.0000	468.803
2939.0000	465.809
2940.0000	467.81
2941.0000	468.1
2942.0000	467.906
2943.0000	471.058
2944.0000	474.414
2945.0000	473.135
2946.0000	471.442
2947.0000	471.304
2948.0000	466.689
2949.0000	465.233
2950.0000	469.538
2951.0000	473.174
2952.0000	470.838
2953.0000	468.774
2954.0000	469.921
2955.0000	469.765
2956.0000	470.925
2957.0000	472.536
2958.0000	476.883
2959.0000	472.842
2960.0000	467.009
2961.0000	468.952
2962.0000	472.115
2963.0000	475.612
2964.0000	474.922
2965.0000	469.647
2966.0000	462.153
2967.0000	463.418
2968.0000	470.015
2969.0000	469.126
2970.0000	467.732
2971.0000	471.959
2972.0000	472.213
2973.0000	470.973
2974.0000	469.024
2975.0000	466.107
2976.0000	468.902
2977.0000	472.668
2978.0000	473.314
2979.0000	470.11
2980.0000	468.999
2981.0000	472.229
2982.0000	472.942
2983.0000	469.379
2984.0000	467.453
2985.0000	471.258
2986.0000	469.503
2987.0000	469.113
2988.0000	468.418
2989.0000	468.425
2990.0000	473.068
2991.0000	471.696
2992.0000	471.825
2993.0000	474.499
2994.0000	472.981
2995.0000	468.474
2996.0000	466.803
2997.0000	468.725
2998.0000	469.803
2999.0000	468.284
3000.0000	468.623
3001.0000	471.505
3002.0000	472.176
3003.0000	469.902
3004.0000	468.325
3005.0000	466.014
3006.0000	465.266
3007.0000	469.559
3008.0000	473.366
3009.0000	471.529
3010.0000	469.906
3011.0000	469.801
3012.0000	467.289
3013.0000	467.595
3014.0000	470.014
3015.0000	473.427
3016.0000	473.687
3017.0000	467.491
3018.0000	469.319
3019.0000	472.169
3020.0000	469.128
3021.0000	469.394
3022.0000	471.084
3023.0000	473.397
3024.0000	472.641
3025.0000	471.03
3026.0000	471.397
3027.0000	468.718
3028.0000	467.982
3029.0000	471.182
3030.0000	472.123
3031.0000	471.731
3032.0000	470.74
3033.0000	472.618
3034.0000	474.663
3035.0000	470.862
3036.0000	467.197
3037.0000	473.02
3038.0000	476.329
3039.0000	470.91
3040.0000	473.777
3041.0000	473.488
3042.0000	467.55
3043.0000	473.812
3044.0000	474.456
3045.0000	472.478
3046.0000	476.276
3047.0000	474.306
3048.0000	468.198
3049.0000	464.749
3050.0000	463.429
3051.0000	467.997
3052.0000	468.417
3053.0000	467.195
3054.0000	469.378
3055.0000	468.808
3056.0000	471.783
3057.0000	470.242
3058.0000	467.58
3059.0000	472.291
3060.0000	473.843
3061.0000	469.84
3062.0000	467.828
3063.0000	469.766
3064.0000	471.246
3065.0000	467.629
3066.0000	466.188
3067.0000	467.208
3068.0000	468
3069.0000	466.583
3070.0000	468.368
3071.0000	468.886
3072.0000	467.999
3073.0000	467.565
3074.0000	466.479
3075.0000	469.349
3076.0000	472.507
3077.0000	475.174
3078.0000	473.756
3079.0000	471.299
3080.0000	469.847
3081.0000	473.058
3082.0000	476.766
3083.0000	473.871
3084.0000	473.93
3085.0000	477.527
3086.0000	477.236
3087.0000	472.617
3088.0000	469.746
3089.0000	468.244
3090.0000	467.36
3091.0000	469.095
3092.0000	469.68
3093.0000	472.282
3094.0000	474.723
3095.0000	472.201
3096.0000	468.038
3097.0000	467.28
3098.0000	467.807
3099.0000	467.046
3100.0000	468.71
3101.0000	468.381
3102.0000	465.149
3103.0000	467.312
3104.0000	471.125
3105.0000	469.511
3106.0000	469.315
3107.0000	467.737
3108.0000	462.244
3109.0000	459.722
3110.0000	459.627
3111.0000	460.33
3112.0000	461.726
3113.0000	461.673
3114.0000	465.152
3115.0000	466.676
3116.0000	461.669
3117.0000	462.28
3118.0000	464.425
3119.0000	463.282
3120.0000	464.43
3121.0000	465.227
3122.0000	467.614
3123.0000	467.919
3124.0000	465.731
3125.0000	463.499
3126.0000	463.516
3127.0000	463.98
3128.0000	464
3129.0000	464.481
3130.0000	461.633
3131.0000	462.584
3132.0000	464.821
3133.0000	468.501
3134.0000	472.468
3135.0000	471.606
3136.0000	470.1
3137.0000	469.795
3138.0000	472.018
3139.0000	472.792
3140.0000	468.248
3141.0000	466.55
3142.0000	468.552
3143.0000	471.782
3144.0000	472.023
3145.0000	469.218
3146.0000	469.899
3147.0000	468.478
3148.0000	468.196
3149.0000	470.154
3150.0000	469.517
3151.0000	471.178
3152.0000	472.457
3153.0000	470.708
3154.0000	467.18
3155.0000	465.299
3156.0000	466.465
3157.0000	469.549
3158.0000	467.688
3159.0000	465.479
3160.0000	471.02
3161.0000	471.301
3162.0000	468.766
3163.0000	472.585
3164.0000	474.113
3165.0000	471.207
3166.0000	469.23
3167.0000	469.99
3168.0000	469.009
3169.0000	467.061
3170.0000	469.846
3171.0000	472.772
3172.0000	471.028
3173.0000	471.836
3174.0000	473.209
3175.0000	471.343
3176.0000	471.88
3177.0000	473.978
3178.0000	472.022
3179.0000	468.871
3180.0000	465.512
3181.0000	467.334
3182.0000	471.071
3183.0000	470.43
3184.0000	471.273
3185.0000	467.375
3186.0000	463.335
3187.0000	469.18
3188.0000	470.435
3189.0000	467.281
3190.0000	466.936
3191.0000	467.869
3192.0000	472.491
3193.0000	471.877
3194.0000	467.814
3195.0000	465.821
3196.0000	464.921
3197.0000	467.043
3198.0000	470.552
3199.0000	472.862
3200.0000	474.051
3201.0000	470.404
3202.0000	469.147
3203.0000	467.759
3204.0000	465.705
3205.0000	470.184
3206.0000	471.2
3207.0000	468.778
3208.0000	469.229
3209.0000	472.102
3210.0000	473.14
3211.0000	469.092
3212.0000	466.146
3213.0000	469.698
3214.0000	474.762
3215.0000	474.47
3216.0000	471.892
3217.0000	470.434
3218.0000	472.319
3219.0000	475.673
3220.0000	471.485
3221.0000	469.244
3222.0000	474.624
3223.0000	469.762
3224.0000	466.06
3225.0000	471.079
3226.0000	468.911
3227.0000	465.693
3228.0000	465.996
3229.0000	463.104
3230.0000	467.137
3231.0000	471.897
3232.0000	472.632
3233.0000	474.932
3234.0000	471.987
3235.0000	467.158
3236.0000	466.174
3237.0000	469.323
3238.0000	467.556
3239.0000	464.367
3240.0000	467.104
3241.0000	467.665
3242.0000	471.089
3243.0000	471.801
3244.0000	470.26
3245.0000	471.213
3246.0000	471.254
3247.0000	472.071
3248.0000	466.443
3249.0000	467.653
3250.0000	471.554
3251.0000	467.621
3252.0000	467.061
3253.0000	468.381
3254.0000	472.261
3255.0000	474.28
3256.0000	472.769
3257.0000	474.195
3258.0000	474.483
3259.0000	472.247
3260.0000	469.882
3261.0000	471.802
3262.0000	468.854
3263.0000	468.191
3264.0000	472.004
3265.0000	474.435
3266.0000	474.631
3267.0000	473.02
3268.0000	474.494
3269.0000	477.047
3270.0000	470.698
3271.0000	464.624
3272.0000	467.689
3273.0000	469.169
3274.0000	468.184
3275.0000	468.868
3276.0000	471.442
3277.0000	472.848
3278.0000	470.237
3279.0000	467.301
3280.0000	469.507
3281.0000	469.747
3282.0000	472.248
3283.0000	474.019
3284.0000	471.378
3285.0000	470.895
3286.0000	471.021
3287.0000	472.711
3288.0000	474.396
3289.0000	470.46
3290.0000	473.577
3291.0000	475.239
3292.0000	471.573
3293.0000	473.739
3294.0000	474.843
3295.0000	475.905
3296.0000	470.418
3297.0000	470.979
3298.0000	474.017
3299.0000	468.994
3300.0000	470.175
3301.0000	472.912
3302.0000	476.052
3303.0000	476.188
3304.0000	473.96
3305.0000	472.615
3306.0000	472.623
3307.0000	476.005
3308.0000	475.114
3309.0000	474.242
3310.0000	474.432
3311.0000	473.012
3312.0000	473.663
3313.0000	471.811
3314.0000	467.614
3315.0000	469.935
3316.0000	468.742
3317.0000	464.26
3318.0000	462.781
3319.0000	463.057
3320.0000	465.103
3321.0000	465.983
3322.0000	468.164
3323.0000	468.896
3324.0000	468.07
3325.0000	472.07
3326.0000	474.845
3327.0000	473.729
3328.0000	471.898
3329.0000	469.932
3330.0000	474.654
3331.0000	477.944
3332.0000	470.339
3333.0000	467.586
3334.0000	472.996
3335.0000	471.237
3336.0000	470.31
3337.0000	472.888
3338.0000	472.789
3339.0000	474.912
3340.0000	476.593
3341.0000	476.634
3342.0000	472.964
3343.0000	472.617
3344.0000	475.818
3345.0000	471.865
3346.0000	469.797
3347.0000	473.361
3348.0000	474.944
3349.0000	473.685
3350.0000	471.521
3351.0000	473.637
3352.0000	474.861
3353.0000	469.729
3354.0000	468.47
3355.0000	470.962
3356.0000	474.762
3357.0000	476.718
3358.0000	473.47
3359.0000	469.238
3360.0000	470.925
3361.0000	475.941
3362.0000	478.19
3363.0000	474.088
3364.0000	467.517
3365.0000	467.181
3366.0000	470.082
3367.0000	475.016
3368.0000	479.946
3369.0000	478.173
3370.0000	473.425
3371.0000	470.173
3372.0000	472.628
3373.0000	472.311
3374.0000	472.099
3375.0000	473.79
3376.0000	473.089
3377.0000	473.017
3378.0000	470.357
3379.0000	470.125
3380.0000	469.334
3381.0000	468.75
3382.0000	473.254
3383.0000	474.353
3384.0000	470.027
3385.0000	468.951
3386.0000	472.669
3387.0000	469.789
3388.0000	468.282
3389.0000	472.557
3390.0000	474.17
3391.0000	473.542
3392.0000	472.167
3393.0000	471.875
3394.0000	473.532
3395.0000	472.622
3396.0000	471.439
3397.0000	471.92
3398.0000	471.231
3399.0000	472.575
3400.0000	473.441
3401.0000	477.35
3402.0000	476.612
3403.0000	474.509
3404.0000	474.733
3405.0000	474.848
3406.0000	476.072
3407.0000	477.981
3408.0000	478.876
3409.0000	473.169
3410.0000	471.192
3411.0000	472.163
3412.0000	471.812
3413.0000	471.46
3414.0000	469.967
3415.0000	471.523
3416.0000	475.372
3417.0000	474.805
3418.0000	470.6
3419.0000	467.227
3420.0000	467.836
3421.0000	469.705
3422.0000	469.441
3423.0000	469.403
3424.0000	469.863
3425.0000	471.346
3426.0000	470.584
3427.0000	469.059
3428.0000	469.298
3429.0000	468.739
3430.0000	465.975
3431.0000	461.1
3432.0000	461.005
3433.0000	462.73
3434.0000	465.823
3435.0000	467.548
3436.0000	464.753
3437.0000	463.938
3438.0000	463.952
3439.0000	467.182
3440.0000	465.342
3441.0000	462.286
3442.0000	463.428
3443.0000	462.819
3444.0000	463.892
3445.0000	462.926
3446.0000	462.687
3447.0000	463.653
3448.0000	463.75
3449.0000	464.87
3450.0000	465.535
3451.0000	467.532
3452.0000	466.067
3453.0000	465.549
3454.0000	470.057
3455.0000	470.699
3456.0000	471.172
3457.0000	472.052
3458.0000	468.787
3459.0000	467.21
3460.0000	470.699
3461.0000	470.159
3462.0000	467.214
3463.0000	465.569
3464.0000	465.009
3465.0000	467.774
3466.0000	468.225
3467.0000	467.695
3468.0000	465.613
3469.0000	465.312
3470.0000	468.166
3471.0000	470.406
3472.0000	471.433
3473.0000	470.93
3474.0000	467.036
3475.0000	466.614
3476.0000	466.036
3477.0000	466.082
3478.0000	469.653
3479.0000	466.971
3480.0000	470.247
3481.0000	474.227
3482.0000	473.207
3483.0000	472.004
3484.0000	470.919
3485.0000	471.504
3486.0000	470.238
3487.0000	468.067
3488.0000	469.319
3489.0000	472.874
3490.0000	474.434
3491.0000	472.128
3492.0000	470.577
3493.0000	469.253
3494.0000	468.739
3495.0000	469.68
3496.0000	470.722
3497.0000	470.85
3498.0000	470.311
3499.0000	473.269
3500.0000	474.089
3501.0000	473.191
3502.0000	475.314
3503.0000	475.58
3504.0000	471.309
3505.0000	468.606
3506.0000	470.17
3507.0000	468.927
3508.0000	467.793
3509.0000	470.57
3510.0000	471.411
3511.0000	471.949
3512.0000	473.582
3513.0000	468.873
3514.0000	465.259
3515.0000	470.505
3516.0000	470.944
3517.0000	468.959
3518.0000	469.19
3519.0000	471.353
3520.0000	472.594
3521.0000	471.359
3522.0000	471.797
3523.0000	472.334
3524.0000	469.389
3525.0000	467.472
3526.0000	467.504
3527.0000	470.698
3528.0000	471.553
3529.0000	468.52
3530.0000	472.299
3531.0000	471.199
3532.0000	468.657
3533.0000	472.126
3534.0000	475.835
3535.0000	475.266
3536.0000	475.265
3537.0000	473.837
3538.0000	472.986
3539.0000	471.899
3540.0000	464.589
3541.0000	464.518
3542.0000	470.789
3543.0000	471.064
3544.0000	469.752
3545.0000	473.866
3546.0000	476.306
3547.0000	475.162
3548.0000	474.602
3549.0000	474.364
3550.0000	476.147
3551.0000	478.052
3552.0000	474.167
3553.0000	470.124
3554.0000	471.142
3555.0000	472.709
3556.0000	473.926
3557.0000	476.851
3558.0000	474.773
3559.0000	471.491
3560.0000	472.86
3561.0000	473.926
3562.0000	473.203
3563.0000	472.794
3564.0000	472
3565.0000	470.554
3566.0000	471.534
3567.0000	478.561
3568.0000	479.884
3569.0000	475.868
3570.0000	478.377
3571.0000	476.878
3572.0000	475.882
3573.0000	478.823
3574.0000	478.302
3575.0000	476.551
3576.0000	476.934
3577.0000	476.361
3578.0000	471.604
3579.0000	475.491
3580.0000	476.784
3581.0000	474.418
3582.0000	475.254
3583.0000	476.665
3584.0000	476.951
3585.0000	473.208
3586.0000	473.908
3587.0000	476.704
3588.0000	476.098
3589.0000	472.472
3590.0000	471.948
3591.0000	472.07
3592.0000	473.139
3593.0000	474.649
3594.0000	473.075
3595.0000	473.74
3596.0000	476.263
3597.0000	473.498
3598.0000	473.02
3599.0000	476.256
3600.0000	475.068
3601.0000	475.577
3602.0000	480.92
3603.0000	480.482
3604.0000	475.792
3605.0000	475.898
3606.0000	475.618
3607.0000	475.556
3608.0000	475.947
3609.0000	476.496
3610.0000	476.756
3611.0000	475.025
3612.0000	475.648
3613.0000	476.661
3614.0000	474.524
3615.0000	473.136
3616.0000	478.097
3617.0000	478.828
3618.0000	477.437
3619.0000	479.49
3620.0000	477.669
3621.0000	475.155
3622.0000	475.712
3623.0000	477.862
3624.0000	479.832
3625.0000	477.567
3626.0000	473.912
3627.0000	473.607
3628.0000	473.935
3629.0000	475.177
3630.0000	476.181
3631.0000	475.033
3632.0000	473.779
3633.0000	477.077
3634.0000	479.09
3635.0000	475.115
3636.0000	472.407
3637.0000	473.846
3638.0000	477.265
3639.0000	479.335
3640.0000	474.603
3641.0000	473.035
3642.0000	472.93
3643.0000	468.059
3644.0000	471.303
3645.0000	472.596
3646.0000	472.842
3647.0000	476.79
3648.0000	473.696
3649.0000	474.556
3650.0000	475.456
3651.0000	473.142
3652.0000	476.412
3653.0000	477.101
3654.0000	477.271
3655.0000	477.476
3656.0000	474.123
3657.0000	473.96
3658.0000	474.33
3659.0000	472.259
3660.0000	473.195
3661.0000	473.73
3662.0000	475.888
3663.0000	477.03
3664.0000	471.432
3665.0000	472.102
3666.0000	473.661
3667.0000	473.198
3668.0000	477.477
3669.0000	478.701
3670.0000	472.351
3671.0000	470.457
3672.0000	473.813
3673.0000	474.439
3674.0000	473.601
3675.0000	476.34
3676.0000	481.275
3677.0000	478.82
3678.0000	474.94
3679.0000	477.719
3680.0000	477.743
3681.0000	474.178
3682.0000	475.914
3683.0000	478.731
3684.0000	479.885
3685.0000	476.323
3686.0000	472.08
3687.0000	474.518
3688.0000	477.63
3689.0000	477.083
3690.0000	474.888
3691.0000	473.042
3692.0000	474.098
3693.0000	474.182
3694.0000	474.704
3695.0000	478.246
3696.0000	477.213
3697.0000	476.551
3698.0000	477.275
3699.0000	477.953
3700.0000	476.797
3701.0000	471.782
3702.0000	474.203
3703.0000	475.006
3704.0000	473.821
3705.0000	474.461
3706.0000	473.518
3707.0000	473.965
3708.0000	475.579
3709.0000	478.253
3710.0000	475.202
3711.0000	471.526
3712.0000	473.277
3713.0000	472.689
3714.0000	475.175
3715.0000	474.516
3716.0000	471.118
3717.0000	473.239
3718.0000	471.798
3719.0000	472.754
3720.0000	478.576
3721.0000	480.272
3722.0000	474.56
3723.0000	477.419
3724.0000	481.296
3725.0000	478.143
3726.0000	477.207
3727.0000	475.511
3728.0000	475.076
3729.0000	473.425
3730.0000	475.786
3731.0000	476.985
3732.0000	472.218
3733.0000	471.277
3734.0000	475.942
3735.0000	474.26
3736.0000	472.299
3737.0000	478.142
3738.0000	478.114
3739.0000	474.863
3740.0000	474.954
3741.0000	475.103
3742.0000	474.532
3743.0000	473.091
3744.0000	471.863
3745.0000	476.856
3746.0000	479.882
3747.0000	475.016
3748.0000	472.582
3749.0000	476.908
3750.0000	478.603
3751.0000	472.313
3752.0000	470.49
3753.0000	473.785
3754.0000	476.936
3755.0000	478.354
3756.0000	476.247
3757.0000	477.232
3758.0000	475.066
3759.0000	471.899
3760.0000	474.215
3761.0000	475.78
3762.0000	475.994
3763.0000	476.309
3764.0000	477.968
3765.0000	477.74
3766.0000	474.632
3767.0000	474.846
3768.0000	473.623
3769.0000	472.47
3770.0000	475.59
3771.0000	474.267
3772.0000	472.786
3773.0000	475.411
3774.0000	477.707
3775.0000	477.716
3776.0000	477.721
3777.0000	477.747
3778.0000	474.634
3779.0000	473.329
3780.0000	473.273
3781.0000	470.502
3782.0000	475.774
3783.0000	482.254
3784.0000	478.679
3785.0000	473.015
3786.0000	473.836
3787.0000	479.249
3788.0000	478.543
3789.0000	475.35
3790.0000	476.117
3791.0000	470.678
3792.0000	467.827
3793.0000	472.306
3794.0000	474.898
3795.0000	478.13
3796.0000	475.511
3797.0000	474.074
3798.0000	472.169
3799.0000	468.966
3800.0000	474.171
3801.0000	479.433
3802.0000	481.307
3803.0000	477.889
3804.0000	474.055
3805.0000	477.318
3806.0000	475.682
3807.0000	470.681
3808.0000	473.348
3809.0000	477.232
3810.0000	476.914
3811.0000	471.163
3812.0000	471.782
3813.0000	477.082
3814.0000	476.694
3815.0000	479.715
3816.0000	480.061
3817.0000	472.661
3818.0000	470.333
3819.0000	474.295
3820.0000	473.414
3821.0000	473.519
3822.0000	477.34
3823.0000	474.377
3824.0000	473.831
3825.0000	479.843
3826.0000	480.249
3827.0000	475.927
3828.0000	474.743
3829.0000	476.749
3830.0000	475.175
3831.0000	474.805
3832.0000	473.718
3833.0000	474.348
3834.0000	477.938
3835.0000	475.799
3836.0000	476.062
3837.0000	479.102
3838.0000	477.134
3839.0000	475.928
3840.0000	476.835
3841.0000	477.805
3842.0000	477.561
3843.0000	477.768
3844.0000	477.389
3845.0000	476.833
3846.0000	480.003
3847.0000	477.115
3848.0000	474.498
3849.0000	477.115
3850.0000	476.468
3851.0000	474.299
3852.0000	474.5
3853.0000	479.442
3854.0000	477.672
3855.0000	473.213
3856.0000	477.58
3857.0000	475.437
3858.0000	473.012
3859.0000	477.163
3860.0000	479.26
3861.0000	479.992
3862.0000	478.442
3863.0000	472.884
3864.0000	472.631
3865.0000	475.917
3866.0000	478.507
3867.0000	478.73
3868.0000	476.407
3869.0000	477.381
3870.0000	478.718
3871.0000	476.785
3872.0000	473.224
3873.0000	469.297
3874.0000	470.009
3875.0000	473.374
3876.0000	476.434
3877.0000	478.597
3878.0000	476.023
3879.0000	475.605
3880.0000	478.599
3881.0000	479.964
3882.0000	477.243
3883.0000	474.784
3884.0000	476.218
3885.0000	476.599
3886.0000	476.445
3887.0000	474.789
3888.0000	472.836
3889.0000	475.038
3890.0000	476.888
3891.0000	480.883
3892.0000	479.432
3893.0000	478.324
3894.0000	476.88
3895.0000	474.97
3896.0000	476.803
3897.0000	474.361
3898.0000	473.613
3899.0000	473.984
3900.0000	474.315
3901.0000	476.585
3902.0000	474.152
3903.0000	473.806
3904.0000	468.984
3905.0000	464.904
3906.0000	469.757
3907.0000	467.164
3908.0000	465.289
3909.0000	470.201
3910.0000	473.845
3911.0000	475.176
3912.0000	473.303
3913.0000	471.557
3914.0000	470.169
3915.0000	472.046
3916.0000	476.332
3917.0000	475.509
3918.0000	477.937
3919.0000	477.473
3920.0000	475.824
3921.0000	476.167
3922.0000	475.724
3923.0000	476.381
3924.0000	475.203
3925.0000	471.847
3926.0000	476.057
3927.0000	480.463
3928.0000	478.743
3929.0000	476.739
3930.0000	472.196
3931.0000	469.257
3932.0000	469.046
3933.0000	469.34
3934.0000	469.921
3935.0000	470.793
3936.0000	466.637
3937.0000	467.473
3938.0000	473.191
3939.0000	477.185
3940.0000	479.617
3941.0000	477.864
3942.0000	480.24
3943.0000	480.478
3944.0000	476.012
3945.0000	474.022
3946.0000	476.091
3947.0000	476.492
3948.0000	476.539
3949.0000	477.676
3950.0000	474.242
3951.0000	473.355
3952.0000	475.568
3953.0000	473.736
3954.0000	473.929
3955.0000	476.226
3956.0000	479.013
3957.0000	477.648
3958.0000	476.364
3959.0000	478.136
3960.0000	476.834
3961.0000	478.371
3962.0000	476.793
3963.0000	475.912
3964.0000	475.597
3965.0000	474.65
3966.0000	477.098
3967.0000	475.001
3968.0000	475.612
3969.0000	477.514
3970.0000	475.032
3971.0000	474.294
3972.0000	475.19
3973.0000	475.072
3974.0000	475.139
3975.0000	479.44
3976.0000	478.646
3977.0000	475.098
3978.0000	478.639
3979.0000	480.742
3980.0000	477.453
3981.0000	476.703
3982.0000	476.699
3983.0000	471.859
3984.0000	473.186
3985.0000	477.096
3986.0000	473.866
3987.0000	474.237
3988.0000	476.929
3989.0000	475.372
3990.0000	471.739
3991.0000	472.237
3992.0000	478.58
3993.0000	478.931
3994.0000	474.326
3995.0000	472.186
3996.0000	471.023
3997.0000	471.119
3998.0000	475.392
3999.0000	478.216
4000.0000	477.603
4001.0000	478.378
4002.0000	477.417
4003.0000	474.998
4004.0000	476.892
4005.0000	475.212
4006.0000	474.013
4007.0000	474.503
4008.0000	469.695
4009.0000	470.811
4010.0000	472.801
4011.0000	473.043
4012.0000	476.801
4013.0000	477.768
4014.0000	476.22
4015.0000	473.589
4016.0000	469.885
4017.0000	473.332
4018.0000	477.844
4019.0000	477.223
4020.0000	476.735
4021.0000	477.998
4022.0000	480.998
4023.0000	482.543
4024.0000	479.593
4025.0000	478.337
4026.0000	478.66
4027.0000	480.277
4028.0000	483.506
4029.0000	479.987
4030.0000	474.843
4031.0000	474.362
4032.0000	477.312
4033.0000	478.879
4034.0000	484.048
4035.0000	487.428
4036.0000	483.302
4037.0000	477.977
4038.0000	479.227
4039.0000	479.83
4040.0000	476.759
4041.0000	477.352
4042.0000	478.889
4043.0000	482.175
4044.0000	479.325
4045.0000	478.03
4046.0000	477.865
4047.0000	476.494
4048.0000	481.453
4049.0000	484.423
4050.0000	479.404
4051.0000	475.977
4052.0000	475.704
4053.0000	476.435
4054.0000	478.609
4055.0000	474.837
4056.0000	473.92
4057.0000	478.358
4058.0000	478.185
4059.0000	476.502
4060.0000	479.261
4061.0000	482.432
4062.0000	480.519
4063.0000	479.924
4064.0000	480.992
4065.0000	477.743
4066.0000	477.16
4067.0000	479.758
4068.0000	479.75
4069.0000	477.149
4070.0000	479.161
4071.0000	481.18
4072.0000	478.984
4073.0000	477.031
4074.0000	477.965
4075.0000	479.571
4076.0000	476.518
4077.0000	475.33
4078.0000	479.238
4079.0000	484.505
4080.0000	483.17
4081.0000	479.862
4082.0000	480.341
4083.0000	476.9
4084.0000	472.949
4085.0000	475.946
4086.0000	477.188
4087.0000	479.446
4088.0000	481.641
4089.0000	479.378
4090.0000	480.181
4091.0000	479.785
4092.0000	480.143
4093.0000	479.56
4094.0000	478.329
4095.0000	479.096
4096.0000	480.291
4097.0000	482.55
4098.0000	483.196
4099.0000	481.28
4100.0000	477.661
4101.0000	476.578
4102.0000	476.128
4103.0000	475.277
4104.0000	477.417
4105.0000	478.852
4106.0000	478.424
4107.0000	475.986
4108.0000	477.472
4109.0000	476.832
4110.0000	474.792
4111.0000	478.298
4112.0000	477.812
4113.0000	479.03
4114.0000	476.855
4115.0000	475.675
4116.0000	480.098
4117.0000	476.771
4118.0000	473.705
4119.0000	477.875
4120.0000	482.306
4121.0000	479.741
4122.0000	481.363
4123.0000	483.974
4124.0000	483.11
4125.0000	483.166
4126.0000	478.617
4127.0000	478.754
4128.0000	481.386
4129.0000	478.9
4130.0000	477.258
4131.0000	481.201
4132.0000	482.047
4133.0000	477.276
4134.0000	475.298
4135.0000	482.36
4136.0000	483.208
4137.0000	482.23
4138.0000	479.932
4139.0000	473.866
4140.0000	480.275
4141.0000	482.229
4142.0000	478.494
4143.0000	479.65
4144.0000	481.414
4145.0000	481.177
4146.0000	482.046
4147.0000	483.479
4148.0000	483.97
4149.0000	481.092
4150.0000	477.807
4151.0000	477.187
4152.0000	473.549
4153.0000	475.198
4154.0000	478.42
4155.0000	477.708
4156.0000	479.852
4157.0000	481.172
4158.0000	480.612
4159.0000	480.519
4160.0000	482.181
4161.0000	481.696
4162.0000	478.052
4163.0000	479.777
4164.0000	484.413
4165.0000	484.159
4166.0000	482.026
4167.0000	483.124
4168.0000	480.512
4169.0000	476.946
4170.0000	477.639
4171.0000	478.728
4172.0000	479.401
4173.0000	482.258
4174.0000	483.892
4175.0000	482.544
4176.0000	484.399
4177.0000	482.991
4178.0000	479.528
4179.0000	480.13
4180.0000	479.546
4181.0000	476.276
4182.0000	480.348
4183.0000	482.688
4184.0000	479.899
4185.0000	479.293
4186.0000	477.027
4187.0000	477.502
4188.0000	481.603
4189.0000	482.004
4190.0000	481.931
4191.0000	481.316
4192.0000	479.257
4193.0000	475.953
4194.0000	478.208
4195.0000	481.374
4196.0000	477.789
4197.0000	478.117
4198.0000	482.182
4199.0000	479.571
4200.0000	475.302
4201.0000	477.788
4202.0000	479.45
4203.0000	479.792
4204.0000	476.722
4205.0000	477.42
4206.0000	478.834
4207.0000	484.651
4208.0000	488.149
4209.0000	484.701
4210.0000	485.753
4211.0000	489.521
4212.0000	487.148
4213.0000	478.987
4214.0000	478.908
4215.0000	480.51
4216.0000	482.566
4217.0000	480.512
4218.0000	479.126
4219.0000	480.591
4220.0000	477.804
4221.0000	479.261
4222.0000	482.156
4223.0000	480.203
4224.0000	478.878
4225.0000	479.718
4226.0000	478.462
4227.0000	478.188
4228.0000	478.142
4229.0000	477.124
4230.0000	479.653
4231.0000	479.798
4232.0000	480.564
4233.0000	481.194
4234.0000	477.837
4235.0000	478.487
4236.0000	478.972
4237.0000	477.508
4238.0000	476.946
4239.0000	477.799
4240.0000	478.347
4241.0000	477.651
4242.0000	479.556
4243.0000	483.702
4244.0000	482.346
4245.0000	481.886
4246.0000	484.102
4247.0000	484.326
4248.0000	480.624
4249.0000	478.538
4250.0000	478.243
4251.0000	479.008
4252.0000	485.321
4253.0000	483.775
4254.0000	478.311
4255.0000	480.474
4256.0000	480.806
4257.0000	477.837
4258.0000	477.461
4259.0000	480.446
4260.0000	480.105
4261.0000	478.632
4262.0000	481.65
4263.0000	483.778
4264.0000	479.25
4265.0000	473.778
4266.0000	475.162
4267.0000	478.263
4268.0000	480.993
4269.0000	483.288
4270.0000	480.785
4271.0000	479.418
4272.0000	479.498
4273.0000	478.507
4274.0000	479.9
4275.0000	479.997
4276.0000	479.889
4277.0000	479.515
4278.0000	479.08
4279.0000	480.59
4280.0000	479.117
4281.0000	478.849
4282.0000	479.264
4283.0000	478.076
4284.0000	479.234
4285.0000	477.766
4286.0000	477.704
4287.0000	484.311
4288.0000	487.139
4289.0000	481.055
4290.0000	478.093
4291.0000	481.305
4292.0000	480.076
4293.0000	479.79
4294.0000	482.067
4295.0000	482.163
4296.0000	483.255
4297.0000	481.006
4298.0000	479.259
4299.0000	483.611
4300.0000	485.58
4301.0000	477.545
4302.0000	478.921
4303.0000	481.997
4304.0000	479.734
4305.0000	481.231
4306.0000	478.254
4307.0000	476.351
4308.0000	478.572
4309.0000	481.359
4310.0000	483.063
4311.0000	482.25
4312.0000	482.23
4313.0000	480.899
4314.0000	480.917
4315.0000	483.02
4316.0000	483.958
4317.0000	482.307
4318.0000	478.998
4319.0000	476.872
4320.0000	476.04
4321.0000	480.872
4322.0000	482.444
4323.0000	481.838
4324.0000	483.307
4325.0000	483.611
4326.0000	482.757
4327.0000	476.451
4328.0000	476.412
4329.0000	481.275
4330.0000	479.523
4331.0000	480.752
4332.0000	481.242
4333.0000	481.529
4334.0000	480.942
4335.0000	477.795
4336.0000	477.329
4337.0000	477.287
4338.0000	481.956
4339.0000	482.911
4340.0000	478.469
4341.0000	476.928
4342.0000	477.486
4343.0000	479.783
4344.0000	483.252
4345.0000	484.381
4346.0000	482.835
4347.0000	483.404
4348.0000	483.827
4349.0000	476.794
4350.0000	476.136
4351.0000	480.13
4352.0000	478.579
4353.0000	478.335
4354.0000	479.892
4355.0000	480.947
4356.0000	478.258
4357.0000	476.549
4358.0000	474.848
4359.0000	473.316
4360.0000	478.413
4361.0000	480.937
4362.0000	479.032
4363.0000	479.072
4364.0000	477.774
4365.0000	479.287
4366.0000	483.03
4367.0000	483.199
4368.0000	480.691
4369.0000	479.106
4370.0000	481.453
4371.0000	484.278
4372.0000	482.153
4373.0000	483.681
4374.0000	487.511
4375.0000	481.31
4376.0000	479.14
4377.0000	482.6
4378.0000	480.032
4379.0000	478.133
4380.0000	477.739
4381.0000	479.158
4382.0000	484.135
4383.0000	485.221
4384.0000	482.439
4385.0000	481.011
4386.0000	481.135
4387.0000	480.743
4388.0000	478.592
4389.0000	478.676
4390.0000	479.378
4391.0000	479.742
4392.0000	477.398
4393.0000	478.07
4394.0000	481.921
4395.0000	482.807
4396.0000	484.287
4397.0000	483.055
4398.0000	481.07
4399.0000	479.824
4400.0000	475.825
4401.0000	479.186
4402.0000	483.03
4403.0000	480.077
4404.0000	484.572
4405.0000	483.478
4406.0000	479.546
4407.0000	483.023
4408.0000	483.028
4409.0000	474.941
4410.0000	474.366
4411.0000	480.141
4412.0000	478.25
4413.0000	478.118
4414.0000	480.441
4415.0000	483.136
4416.0000	478.941
4417.0000	470.806
4418.0000	476.979
4419.0000	482.916
4420.0000	478.251
4421.0000	477.429
4422.0000	481.406
4423.0000	483.016
4424.0000	481.797
4425.0000	481.421
4426.0000	481.103
4427.0000	479.313
4428.0000	478.935
4429.0000	479.437
4430.0000	480.255
4431.0000	481.851
4432.0000	481.445
4433.0000	479.741
4434.0000	482.344
4435.0000	484.197
4436.0000	482.087
4437.0000	479.831
4438.0000	474.494
4439.0000	475.392
4440.0000	479.581
4441.0000	481.216
4442.0000	482.204
4443.0000	481.3
4444.0000	481.804
4445.0000	481.222
4446.0000	483.964
4447.0000	485.411
4448.0000	483.223
4449.0000	486.791
4450.0000	486.865
4451.0000	481.354
4452.0000	476.178
4453.0000	479.469
4454.0000	484.552
4455.0000	479.841
4456.0000	476.973
4457.0000	481.659
4458.0000	484.963
4459.0000	481.898
4460.0000	483.222
4461.0000	481.933
4462.0000	478.846
4463.0000	482.513
4464.0000	481.694
4465.0000	476.319
4466.0000	472.921
4467.0000	472.625
4468.0000	477.639
4469.0000	483.097
4470.0000	483.668
4471.0000	483.018
4472.0000	481.163
4473.0000	480.827
4474.0000	482.151
4475.0000	483.84
4476.0000	485.227
4477.0000	481.254
4478.0000	480.63
4479.0000	483.659
4480.0000	480.539
4481.0000	478.074
4482.0000	481.945
4483.0000	485.852
4484.0000	482.833
4485.0000	480.201
4486.0000	479.781
4487.0000	480.415
4488.0000	483.064
4489.0000	484.41
4490.0000	483.352
4491.0000	484.671
4492.0000	479.901
4493.0000	477.791
4494.0000	479.939
4495.0000	480.2
4496.0000	483.642
4497.0000	480.593
4498.0000	479.931
4499.0000	481.202
4500.0000	483.664
4501.0000	483.022
4502.0000	477.951
4503.0000	477.067
4504.0000	481.306
4505.0000	482.612
4506.0000	482.554
4507.0000	483.262
4508.0000	482.605
4509.0000	484.314
4510.0000	483.171
4511.0000	478.881
4512.0000	477.258
4513.0000	479.357
4514.0000	479.366
4515.0000	478.981
4516.0000	477.541
4517.0000	475.677
4518.0000	476.958
4519.0000	480.48
4520.0000	485.547
4521.0000	484.767
4522.0000	481.52
4523.0000	481.712
4524.0000	483.325
4525.0000	483.085
4526.0000	481.036
4527.0000	480.598
4528.0000	480.069
4529.0000	477.718
4530.0000	478.976
4531.0000	484.837
4532.0000	482.98
4533.0000	479.649
4534.0000	477.242
4535.0000	476.56
4536.0000	478.97
4537.0000	481.89
4538.0000	485.063
4539.0000	482.082
4540.0000	478.757
4541.0000	479.313
4542.0000	479.04
4543.0000	484.13
4544.0000	485.688
4545.0000	483.441
4546.0000	480.544
4547.0000	479.713
4548.0000	484.742
4549.0000	485.879
4550.0000	482.707
4551.0000	477.237
4552.0000	479.809
4553.0000	482.599
4554.0000	479.298
4555.0000	480.808
4556.0000	480.501
4557.0000	480.534
4558.0000	483.652
4559.0000	481.294
4560.0000	481.301
4561.0000	487.131
4562.0000	485.557
4563.0000	482.021
4564.0000	481.223
4565.0000	480.918
4566.0000	482.789
4567.0000	482.842
4568.0000	478.377
4569.0000	477.273
4570.0000	482.459
4571.0000	482.352
4572.0000	479.97
4573.0000	479.225
4574.0000	479.307
4575.0000	477.427
4576.0000	477.616
4577.0000	483.48
4578.0000	484.314
4579.0000	480.952
4580.0000	480.767
4581.0000	481.541
4582.0000	481.887
4583.0000	482.501
4584.0000	483.471
4585.0000	480.658
4586.0000	480.901
4587.0000	483.418
4588.0000	484.643
4589.0000	485.934
4590.0000	487.076
4591.0000	482.414
4592.0000	479.713
4593.0000	480.399
4594.0000	479.788
4595.0000	479.507
4596.0000	477.621
4597.0000	475.936
4598.0000	474.896
4599.0000	478.875
4600.0000	480.876
4601.0000	479.862
4602.0000	483.111
4603.0000	483.77
4604.0000	478.809
4605.0000	482.307
4606.0000	486.367
4607.0000	485.677
4608.0000	482.466
4609.0000	482.264
4610.0000	480.049
4611.0000	478.072
4612.0000	483.322
4613.0000	485.115
4614.0000	484.81
4615.0000	481.578
4616.0000	480.482
4617.0000	479.112
4618.0000	477.3
4619.0000	478.575
4620.0000	481.851
4621.0000	481.022
4622.0000	479.291
4623.0000	478.848
4624.0000	479.896
4625.0000	481.848
4626.0000	481.88
4627.0000	482.749
4628.0000	479.957
4629.0000	479.719
4630.0000	481.555
4631.0000	483.428
4632.0000	482.866
4633.0000	480.45
4634.0000	481.209
4635.0000	482.585
4636.0000	481.722
4637.0000	478.977
4638.0000	480.174
4639.0000	481.331
4640.0000	481.049
4641.0000	483.202
4642.0000	485.128
4643.0000	485.571
4644.0000	485.508
4645.0000	483.471
4646.0000	480.903
4647.0000	481.098
4648.0000	482.727
4649.0000	483.589
4650.0000	486.27
4651.0000	486.662
4652.0000	482.49
4653.0000	481.222
4654.0000	480.97
4655.0000	479.765
4656.0000	479.094
4657.0000	476.504
4658.0000	478.583
4659.0000	477.524
