TITLE	
DATA TYPE	
ORIGIN	JASCO
OWNER	
DATE	21/10/28
TIME	13:35:09
SPECTROMETER/DATA SYSTEM	
RESOLUTION	
DELTAX	1
XUNITS	SEC
YUNITS	INTENSITY
FIRSTX	0.0000
LASTX	5000.0000
NPOINTS	5001
FIRSTY	390.98373
MAXY	508.86420
MINY	-351.00211
XYDATA
0.0000	390.984
1.0000	390.284
2.0000	394.858
3.0000	395.075
4.0000	392.43
5.0000	391.782
6.0000	392.192
7.0000	389.836
8.0000	390.044
9.0000	392.286
10.0000	394.474
11.0000	394.809
12.0000	393.558
13.0000	393.733
14.0000	394.145
15.0000	392.346
16.0000	388.675
17.0000	389.855
18.0000	391.13
19.0000	393.132
20.0000	392.073
21.0000	392.012
22.0000	395.131
23.0000	394.278
24.0000	389.251
25.0000	385.61
26.0000	392.012
27.0000	394.398
28.0000	391.757
29.0000	392.841
30.0000	395.721
31.0000	394.845
32.0000	395.73
33.0000	399.84
34.0000	394.016
35.0000	394.204
36.0000	400.192
37.0000	396.667
38.0000	394.903
39.0000	394.334
40.0000	394.236
41.0000	396.963
42.0000	398.984
43.0000	396.627
44.0000	394.495
45.0000	399.868
46.0000	396.588
47.0000	390.761
48.0000	393.876
49.0000	397.178
50.0000	397.083
51.0000	394.712
52.0000	393.991
53.0000	394.041
54.0000	396.713
55.0000	393.914
56.0000	391.932
57.0000	393.712
58.0000	391.674
59.0000	392.119
60.0000	396.782
61.0000	390.287
62.0000	336.12
63.0000	-351.002
64.0000	-227.535
65.0000	-207.953
66.0000	-201.659
67.0000	245.166
68.0000	230.519
69.0000	196.678
70.0000	195.556
71.0000	197.882
72.0000	197.215
73.0000	195.907
74.0000	196.795
75.0000	196.055
76.0000	196.785
77.0000	194.92
78.0000	196.503
79.0000	200.029
80.0000	197.708
81.0000	197.778
82.0000	200.548
83.0000	203.476
84.0000	206.257
85.0000	205.024
86.0000	202.133
87.0000	203.576
88.0000	206.358
89.0000	204.306
90.0000	203.087
91.0000	203.441
92.0000	203.411
93.0000	207.346
94.0000	209.162
95.0000	206.472
96.0000	206.803
97.0000	208.214
98.0000	207.772
99.0000	206.034
100.0000	205.707
101.0000	206.706
102.0000	208.357
103.0000	210.765
104.0000	209.628
105.0000	210.216
106.0000	211.72
107.0000	211.029
108.0000	209.185
109.0000	209.153
110.0000	210.369
111.0000	212.014
112.0000	213.364
113.0000	211.204
114.0000	211.523
115.0000	214.63
116.0000	215.871
117.0000	217.443
118.0000	217.607
119.0000	215.413
120.0000	216.858
121.0000	218.368
122.0000	219.338
123.0000	219.466
124.0000	218.311
125.0000	219.252
126.0000	218.665
127.0000	221.725
128.0000	222.308
129.0000	219.703
130.0000	217.641
131.0000	217.935
132.0000	221.193
133.0000	220.496
134.0000	220.875
135.0000	222.609
136.0000	222.618
137.0000	223.326
138.0000	224.021
139.0000	224.102
140.0000	223.906
141.0000	224.651
142.0000	226.487
143.0000	227.279
144.0000	228.699
145.0000	226.83
146.0000	225.25
147.0000	224.796
148.0000	225.304
149.0000	227.357
150.0000	227.427
151.0000	227.519
152.0000	228.681
153.0000	231.474
154.0000	231.933
155.0000	227.255
156.0000	228.737
157.0000	231.655
158.0000	228.183
159.0000	229.562
160.0000	233.116
161.0000	234.166
162.0000	234.647
163.0000	235.255
164.0000	233.85
165.0000	232.5
166.0000	232.866
167.0000	234.34
168.0000	236.503
169.0000	234.241
170.0000	234.868
171.0000	238.461
172.0000	238.116
173.0000	236.471
174.0000	238.115
175.0000	240.814
176.0000	240.217
177.0000	238.409
178.0000	236.487
179.0000	236.407
180.0000	236.3
181.0000	238.615
182.0000	241.81
183.0000	239.545
184.0000	236.556
185.0000	238.94
186.0000	242.535
187.0000	241.742
188.0000	243.459
189.0000	244.908
190.0000	242.947
191.0000	245.49
192.0000	245.394
193.0000	243.888
194.0000	244.777
195.0000	243.132
196.0000	242.77
197.0000	244.819
198.0000	244.183
199.0000	242.837
200.0000	244.764
201.0000	245.862
202.0000	246.944
203.0000	249.021
204.0000	249.721
205.0000	248.91
206.0000	249.311
207.0000	250.674
208.0000	249.967
209.0000	250.825
210.0000	250.895
211.0000	251.423
212.0000	253.119
213.0000	254.11
214.0000	254.882
215.0000	256.529
216.0000	252.841
217.0000	251.181
218.0000	254.575
219.0000	253.794
220.0000	255.505
221.0000	255.525
222.0000	253.491
223.0000	252.706
224.0000	254.275
225.0000	258.789
226.0000	257.057
227.0000	253.081
228.0000	253.43
229.0000	255.156
230.0000	259.548
231.0000	261.584
232.0000	259.219
233.0000	258.357
234.0000	258.315
235.0000	257.599
236.0000	260.475
237.0000	262.288
238.0000	262.289
239.0000	264.536
240.0000	263.438
241.0000	260.696
242.0000	259.55
243.0000	260.054
244.0000	262.622
245.0000	265.586
246.0000	266.107
247.0000	263.905
248.0000	262.577
249.0000	263.736
250.0000	264.321
251.0000	266.389
252.0000	266.137
253.0000	262.057
254.0000	264.272
255.0000	268.095
256.0000	267.55
257.0000	267.758
258.0000	267.794
259.0000	268.629
260.0000	270.401
261.0000	272.487
262.0000	270.447
263.0000	269.102
264.0000	268.285
265.0000	268.228
266.0000	274.729
267.0000	271.483
268.0000	270.002
269.0000	272.893
270.0000	272.438
271.0000	273.355
272.0000	274.324
273.0000	274.932
274.0000	275.574
275.0000	275.065
276.0000	274.22
277.0000	274.764
278.0000	271.495
279.0000	269.829
280.0000	272.281
281.0000	275.016
282.0000	274.81
283.0000	274.911
284.0000	275.532
285.0000	276.323
286.0000	279.157
287.0000	277.654
288.0000	276.173
289.0000	278.458
290.0000	279.081
291.0000	278.418
292.0000	279.652
293.0000	281.231
294.0000	279.226
295.0000	278.955
296.0000	282.207
297.0000	281.314
298.0000	277.946
299.0000	278.524
300.0000	280.016
301.0000	282.95
302.0000	286.105
303.0000	283.823
304.0000	281.25
305.0000	281.851
306.0000	283.9
307.0000	282.093
308.0000	279.803
309.0000	282.36
310.0000	286.222
311.0000	286.204
312.0000	285.607
313.0000	284.556
314.0000	285.535
315.0000	287.875
316.0000	288.059
317.0000	288.404
318.0000	286.107
319.0000	285.544
320.0000	286.643
321.0000	289.979
322.0000	289.795
323.0000	286.484
324.0000	288.868
325.0000	289.233
326.0000	288.736
327.0000	289.603
328.0000	291.219
329.0000	290.653
330.0000	290.869
331.0000	293.453
332.0000	292.21
333.0000	290.031
334.0000	291.443
335.0000	292.691
336.0000	291.83
337.0000	291.469
338.0000	292.272
339.0000	294.615
340.0000	291.693
341.0000	289.648
342.0000	290.587
343.0000	288.308
344.0000	291.061
345.0000	294.437
346.0000	293.307
347.0000	293.206
348.0000	295.923
349.0000	296.27
350.0000	296.404
351.0000	297.07
352.0000	295.834
353.0000	297.789
354.0000	299.273
355.0000	297.446
356.0000	294.268
357.0000	296.8
358.0000	300.47
359.0000	298.937
360.0000	298.189
361.0000	298.413
362.0000	299.019
363.0000	300.241
364.0000	299.922
365.0000	298.255
366.0000	298.985
367.0000	299.793
368.0000	300.739
369.0000	302.27
370.0000	301.534
371.0000	302.898
372.0000	301.089
373.0000	300.57
374.0000	304.823
375.0000	306.073
376.0000	304.614
377.0000	304.555
378.0000	304.991
379.0000	306.111
380.0000	305.557
381.0000	300.995
382.0000	302.107
383.0000	302.843
384.0000	304.319
385.0000	307.072
386.0000	307.789
387.0000	306.428
388.0000	305.436
389.0000	308.552
390.0000	308.033
391.0000	306.104
392.0000	307.554
393.0000	310.652
394.0000	311.909
395.0000	313.207
396.0000	311.095
397.0000	307.657
398.0000	307.366
399.0000	306.772
400.0000	308.55
401.0000	306.883
402.0000	306.087
403.0000	306.332
404.0000	308.848
405.0000	313.351
406.0000	311.493
407.0000	311.609
408.0000	311.032
409.0000	309.929
410.0000	310.973
411.0000	311.459
412.0000	312.164
413.0000	314.748
414.0000	317.979
415.0000	319.436
416.0000	316.786
417.0000	312.832
418.0000	312.412
419.0000	315.746
420.0000	318.143
421.0000	313.542
422.0000	313.069
423.0000	317.433
424.0000	313.811
425.0000	313.047
426.0000	315.549
427.0000	316.11
428.0000	314.924
429.0000	315.974
430.0000	317.957
431.0000	317.266
432.0000	318.512
433.0000	318.284
434.0000	318.292
435.0000	318.903
436.0000	319.31
437.0000	319.683
438.0000	315.498
439.0000	317.149
440.0000	320.313
441.0000	321.135
442.0000	323.957
443.0000	323.619
444.0000	324.327
445.0000	323.247
446.0000	321.251
447.0000	321.475
448.0000	322.3
449.0000	322.53
450.0000	323.433
451.0000	320.849
452.0000	322.964
453.0000	326.419
454.0000	323.788
455.0000	326.746
456.0000	326.268
457.0000	322.074
458.0000	325.68
459.0000	327.819
460.0000	327.54
461.0000	329.589
462.0000	325.542
463.0000	321.826
464.0000	325.334
465.0000	330.21
466.0000	328.716
467.0000	325.141
468.0000	327.271
469.0000	327.555
470.0000	326.637
471.0000	325.168
472.0000	328.524
473.0000	330.413
474.0000	327.847
475.0000	327.738
476.0000	329.566
477.0000	331.889
478.0000	331.904
479.0000	331.514
480.0000	329.066
481.0000	327.896
482.0000	329.69
483.0000	331.716
484.0000	335.47
485.0000	336.029
486.0000	333.98
487.0000	331.237
488.0000	329.761
489.0000	333.833
490.0000	336.351
491.0000	333.487
492.0000	331.117
493.0000	331.802
494.0000	336.5
495.0000	336.817
496.0000	331.257
497.0000	334.016
498.0000	336.473
499.0000	336.25
500.0000	335.446
501.0000	334.919
502.0000	336.101
503.0000	336.095
504.0000	334.688
505.0000	335.897
506.0000	334.946
507.0000	335.586
508.0000	338.401
509.0000	339.663
510.0000	340.572
511.0000	337.638
512.0000	338.018
513.0000	340.627
514.0000	339.657
515.0000	336.774
516.0000	337.809
517.0000	337.715
518.0000	338.183
519.0000	343.744
520.0000	344.731
521.0000	341.685
522.0000	340.596
523.0000	339.966
524.0000	340.983
525.0000	340.041
526.0000	340.08
527.0000	343.35
528.0000	343.003
529.0000	343.44
530.0000	342.102
531.0000	339.471
532.0000	342.852
533.0000	343.218
534.0000	341.992
535.0000	341.868
536.0000	341.049
537.0000	341.407
538.0000	341.935
539.0000	342.513
540.0000	343.413
541.0000	344.351
542.0000	343.565
543.0000	343.86
544.0000	347.868
545.0000	348.437
546.0000	345.281
547.0000	345.938
548.0000	351.031
549.0000	353.545
550.0000	347.057
551.0000	342.755
552.0000	342.707
553.0000	347.046
554.0000	353.437
555.0000	350.4
556.0000	345.289
557.0000	345.58
558.0000	348.856
559.0000	347.935
560.0000	346.755
561.0000	347.554
562.0000	348.445
563.0000	347.444
564.0000	346.81
565.0000	349.896
566.0000	350.282
567.0000	347.929
568.0000	347.835
569.0000	347.823
570.0000	349.399
571.0000	352.436
572.0000	354.206
573.0000	355.702
574.0000	352.458
575.0000	351.962
576.0000	352.952
577.0000	352.05
578.0000	350.59
579.0000	348.689
580.0000	354.541
581.0000	357.796
582.0000	352.781
583.0000	351.027
584.0000	351.406
585.0000	350.48
586.0000	350.625
587.0000	352.528
588.0000	354.886
589.0000	356.562
590.0000	356.812
591.0000	356.833
592.0000	354.224
593.0000	352.347
594.0000	355.926
595.0000	357.156
596.0000	356.099
597.0000	356.193
598.0000	356.907
599.0000	357.955
600.0000	358.148
601.0000	358.841
602.0000	358.875
603.0000	356.595
604.0000	356.088
605.0000	357.776
606.0000	358.99
607.0000	361.205
608.0000	361.138
609.0000	359
610.0000	356.645
611.0000	358.006
612.0000	359.371
613.0000	359.761
614.0000	359.044
615.0000	357.106
616.0000	357.803
617.0000	357.572
618.0000	358.189
619.0000	359.889
620.0000	361.299
621.0000	359.701
622.0000	358.695
623.0000	361.743
624.0000	363.687
625.0000	361.172
626.0000	357.484
627.0000	359.489
628.0000	363.163
629.0000	363.382
630.0000	365.35
631.0000	364.63
632.0000	361.222
633.0000	364.978
634.0000	368.483
635.0000	363.318
636.0000	361.707
637.0000	364.974
638.0000	367.836
639.0000	366.948
640.0000	363.943
641.0000	364.717
642.0000	365.857
643.0000	364.319
644.0000	364.82
645.0000	366.082
646.0000	365.49
647.0000	364.647
648.0000	362.19
649.0000	365.653
650.0000	367.736
651.0000	368.837
652.0000	368.608
653.0000	367.03
654.0000	367.098
655.0000	366.705
656.0000	368.031
657.0000	370.335
658.0000	371.209
659.0000	368.294
660.0000	369.228
661.0000	369.662
662.0000	366.568
663.0000	368.01
664.0000	372.508
665.0000	371.519
666.0000	366.393
667.0000	364.33
668.0000	366.112
669.0000	368.611
670.0000	370.998
671.0000	369.265
672.0000	370.434
673.0000	369.946
674.0000	368.258
675.0000	370.857
676.0000	369.279
677.0000	369.242
678.0000	371.08
679.0000	374.524
680.0000	375.186
681.0000	372.848
682.0000	373.263
683.0000	373.642
684.0000	371.775
685.0000	371.141
686.0000	372.326
687.0000	373.435
688.0000	373.428
689.0000	373.841
690.0000	373.99
691.0000	370.403
692.0000	369.867
693.0000	371.578
694.0000	374.148
695.0000	373.453
696.0000	371.561
697.0000	371.914
698.0000	373.405
699.0000	372.388
700.0000	371.24
701.0000	373.748
702.0000	373.506
703.0000	372.644
704.0000	373.882
705.0000	373.318
706.0000	372.557
707.0000	376.085
708.0000	377.489
709.0000	377.705
710.0000	375.889
711.0000	373.512
712.0000	373.977
713.0000	374.497
714.0000	376.027
715.0000	378.256
716.0000	379.917
717.0000	379.571
718.0000	379.993
719.0000	377.415
720.0000	374.654
721.0000	377.095
722.0000	379.642
723.0000	379.922
724.0000	378.964
725.0000	380.817
726.0000	378.405
727.0000	376.745
728.0000	376.303
729.0000	376.572
730.0000	378.95
731.0000	380.136
732.0000	379.637
733.0000	379.47
734.0000	382.169
735.0000	380.464
736.0000	377.39
737.0000	378.558
738.0000	380.395
739.0000	379.694
740.0000	381.473
741.0000	382.673
742.0000	381.279
743.0000	379.429
744.0000	379.853
745.0000	381.684
746.0000	382.028
747.0000	385.687
748.0000	384.438
749.0000	377.327
750.0000	378.036
751.0000	382.99
752.0000	385.971
753.0000	382.658
754.0000	383.146
755.0000	385.294
756.0000	384.983
757.0000	385.803
758.0000	383.678
759.0000	382.559
760.0000	382.421
761.0000	382.411
762.0000	383.985
763.0000	386.183
764.0000	383.542
765.0000	382.118
766.0000	384.201
767.0000	386.303
768.0000	388.257
769.0000	385.731
770.0000	385.912
771.0000	387.573
772.0000	385.611
773.0000	386.422
774.0000	384.794
775.0000	383.27
776.0000	386.196
777.0000	387.425
778.0000	386.626
779.0000	386.061
780.0000	387.417
781.0000	390.392
782.0000	390.369
783.0000	387.034
784.0000	386.335
785.0000	385.885
786.0000	383.237
787.0000	384.518
788.0000	386.554
789.0000	388.355
790.0000	387.971
791.0000	384.257
792.0000	383.203
793.0000	385.609
794.0000	386.995
795.0000	385.373
796.0000	387.623
797.0000	389.008
798.0000	389.754
799.0000	393.983
800.0000	391.936
801.0000	386.846
802.0000	385.258
803.0000	387.533
804.0000	388.562
805.0000	389.616
806.0000	392.175
807.0000	392.523
808.0000	391.941
809.0000	390.992
810.0000	388.541
811.0000	389.014
812.0000	391.971
813.0000	391.173
814.0000	389.084
815.0000	391.592
816.0000	396.548
817.0000	394.541
818.0000	393.259
819.0000	395.458
820.0000	393.02
821.0000	391.985
822.0000	393.599
823.0000	393.66
824.0000	392.63
825.0000	393.66
826.0000	395.232
827.0000	392.538
828.0000	388.21
829.0000	389.895
830.0000	392.688
831.0000	393.288
832.0000	396.067
833.0000	395.634
834.0000	392.795
835.0000	391.934
836.0000	394.025
837.0000	394.633
838.0000	392.818
839.0000	394.2
840.0000	396.018
841.0000	394.161
842.0000	396.416
843.0000	399.23
844.0000	398.174
845.0000	397.57
846.0000	396.783
847.0000	395.413
848.0000	395.471
849.0000	394.764
850.0000	396.656
851.0000	398.304
852.0000	399.406
853.0000	399.806
854.0000	397.967
855.0000	396.828
856.0000	395.997
857.0000	398.422
858.0000	399.64
859.0000	397.942
860.0000	396.526
861.0000	397.121
862.0000	394.894
863.0000	395.798
864.0000	400.92
865.0000	400.224
866.0000	395.631
867.0000	395.604
868.0000	398.406
869.0000	397.507
870.0000	399.95
871.0000	400.064
872.0000	401.724
873.0000	405.348
874.0000	399.049
875.0000	396.123
876.0000	399.068
877.0000	401.336
878.0000	398.427
879.0000	395.16
880.0000	397.681
881.0000	399.639
882.0000	399.851
883.0000	400.478
884.0000	400.05
885.0000	399.293
886.0000	395.519
887.0000	396.907
888.0000	402.056
889.0000	400.188
890.0000	401.228
891.0000	406.117
892.0000	405.344
893.0000	403.152
894.0000	403.601
895.0000	402.814
896.0000	403.472
897.0000	403.141
898.0000	401.587
899.0000	404.38
900.0000	405.99
901.0000	401.114
902.0000	398.162
903.0000	403.093
904.0000	404.333
905.0000	403.214
906.0000	402.826
907.0000	402.257
908.0000	402.322
909.0000	401.45
910.0000	402.64
911.0000	401.479
912.0000	399.999
913.0000	401.308
914.0000	405.144
915.0000	407.529
916.0000	407.154
917.0000	405.658
918.0000	406.854
919.0000	410.349
920.0000	407.826
921.0000	406.076
922.0000	409.129
923.0000	409.232
924.0000	407.802
925.0000	407.233
926.0000	405.617
927.0000	405.851
928.0000	407.798
929.0000	407.951
930.0000	407.487
931.0000	409.562
932.0000	408.71
933.0000	405.332
934.0000	405.96
935.0000	406.022
936.0000	402.922
937.0000	403.611
938.0000	406.991
939.0000	406.306
940.0000	406.04
941.0000	406.726
942.0000	405.989
943.0000	408.832
944.0000	409.131
945.0000	406.9
946.0000	407.334
947.0000	409.147
948.0000	409.56
949.0000	409.131
950.0000	409.352
951.0000	408.467
952.0000	409.066
953.0000	409.609
954.0000	413.367
955.0000	413.125
956.0000	406.917
957.0000	406.326
958.0000	408.584
959.0000	408.63
960.0000	408.034
961.0000	410.884
962.0000	409.132
963.0000	406.25
964.0000	407.653
965.0000	412.07
966.0000	413.119
967.0000	411.603
968.0000	410.194
969.0000	409.89
970.0000	410.427
971.0000	409.486
972.0000	410.989
973.0000	412.98
974.0000	414.703
975.0000	413.403
976.0000	411.693
977.0000	410.413
978.0000	412.103
979.0000	413.404
980.0000	414.131
981.0000	414.144
982.0000	410.883
983.0000	408.987
984.0000	411.637
985.0000	413.425
986.0000	413.203
987.0000	413.609
988.0000	412.96
989.0000	410.014
990.0000	410.822
991.0000	413.436
992.0000	413.388
993.0000	416.02
994.0000	416.773
995.0000	414.812
996.0000	413.309
997.0000	415.939
998.0000	414.74
999.0000	412.496
1000.0000	415.754
1001.0000	414.903
1002.0000	414.176
1003.0000	416.291
1004.0000	416.967
1005.0000	415.863
1006.0000	417.42
1007.0000	420.965
1008.0000	419.422
1009.0000	416.177
1010.0000	415.66
1011.0000	417.725
1012.0000	415.911
1013.0000	411.788
1014.0000	414.428
1015.0000	415.801
1016.0000	415.237
1017.0000	417.629
1018.0000	420.454
1019.0000	419.855
1020.0000	415.888
1021.0000	415.617
1022.0000	417.737
1023.0000	420.605
1024.0000	420.405
1025.0000	420.452
1026.0000	420.233
1027.0000	419.062
1028.0000	420.577
1029.0000	417.981
1030.0000	415.911
1031.0000	416.677
1032.0000	420.133
1033.0000	421.277
1034.0000	420.928
1035.0000	421.454
1036.0000	419.16
1037.0000	416.987
1038.0000	416.371
1039.0000	420.348
1040.0000	420.593
1041.0000	417.723
1042.0000	421.377
1043.0000	423.087
1044.0000	422.653
1045.0000	422.587
1046.0000	420.078
1047.0000	417.331
1048.0000	419.508
1049.0000	422.98
1050.0000	419.449
1051.0000	419.003
1052.0000	422.026
1053.0000	421.882
1054.0000	420.11
1055.0000	417.616
1056.0000	420.51
1057.0000	421.258
1058.0000	422.78
1059.0000	425.104
1060.0000	418.76
1061.0000	416.847
1062.0000	421.605
1063.0000	422.889
1064.0000	422.802
1065.0000	423.926
1066.0000	421.574
1067.0000	422.9
1068.0000	423.641
1069.0000	423.986
1070.0000	427.346
1071.0000	426.973
1072.0000	426.568
1073.0000	425.883
1074.0000	422.949
1075.0000	422.112
1076.0000	424.599
1077.0000	422.49
1078.0000	422.62
1079.0000	426.098
1080.0000	424.692
1081.0000	425.198
1082.0000	423.755
1083.0000	423.875
1084.0000	426.526
1085.0000	424.926
1086.0000	424.262
1087.0000	423.947
1088.0000	425.003
1089.0000	424.966
1090.0000	422.503
1091.0000	426.647
1092.0000	429.615
1093.0000	427.84
1094.0000	426.69
1095.0000	425.625
1096.0000	420.948
1097.0000	422.314
1098.0000	427.308
1099.0000	424.788
1100.0000	424.99
1101.0000	429.263
1102.0000	432.18
1103.0000	428.789
1104.0000	426.321
1105.0000	428.499
1106.0000	426.617
1107.0000	424.984
1108.0000	428.993
1109.0000	430.185
1110.0000	431.559
1111.0000	431.434
1112.0000	426.817
1113.0000	426.457
1114.0000	426.776
1115.0000	426.752
1116.0000	430.762
1117.0000	428.439
1118.0000	427.326
1119.0000	429.684
1120.0000	428.824
1121.0000	429.592
1122.0000	432.133
1123.0000	429.54
1124.0000	424.675
1125.0000	428.608
1126.0000	432.408
1127.0000	434.245
1128.0000	435.747
1129.0000	432.148
1130.0000	430.039
1131.0000	428.082
1132.0000	429.957
1133.0000	434.59
1134.0000	432.967
1135.0000	430.437
1136.0000	426.813
1137.0000	427.596
1138.0000	430.284
1139.0000	431.146
1140.0000	432.002
1141.0000	434.547
1142.0000	432.981
1143.0000	433.509
1144.0000	436.587
1145.0000	433.947
1146.0000	433.53
1147.0000	432.777
1148.0000	434.164
1149.0000	433.539
1150.0000	434.25
1151.0000	435.802
1152.0000	434.896
1153.0000	433.605
1154.0000	435.327
1155.0000	432.865
1156.0000	431.134
1157.0000	434.572
1158.0000	431.187
1159.0000	430.623
1160.0000	434.641
1161.0000	435.092
1162.0000	431.775
1163.0000	431.695
1164.0000	432.751
1165.0000	433.094
1166.0000	434.919
1167.0000	437.786
1168.0000	435.778
1169.0000	433.228
1170.0000	433.642
1171.0000	434.482
1172.0000	435.81
1173.0000	438.94
1174.0000	439.221
1175.0000	434.812
1176.0000	438.295
1177.0000	440.006
1178.0000	434.484
1179.0000	432.49
1180.0000	434.771
1181.0000	437.307
1182.0000	436.487
1183.0000	434.107
1184.0000	434.215
1185.0000	437.89
1186.0000	437.692
1187.0000	436.403
1188.0000	438.965
1189.0000	440.545
1190.0000	437.924
1191.0000	436.139
1192.0000	436.51
1193.0000	436.407
1194.0000	438.469
1195.0000	437.893
1196.0000	436.064
1197.0000	436.402
1198.0000	438.258
1199.0000	437.693
1200.0000	436.23
1201.0000	438.904
1202.0000	440.694
1203.0000	438.492
1204.0000	437.614
1205.0000	439.184
1206.0000	438.899
1207.0000	439.613
1208.0000	440.557
1209.0000	437.88
1210.0000	437.156
1211.0000	440.308
1212.0000	439.053
1213.0000	437.016
1214.0000	439.04
1215.0000	439.826
1216.0000	438.942
1217.0000	437.817
1218.0000	437.809
1219.0000	439.501
1220.0000	440.089
1221.0000	440.933
1222.0000	442.273
1223.0000	441.966
1224.0000	442.358
1225.0000	442.015
1226.0000	441.282
1227.0000	439.768
1228.0000	440.73
1229.0000	437.74
1230.0000	437.311
1231.0000	442.998
1232.0000	440.095
1233.0000	441.379
1234.0000	442.979
1235.0000	440.901
1236.0000	441.284
1237.0000	441.122
1238.0000	441.008
1239.0000	440.095
1240.0000	440.07
1241.0000	441.913
1242.0000	443.433
1243.0000	440.8
1244.0000	438.39
1245.0000	437.695
1246.0000	438.092
1247.0000	439.372
1248.0000	443.903
1249.0000	445.862
1250.0000	442.124
1251.0000	440.5
1252.0000	442.576
1253.0000	444.344
1254.0000	443.319
1255.0000	442.704
1256.0000	443.569
1257.0000	442.803
1258.0000	445.336
1259.0000	446.175
1260.0000	444.119
1261.0000	445.799
1262.0000	443.112
1263.0000	442.142
1264.0000	444.002
1265.0000	443.846
1266.0000	444.492
1267.0000	443.431
1268.0000	443.625
1269.0000	443.59
1270.0000	437.942
1271.0000	437.876
1272.0000	442.136
1273.0000	443.501
1274.0000	442.935
1275.0000	445.404
1276.0000	444.898
1277.0000	444.945
1278.0000	449.349
1279.0000	448.269
1280.0000	446.465
1281.0000	446.807
1282.0000	448.648
1283.0000	447.268
1284.0000	445.668
1285.0000	446.953
1286.0000	447.5
1287.0000	445.749
1288.0000	445.364
1289.0000	447.134
1290.0000	447.43
1291.0000	446.677
1292.0000	446.18
1293.0000	444.042
1294.0000	446.211
1295.0000	448.599
1296.0000	443.776
1297.0000	443.585
1298.0000	447.703
1299.0000	449.199
1300.0000	448.303
1301.0000	448.396
1302.0000	449.658
1303.0000	450.637
1304.0000	452.633
1305.0000	448.536
1306.0000	444.454
1307.0000	447.179
1308.0000	445.246
1309.0000	446.076
1310.0000	448.336
1311.0000	445.661
1312.0000	448.352
1313.0000	451.495
1314.0000	452.363
1315.0000	453.282
1316.0000	449.003
1317.0000	447.068
1318.0000	450.849
1319.0000	453.282
1320.0000	449.691
1321.0000	447.797
1322.0000	450.963
1323.0000	446.824
1324.0000	444.268
1325.0000	448.601
1326.0000	449.029
1327.0000	449.302
1328.0000	451.473
1329.0000	450.922
1330.0000	452.517
1331.0000	454.035
1332.0000	452.995
1333.0000	451.876
1334.0000	448.896
1335.0000	449.555
1336.0000	454.631
1337.0000	457.482
1338.0000	452.967
1339.0000	450.051
1340.0000	449.352
1341.0000	448.988
1342.0000	451.202
1343.0000	450.809
1344.0000	450.945
1345.0000	452.71
1346.0000	452.847
1347.0000	454.02
1348.0000	455.641
1349.0000	452.806
1350.0000	451.995
1351.0000	453.967
1352.0000	453.811
1353.0000	453.978
1354.0000	452.985
1355.0000	451.536
1356.0000	452.113
1357.0000	450.244
1358.0000	452.335
1359.0000	454.06
1360.0000	453.34
1361.0000	454.311
1362.0000	454.021
1363.0000	455.864
1364.0000	454.945
1365.0000	452.325
1366.0000	453.458
1367.0000	455.142
1368.0000	453.893
1369.0000	453.917
1370.0000	455.588
1371.0000	456.032
1372.0000	455.99
1373.0000	451.276
1374.0000	454.416
1375.0000	460.05
1376.0000	457.171
1377.0000	454.306
1378.0000	451.69
1379.0000	450.315
1380.0000	452.249
1381.0000	454.048
1382.0000	453.342
1383.0000	454.16
1384.0000	453.13
1385.0000	452.328
1386.0000	454.346
1387.0000	455.14
1388.0000	456.246
1389.0000	456.294
1390.0000	451.511
1391.0000	454.561
1392.0000	457.048
1393.0000	455.821
1394.0000	457.361
1395.0000	455.65
1396.0000	455.535
1397.0000	456.255
1398.0000	456.702
1399.0000	456.546
1400.0000	458.887
1401.0000	461.449
1402.0000	458.836
1403.0000	454.461
1404.0000	453.865
1405.0000	457.206
1406.0000	460.681
1407.0000	464.897
1408.0000	461.053
1409.0000	456.719
1410.0000	458.858
1411.0000	455.559
1412.0000	456.414
1413.0000	458.852
1414.0000	455.712
1415.0000	453.319
1416.0000	453.606
1417.0000	456.109
1418.0000	454.403
1419.0000	457.62
1420.0000	461.99
1421.0000	458.1
1422.0000	457.351
1423.0000	456.807
1424.0000	458.197
1425.0000	460.775
1426.0000	457.312
1427.0000	456.591
1428.0000	457.726
1429.0000	458.359
1430.0000	460.444
1431.0000	459.668
1432.0000	460.962
1433.0000	464.866
1434.0000	464.386
1435.0000	458.281
1436.0000	453.544
1437.0000	453.45
1438.0000	455.675
1439.0000	459.658
1440.0000	461.71
1441.0000	461.376
1442.0000	461.674
1443.0000	460.314
1444.0000	461.074
1445.0000	460.245
1446.0000	454.648
1447.0000	456.605
1448.0000	457.57
1449.0000	456.832
1450.0000	459.258
1451.0000	460.315
1452.0000	459.342
1453.0000	461.126
1454.0000	464.967
1455.0000	462.495
1456.0000	457.442
1457.0000	454.557
1458.0000	457.944
1459.0000	460.373
1460.0000	460.292
1461.0000	462.703
1462.0000	464.518
1463.0000	462.041
1464.0000	459.878
1465.0000	463.024
1466.0000	460.934
1467.0000	458.562
1468.0000	460.963
1469.0000	459.198
1470.0000	455.086
1471.0000	453.997
1472.0000	455.51
1473.0000	455.209
1474.0000	456.615
1475.0000	459.206
1476.0000	460.731
1477.0000	464.507
1478.0000	463.871
1479.0000	459.498
1480.0000	460.165
1481.0000	459.473
1482.0000	460.958
1483.0000	462.262
1484.0000	465
1485.0000	467.277
1486.0000	463.497
1487.0000	461.667
1488.0000	460.031
1489.0000	458.067
1490.0000	459.26
1491.0000	462.481
1492.0000	461.564
1493.0000	461.082
1494.0000	462.64
1495.0000	458.706
1496.0000	456.979
1497.0000	461.658
1498.0000	464.47
1499.0000	462.97
1500.0000	461.57
1501.0000	464.634
1502.0000	465.47
1503.0000	464.324
1504.0000	463.794
1505.0000	463.999
1506.0000	466.056
1507.0000	464.835
1508.0000	460.09
1509.0000	459.786
1510.0000	462.176
1511.0000	464.676
1512.0000	463.417
1513.0000	463.711
1514.0000	464.227
1515.0000	462.559
1516.0000	464.365
1517.0000	462.355
1518.0000	464.43
1519.0000	468.477
1520.0000	464.346
1521.0000	462.6
1522.0000	465.14
1523.0000	461.23
1524.0000	461.37
1525.0000	463.762
1526.0000	463.548
1527.0000	466.22
1528.0000	466.301
1529.0000	463.997
1530.0000	462.621
1531.0000	462.297
1532.0000	462.508
1533.0000	465.092
1534.0000	465.112
1535.0000	463.923
1536.0000	463.229
1537.0000	465.068
1538.0000	465.729
1539.0000	465.604
1540.0000	467.268
1541.0000	464.359
1542.0000	464.008
1543.0000	469.877
1544.0000	470.678
1545.0000	469.524
1546.0000	469.472
1547.0000	464.994
1548.0000	467.207
1549.0000	468.927
1550.0000	468.15
1551.0000	465.14
1552.0000	461.52
1553.0000	464.801
1554.0000	465.013
1555.0000	464.49
1556.0000	466.75
1557.0000	466.951
1558.0000	465.913
1559.0000	465.921
1560.0000	467.758
1561.0000	466.254
1562.0000	466.819
1563.0000	470.484
1564.0000	469.513
1565.0000	468.185
1566.0000	464.555
1567.0000	462.009
1568.0000	462.893
1569.0000	464.381
1570.0000	465.838
1571.0000	464.953
1572.0000	466.5
1573.0000	471.369
1574.0000	471.737
1575.0000	470.018
1576.0000	467.429
1577.0000	470.223
1578.0000	471.157
1579.0000	466.997
1580.0000	466.412
1581.0000	466.211
1582.0000	464.784
1583.0000	467.519
1584.0000	467.948
1585.0000	465.665
1586.0000	467.733
1587.0000	467.219
1588.0000	465.768
1589.0000	462.98
1590.0000	465.577
1591.0000	469.658
1592.0000	469.329
1593.0000	467.619
1594.0000	465.046
1595.0000	469.346
1596.0000	470.751
1597.0000	468.002
1598.0000	468.101
1599.0000	468.851
1600.0000	467.022
1601.0000	467.609
1602.0000	468.07
1603.0000	469.184
1604.0000	472.038
1605.0000	469.183
1606.0000	464.691
1607.0000	464.828
1608.0000	468.112
1609.0000	470.682
1610.0000	468.177
1611.0000	467.769
1612.0000	469.353
1613.0000	463.701
1614.0000	464.034
1615.0000	469.061
1616.0000	468.19
1617.0000	467.29
1618.0000	467.823
1619.0000	467.826
1620.0000	467.571
1621.0000	467.636
1622.0000	468.553
1623.0000	469.625
1624.0000	469.281
1625.0000	470.723
1626.0000	470.444
1627.0000	469.482
1628.0000	471.262
1629.0000	467.738
1630.0000	468.898
1631.0000	469.853
1632.0000	467.733
1633.0000	467.573
1634.0000	466.003
1635.0000	466.066
1636.0000	466.957
1637.0000	469.487
1638.0000	470.172
1639.0000	467.699
1640.0000	471.239
1641.0000	470.458
1642.0000	467.867
1643.0000	466.669
1644.0000	467.067
1645.0000	469.116
1646.0000	469.412
1647.0000	468.251
1648.0000	466.656
1649.0000	466.035
1650.0000	468.242
1651.0000	472.8
1652.0000	473.23
1653.0000	471.987
1654.0000	467.733
1655.0000	466.365
1656.0000	467.225
1657.0000	468.847
1658.0000	469.429
1659.0000	463.573
1660.0000	463.196
1661.0000	466.663
1662.0000	465.934
1663.0000	467.807
1664.0000	466.87
1665.0000	465.272
1666.0000	467.978
1667.0000	466.692
1668.0000	465.89
1669.0000	471.268
1670.0000	471.306
1671.0000	466.819
1672.0000	472.608
1673.0000	476.95
1674.0000	473.14
1675.0000	469.61
1676.0000	469.282
1677.0000	468.938
1678.0000	468.302
1679.0000	469.128
1680.0000	471.198
1681.0000	471.12
1682.0000	468.064
1683.0000	471.55
1684.0000	470.857
1685.0000	467.876
1686.0000	470.403
1687.0000	469.791
1688.0000	469.149
1689.0000	471.378
1690.0000	471.856
1691.0000	470.786
1692.0000	469.28
1693.0000	471.178
1694.0000	472.729
1695.0000	472.653
1696.0000	473.808
1697.0000	471.99
1698.0000	469.666
1699.0000	471.969
1700.0000	476.518
1701.0000	473.744
1702.0000	472.075
1703.0000	471.614
1704.0000	470.085
1705.0000	469.974
1706.0000	468.932
1707.0000	470.443
1708.0000	469.95
1709.0000	467.014
1710.0000	465.961
1711.0000	469.396
1712.0000	471.167
1713.0000	472.124
1714.0000	473.84
1715.0000	474.04
1716.0000	477.843
1717.0000	474.192
1718.0000	468.766
1719.0000	471.402
1720.0000	470.47
1721.0000	470.327
1722.0000	472.349
1723.0000	470.34
1724.0000	467.222
1725.0000	467.356
1726.0000	468.767
1727.0000	469.647
1728.0000	470.796
1729.0000	474.098
1730.0000	474.032
1731.0000	469.33
1732.0000	467.874
1733.0000	469.139
1734.0000	468.683
1735.0000	469.147
1736.0000	473.694
1737.0000	472.589
1738.0000	471.164
1739.0000	472.943
1740.0000	473.26
1741.0000	473.23
1742.0000	474.108
1743.0000	474.96
1744.0000	471.509
1745.0000	471.81
1746.0000	474.539
1747.0000	471.867
1748.0000	470.233
1749.0000	473.175
1750.0000	473.07
1751.0000	475.546
1752.0000	474.776
1753.0000	471.813
1754.0000	472.763
1755.0000	470.57
1756.0000	475.911
1757.0000	479.139
1758.0000	475.852
1759.0000	472.145
1760.0000	469.987
1761.0000	472.862
1762.0000	474.482
1763.0000	472.007
1764.0000	471.606
1765.0000	472.999
1766.0000	471.195
1767.0000	466.39
1768.0000	469.53
1769.0000	475.774
1770.0000	477.75
1771.0000	478.152
1772.0000	475.675
1773.0000	474.929
1774.0000	474.569
1775.0000	473.542
1776.0000	473.062
1777.0000	473.23
1778.0000	472.546
1779.0000	469.658
1780.0000	468.18
1781.0000	470.047
1782.0000	474.213
1783.0000	474.523
1784.0000	473.314
1785.0000	475.225
1786.0000	473.274
1787.0000	471.946
1788.0000	475.516
1789.0000	477.446
1790.0000	472.498
1791.0000	473.992
1792.0000	475.006
1793.0000	471.767
1794.0000	474.334
1795.0000	476.381
1796.0000	477.966
1797.0000	477.108
1798.0000	472.935
1799.0000	470.085
1800.0000	473.201
1801.0000	478.126
1802.0000	475.428
1803.0000	473.547
1804.0000	477.188
1805.0000	473.575
1806.0000	471.149
1807.0000	471.2
1808.0000	474.084
1809.0000	478.071
1810.0000	479.472
1811.0000	477.014
1812.0000	474.716
1813.0000	474.866
1814.0000	474.354
1815.0000	473.337
1816.0000	473.363
1817.0000	473.031
1818.0000	473.777
1819.0000	476.612
1820.0000	475.704
1821.0000	478.466
1822.0000	480.403
1823.0000	474.219
1824.0000	469.958
1825.0000	474.196
1826.0000	479.238
1827.0000	476.986
1828.0000	473.449
1829.0000	474.458
1830.0000	473.373
1831.0000	474.036
1832.0000	477.498
1833.0000	477.529
1834.0000	474.518
1835.0000	476.821
1836.0000	479.714
1837.0000	474.622
1838.0000	471.069
1839.0000	475.699
1840.0000	480.194
1841.0000	478.498
1842.0000	472.83
1843.0000	472.846
1844.0000	478.957
1845.0000	478.751
1846.0000	478.324
1847.0000	476.406
1848.0000	473.674
1849.0000	476.206
1850.0000	474.041
1851.0000	474.744
1852.0000	474.604
1853.0000	472.143
1854.0000	472.993
1855.0000	473.864
1856.0000	477.048
1857.0000	476.878
1858.0000	474.534
1859.0000	473.525
1860.0000	475.125
1861.0000	477.065
1862.0000	479.839
1863.0000	478.055
1864.0000	469.877
1865.0000	469.099
1866.0000	473.44
1867.0000	476.638
1868.0000	475.375
1869.0000	470.147
1870.0000	473.719
1871.0000	476.055
1872.0000	476.812
1873.0000	478.413
1874.0000	476.713
1875.0000	478.557
1876.0000	478.906
1877.0000	475.886
1878.0000	475.962
1879.0000	478.536
1880.0000	477.686
1881.0000	475.996
1882.0000	472.316
1883.0000	469.655
1884.0000	473.878
1885.0000	476.001
1886.0000	473.708
1887.0000	474.346
1888.0000	473.903
1889.0000	473.573
1890.0000	474.295
1891.0000	476.174
1892.0000	475.267
1893.0000	477.173
1894.0000	478.66
1895.0000	474.068
1896.0000	473.528
1897.0000	475.939
1898.0000	478.784
1899.0000	480.86
1900.0000	476.55
1901.0000	475.871
1902.0000	477.223
1903.0000	475.572
1904.0000	475.185
1905.0000	476.86
1906.0000	482.987
1907.0000	480.385
1908.0000	477.294
1909.0000	473.53
1910.0000	472.984
1911.0000	479.345
1912.0000	478.831
1913.0000	476.745
1914.0000	477.174
1915.0000	475.187
1916.0000	473.727
1917.0000	474.979
1918.0000	473.289
1919.0000	474.525
1920.0000	478.146
1921.0000	479.086
1922.0000	477.914
1923.0000	477.601
1924.0000	473.196
1925.0000	469.871
1926.0000	473.587
1927.0000	475.824
1928.0000	476.133
1929.0000	474.215
1930.0000	473.312
1931.0000	473.377
1932.0000	472.956
1933.0000	476.431
1934.0000	479.471
1935.0000	477.273
1936.0000	476.161
1937.0000	476.492
1938.0000	478.582
1939.0000	477.844
1940.0000	476.356
1941.0000	477.926
1942.0000	478.747
1943.0000	480.943
1944.0000	477.041
1945.0000	469.808
1946.0000	472.88
1947.0000	475.559
1948.0000	472.112
1949.0000	473.073
1950.0000	476.436
1951.0000	475.865
1952.0000	474.919
1953.0000	476.291
1954.0000	473.605
1955.0000	472.977
1956.0000	479.035
1957.0000	477.222
1958.0000	474.594
1959.0000	477.62
1960.0000	480.165
1961.0000	481.244
1962.0000	477.536
1963.0000	476.495
1964.0000	476.621
1965.0000	476.996
1966.0000	476.356
1967.0000	474.845
1968.0000	475.302
1969.0000	480.909
1970.0000	483.911
1971.0000	481.719
1972.0000	480.674
1973.0000	478.234
1974.0000	473.655
1975.0000	473.915
1976.0000	475.946
1977.0000	476.837
1978.0000	478.736
1979.0000	478.768
1980.0000	481.731
1981.0000	480.585
1982.0000	476.303
1983.0000	473.374
1984.0000	475.235
1985.0000	482.061
1986.0000	481.864
1987.0000	481.886
1988.0000	480.61
1989.0000	478.071
1990.0000	479.92
1991.0000	481.351
1992.0000	481.669
1993.0000	480.302
1994.0000	479.932
1995.0000	482.967
1996.0000	479.707
1997.0000	476.946
1998.0000	479.739
1999.0000	481.099
2000.0000	479.869
2001.0000	477.416
2002.0000	477.155
2003.0000	478.597
2004.0000	480.698
2005.0000	480.987
2006.0000	480.435
2007.0000	476.596
2008.0000	474.181
2009.0000	476.682
2010.0000	478.508
2011.0000	477.873
2012.0000	479.292
2013.0000	480.138
2014.0000	479.912
2015.0000	479.618
2016.0000	479.049
2017.0000	480.028
2018.0000	479.718
2019.0000	479.973
2020.0000	481.804
2021.0000	481.089
2022.0000	481.946
2023.0000	478.048
2024.0000	475.762
2025.0000	479.829
2026.0000	480.407
2027.0000	479.671
2028.0000	476.322
2029.0000	478.408
2030.0000	482.703
2031.0000	483.07
2032.0000	482.671
2033.0000	481.33
2034.0000	480.413
2035.0000	477.821
2036.0000	477.951
2037.0000	476.637
2038.0000	478.091
2039.0000	482.223
2040.0000	479.101
2041.0000	479.803
2042.0000	482.782
2043.0000	482.723
2044.0000	480.708
2045.0000	480.776
2046.0000	481.406
2047.0000	481.674
2048.0000	481.978
2049.0000	478.946
2050.0000	474.85
2051.0000	476.3
2052.0000	481.965
2053.0000	483.191
2054.0000	483.743
2055.0000	482.905
2056.0000	480.935
2057.0000	482.204
2058.0000	479.461
2059.0000	480.55
2060.0000	483.774
2061.0000	482.568
2062.0000	482.765
2063.0000	480.002
2064.0000	480.019
2065.0000	480.465
2066.0000	478.131
2067.0000	479.58
2068.0000	483.292
2069.0000	483.996
2070.0000	483.256
2071.0000	479.793
2072.0000	477.333
2073.0000	478.549
2074.0000	479.205
2075.0000	477.481
2076.0000	477.47
2077.0000	482.9
2078.0000	484.833
2079.0000	482.058
2080.0000	479.513
2081.0000	483.961
2082.0000	488.042
2083.0000	484.255
2084.0000	483.539
2085.0000	480.815
2086.0000	482.824
2087.0000	484.311
2088.0000	478.906
2089.0000	478.482
2090.0000	483.325
2091.0000	486.442
2092.0000	481.717
2093.0000	476.595
2094.0000	477.496
2095.0000	479.424
2096.0000	480.084
2097.0000	480.446
2098.0000	479.515
2099.0000	477.856
2100.0000	477.863
2101.0000	479.886
2102.0000	481.137
2103.0000	483.668
2104.0000	485.549
2105.0000	483.034
2106.0000	480.006
2107.0000	484.687
2108.0000	481.703
2109.0000	477.383
2110.0000	480.213
2111.0000	479.313
2112.0000	480.535
2113.0000	482.564
2114.0000	481.29
2115.0000	477.54
2116.0000	481.705
2117.0000	482.737
2118.0000	480.533
2119.0000	482.657
2120.0000	481.339
2121.0000	481.79
2122.0000	484.649
2123.0000	487.18
2124.0000	483.281
2125.0000	480.535
2126.0000	481.316
2127.0000	482.466
2128.0000	484.213
2129.0000	481.466
2130.0000	479.625
2131.0000	478.247
2132.0000	480.028
2133.0000	484.232
2134.0000	485.466
2135.0000	484.921
2136.0000	482.78
2137.0000	483.355
2138.0000	482.133
2139.0000	480.152
2140.0000	476.397
2141.0000	477.428
2142.0000	482.917
2143.0000	483.119
2144.0000	481.651
2145.0000	482.423
2146.0000	482.441
2147.0000	481.082
2148.0000	481.149
2149.0000	481.016
2150.0000	485.28
2151.0000	485.721
2152.0000	482.338
2153.0000	482.026
2154.0000	483.533
2155.0000	486.055
2156.0000	486.225
2157.0000	484.37
2158.0000	480.293
2159.0000	478.04
2160.0000	479.492
2161.0000	483.736
2162.0000	485.071
2163.0000	483.157
2164.0000	485.171
2165.0000	487.674
2166.0000	483.872
2167.0000	482.926
2168.0000	482.226
2169.0000	481.196
2170.0000	483.632
2171.0000	481.355
2172.0000	480.078
2173.0000	482.555
2174.0000	481.7
2175.0000	479.977
2176.0000	481.47
2177.0000	480.989
2178.0000	482.248
2179.0000	485.493
2180.0000	486.506
2181.0000	486.548
2182.0000	486.852
2183.0000	485.379
2184.0000	485.073
2185.0000	486.211
2186.0000	484.878
2187.0000	481.718
2188.0000	480.733
2189.0000	480.378
2190.0000	482.799
2191.0000	488.909
2192.0000	488.601
2193.0000	486.837
2194.0000	485.072
2195.0000	482.373
2196.0000	480.598
2197.0000	481.871
2198.0000	486.264
2199.0000	489.437
2200.0000	488.056
2201.0000	486.414
2202.0000	487.945
2203.0000	484.458
2204.0000	483.31
2205.0000	483.934
2206.0000	482.823
2207.0000	481.266
2208.0000	482.297
2209.0000	484.597
2210.0000	487.485
2211.0000	488.12
2212.0000	483.56
2213.0000	485.004
2214.0000	486.662
2215.0000	483.605
2216.0000	481.626
2217.0000	483.509
2218.0000	485.361
2219.0000	484.519
2220.0000	484.56
2221.0000	486.362
2222.0000	484.014
2223.0000	484.119
2224.0000	485.318
2225.0000	483.869
2226.0000	484.646
2227.0000	484.243
2228.0000	488.616
2229.0000	488.579
2230.0000	484.837
2231.0000	485.236
2232.0000	485.21
2233.0000	486.186
2234.0000	486.394
2235.0000	485.658
2236.0000	485.652
2237.0000	486.929
2238.0000	488.475
2239.0000	486.972
2240.0000	485.695
2241.0000	488.242
2242.0000	486.661
2243.0000	483.069
2244.0000	483.645
2245.0000	486.461
2246.0000	487.082
2247.0000	486.91
2248.0000	488.125
2249.0000	487.426
2250.0000	485.468
2251.0000	483.028
2252.0000	486.305
2253.0000	486.134
2254.0000	482.553
2255.0000	484.167
2256.0000	486.061
2257.0000	482.78
2258.0000	481.648
2259.0000	484.931
2260.0000	485.136
2261.0000	485.958
2262.0000	485.909
2263.0000	487.083
2264.0000	487.129
2265.0000	484.894
2266.0000	485.774
2267.0000	484.333
2268.0000	483.728
2269.0000	485.914
2270.0000	485.307
2271.0000	484.13
2272.0000	485.114
2273.0000	484.866
2274.0000	488.207
2275.0000	487.549
2276.0000	483.632
2277.0000	484.875
2278.0000	486.627
2279.0000	485.526
2280.0000	482.048
2281.0000	483.376
2282.0000	484.089
2283.0000	486.774
2284.0000	488.669
2285.0000	483.177
2286.0000	484.553
2287.0000	489.717
2288.0000	486.862
2289.0000	489.347
2290.0000	492.318
2291.0000	487.569
2292.0000	483.299
2293.0000	481.093
2294.0000	481.339
2295.0000	482.925
2296.0000	486.395
2297.0000	485.518
2298.0000	481.476
2299.0000	486.252
2300.0000	489.176
2301.0000	487.549
2302.0000	489.347
2303.0000	491.625
2304.0000	488.232
2305.0000	483.843
2306.0000	486.408
2307.0000	488.959
2308.0000	487.167
2309.0000	487.848
2310.0000	490.579
2311.0000	488.286
2312.0000	486.434
2313.0000	488.379
2314.0000	486.249
2315.0000	486.562
2316.0000	489.95
2317.0000	486.727
2318.0000	485.533
2319.0000	487.722
2320.0000	486.114
2321.0000	484.605
2322.0000	487.949
2323.0000	489.892
2324.0000	487.773
2325.0000	487.669
2326.0000	488.003
2327.0000	488.623
2328.0000	485.734
2329.0000	481.89
2330.0000	486.723
2331.0000	487.613
2332.0000	489.365
2333.0000	490.891
2334.0000	489.624
2335.0000	489.265
2336.0000	488.007
2337.0000	488.173
2338.0000	484.55
2339.0000	486.247
2340.0000	489.066
2341.0000	489.887
2342.0000	486.552
2343.0000	485.002
2344.0000	486.817
2345.0000	486.306
2346.0000	488.285
2347.0000	488.583
2348.0000	487.687
2349.0000	485.6
2350.0000	485.62
2351.0000	485.882
2352.0000	487.849
2353.0000	488.033
2354.0000	485.693
2355.0000	488.612
2356.0000	487.677
2357.0000	485.454
2358.0000	484.66
2359.0000	486.777
2360.0000	488.525
2361.0000	484.379
2362.0000	483.519
2363.0000	485.88
2364.0000	488.532
2365.0000	490.621
2366.0000	491.329
2367.0000	488.194
2368.0000	486.55
2369.0000	486.185
2370.0000	487.694
2371.0000	488.547
2372.0000	486.557
2373.0000	490.037
2374.0000	491.01
2375.0000	489.972
2376.0000	489.564
2377.0000	487.5
2378.0000	490.203
2379.0000	488.916
2380.0000	487.693
2381.0000	492.709
2382.0000	493.037
2383.0000	491.328
2384.0000	486.672
2385.0000	485.372
2386.0000	490.086
2387.0000	486.109
2388.0000	484.36
2389.0000	488.486
2390.0000	488.692
2391.0000	487.263
2392.0000	487.479
2393.0000	488.908
2394.0000	487.193
2395.0000	488.277
2396.0000	487.424
2397.0000	483.65
2398.0000	485.983
2399.0000	487.318
2400.0000	487.832
2401.0000	489.816
2402.0000	487.396
2403.0000	483.393
2404.0000	485.942
2405.0000	489.43
2406.0000	487.6
2407.0000	486.241
2408.0000	488.1
2409.0000	489.884
2410.0000	487.143
2411.0000	486.199
2412.0000	488.159
2413.0000	484.995
2414.0000	485.14
2415.0000	488.042
2416.0000	490.391
2417.0000	492.175
2418.0000	491.86
2419.0000	488.209
2420.0000	489.419
2421.0000	492.676
2422.0000	489.313
2423.0000	488.912
2424.0000	487.95
2425.0000	490.918
2426.0000	493.652
2427.0000	489.03
2428.0000	489.021
2429.0000	488.189
2430.0000	488.98
2431.0000	492.759
2432.0000	489.935
2433.0000	489.313
2434.0000	488.908
2435.0000	489.987
2436.0000	494.907
2437.0000	493.179
2438.0000	489.936
2439.0000	489.262
2440.0000	489.044
2441.0000	489.027
2442.0000	489.463
2443.0000	492.3
2444.0000	491.428
2445.0000	487.697
2446.0000	488.139
2447.0000	488.153
2448.0000	488.877
2449.0000	492.042
2450.0000	490.638
2451.0000	488.645
2452.0000	487.592
2453.0000	488.424
2454.0000	486.404
2455.0000	486.271
2456.0000	492.406
2457.0000	495.76
2458.0000	490.731
2459.0000	485.561
2460.0000	487.741
2461.0000	489.328
2462.0000	491.747
2463.0000	492.13
2464.0000	493.872
2465.0000	492.748
2466.0000	489.843
2467.0000	488.788
2468.0000	487.923
2469.0000	491.798
2470.0000	493.121
2471.0000	493.758
2472.0000	492.584
2473.0000	490.957
2474.0000	487.996
2475.0000	486.223
2476.0000	489.213
2477.0000	490.726
2478.0000	491.28
2479.0000	490.221
2480.0000	492.528
2481.0000	491.407
2482.0000	488.464
2483.0000	490.885
2484.0000	491.548
2485.0000	488.897
2486.0000	489.435
2487.0000	491.504
2488.0000	487.582
2489.0000	489.425
2490.0000	493.37
2491.0000	491.692
2492.0000	493.013
2493.0000	497.445
2494.0000	498.26
2495.0000	495.448
2496.0000	492.364
2497.0000	489.075
2498.0000	490.155
2499.0000	494.658
2500.0000	490.731
2501.0000	491.176
2502.0000	492.713
2503.0000	491.132
2504.0000	493.625
2505.0000	492.282
2506.0000	493.542
2507.0000	492.099
2508.0000	491.554
2509.0000	492.684
2510.0000	491.748
2511.0000	494.436
2512.0000	495.107
2513.0000	491.271
2514.0000	488.324
2515.0000	489.981
2516.0000	490.345
2517.0000	488.923
2518.0000	490.69
2519.0000	490.197
2520.0000	489.174
2521.0000	489.277
2522.0000	488.913
2523.0000	492.033
2524.0000	494.57
2525.0000	494.349
2526.0000	493.175
2527.0000	493.757
2528.0000	494.908
2529.0000	491.634
2530.0000	488.964
2531.0000	489.771
2532.0000	489.341
2533.0000	489.144
2534.0000	489.88
2535.0000	491.073
2536.0000	491.055
2537.0000	492.135
2538.0000	494.482
2539.0000	495.699
2540.0000	495.675
2541.0000	493.184
2542.0000	490.035
2543.0000	489.829
2544.0000	491.789
2545.0000	492.238
2546.0000	495.932
2547.0000	495.405
2548.0000	491.945
2549.0000	494.53
2550.0000	496.146
2551.0000	493.913
2552.0000	492.831
2553.0000	490.68
2554.0000	487.088
2555.0000	486.102
2556.0000	492.642
2557.0000	500.779
2558.0000	500.838
2559.0000	498.405
2560.0000	493.835
2561.0000	492.003
2562.0000	492.866
2563.0000	490.316
2564.0000	490.284
2565.0000	492.537
2566.0000	494.24
2567.0000	494.412
2568.0000	492.564
2569.0000	492.442
2570.0000	495.611
2571.0000	499.657
2572.0000	495.612
2573.0000	491.451
2574.0000	494.243
2575.0000	497.236
2576.0000	496.374
2577.0000	495.635
2578.0000	494.934
2579.0000	495.062
2580.0000	496.287
2581.0000	494.381
2582.0000	490.85
2583.0000	490.062
2584.0000	490.627
2585.0000	490.685
2586.0000	490.84
2587.0000	490.915
2588.0000	492.035
2589.0000	495.245
2590.0000	495.801
2591.0000	492.906
2592.0000	494.317
2593.0000	494.87
2594.0000	497.138
2595.0000	499.201
2596.0000	495.654
2597.0000	493.059
2598.0000	496.691
2599.0000	496.929
2600.0000	494.154
2601.0000	496.37
2602.0000	496.219
2603.0000	496.237
2604.0000	496.25
2605.0000	491.733
2606.0000	488.239
2607.0000	489.77
2608.0000	492.064
2609.0000	491.665
2610.0000	494.532
2611.0000	497.83
2612.0000	496.838
2613.0000	493.208
2614.0000	489.026
2615.0000	491.969
2616.0000	497.637
2617.0000	493.821
2618.0000	488.033
2619.0000	487.508
2620.0000	491.906
2621.0000	499.09
2622.0000	498.799
2623.0000	489.596
2624.0000	489.995
2625.0000	494.392
2626.0000	495.91
2627.0000	495.423
2628.0000	495.59
2629.0000	497.392
2630.0000	492.501
2631.0000	491.004
2632.0000	491.729
2633.0000	492.06
2634.0000	493.771
2635.0000	496.027
2636.0000	494.832
2637.0000	493.858
2638.0000	492.194
2639.0000	495.402
2640.0000	497.315
2641.0000	497.747
2642.0000	497.009
2643.0000	494.046
2644.0000	494.339
2645.0000	491.209
2646.0000	492.59
2647.0000	495.221
2648.0000	497.447
2649.0000	497.162
2650.0000	495.037
2651.0000	491.771
2652.0000	489.519
2653.0000	491.963
2654.0000	494.696
2655.0000	498.469
2656.0000	499.436
2657.0000	501.9
2658.0000	500.929
2659.0000	493.149
2660.0000	491.172
2661.0000	493.069
2662.0000	494.237
2663.0000	496.358
2664.0000	495.723
2665.0000	490.685
2666.0000	488.831
2667.0000	491.691
2668.0000	493.713
2669.0000	490.013
2670.0000	488.551
2671.0000	490.986
2672.0000	492.755
2673.0000	493.563
2674.0000	491.487
2675.0000	489.187
2676.0000	494.152
2677.0000	495.073
2678.0000	489.963
2679.0000	495.926
2680.0000	501.785
2681.0000	498.758
2682.0000	494.684
2683.0000	494.26
2684.0000	494.255
2685.0000	492.994
2686.0000	492.37
2687.0000	492.595
2688.0000	492.099
2689.0000	490.17
2690.0000	491.266
2691.0000	492.016
2692.0000	492.226
2693.0000	496.545
2694.0000	499.322
2695.0000	495.019
2696.0000	492.136
2697.0000	493.339
2698.0000	490.511
2699.0000	489.515
2700.0000	489.042
2701.0000	492.539
2702.0000	494.023
2703.0000	488.413
2704.0000	490.929
2705.0000	495.786
2706.0000	496.751
2707.0000	497.493
2708.0000	500.059
2709.0000	501.073
2710.0000	497.746
2711.0000	495.553
2712.0000	495.559
2713.0000	494.743
2714.0000	495.923
2715.0000	497.541
2716.0000	494.199
2717.0000	497.559
2718.0000	499.141
2719.0000	495.221
2720.0000	498.178
2721.0000	496.903
2722.0000	492.942
2723.0000	496.685
2724.0000	497.665
2725.0000	491.05
2726.0000	489.777
2727.0000	494.56
2728.0000	496.972
2729.0000	493.854
2730.0000	494.855
2731.0000	496.303
2732.0000	494.017
2733.0000	495.38
2734.0000	495.074
2735.0000	492.365
2736.0000	494.959
2737.0000	496.062
2738.0000	497.613
2739.0000	499.279
2740.0000	494.495
2741.0000	494.643
2742.0000	497.13
2743.0000	496.136
2744.0000	495.919
2745.0000	495.838
2746.0000	496.244
2747.0000	494.893
2748.0000	495.677
2749.0000	498.391
2750.0000	492.181
2751.0000	489.848
2752.0000	491.334
2753.0000	491.51
2754.0000	497.956
2755.0000	497.048
2756.0000	493.806
2757.0000	493.941
2758.0000	493.961
2759.0000	495.029
2760.0000	494.931
2761.0000	494.64
2762.0000	496.998
2763.0000	498.597
2764.0000	495.956
2765.0000	495.273
2766.0000	495.996
2767.0000	496.171
2768.0000	494.726
2769.0000	495.674
2770.0000	496.69
2771.0000	494.927
2772.0000	496.165
2773.0000	494.896
2774.0000	494.864
2775.0000	497.36
2776.0000	494.218
2777.0000	494.756
2778.0000	497.01
2779.0000	495.636
2780.0000	493.722
2781.0000	495.922
2782.0000	496.918
2783.0000	496.841
2784.0000	498.613
2785.0000	493.027
2786.0000	488.448
2787.0000	493.906
2788.0000	496.17
2789.0000	494.213
2790.0000	493.556
2791.0000	497.347
2792.0000	503.659
2793.0000	501.854
2794.0000	497.742
2795.0000	501.123
2796.0000	501.415
2797.0000	497.406
2798.0000	497.69
2799.0000	496.103
2800.0000	499.18
2801.0000	500.881
2802.0000	500.058
2803.0000	496.18
2804.0000	491.998
2805.0000	492.023
2806.0000	491.816
2807.0000	494.104
2808.0000	492.135
2809.0000	493.335
2810.0000	499.012
2811.0000	500.134
2812.0000	501.474
2813.0000	502.078
2814.0000	495.669
2815.0000	493.967
2816.0000	497.559
2817.0000	496.542
2818.0000	495.708
2819.0000	497.221
2820.0000	496.805
2821.0000	494.9
2822.0000	496.361
2823.0000	497.704
2824.0000	496.938
2825.0000	499.326
2826.0000	499.421
2827.0000	494.338
2828.0000	491.401
2829.0000	494.53
2830.0000	498.866
2831.0000	495.173
2832.0000	496.075
2833.0000	498.087
2834.0000	497.281
2835.0000	496.362
2836.0000	491.272
2837.0000	492.412
2838.0000	492.688
2839.0000	494.592
2840.0000	496.679
2841.0000	493.461
2842.0000	494.697
2843.0000	496.052
2844.0000	499.661
2845.0000	500.426
2846.0000	499.764
2847.0000	503.99
2848.0000	501.866
2849.0000	498.45
2850.0000	496.957
2851.0000	495.637
2852.0000	494.14
2853.0000	493.098
2854.0000	492.775
2855.0000	493.586
2856.0000	498.516
2857.0000	500.487
2858.0000	496.154
2859.0000	497.046
2860.0000	498.022
2861.0000	494.143
2862.0000	496.296
2863.0000	497.303
2864.0000	492.558
2865.0000	496.146
2866.0000	496.834
2867.0000	492.647
2868.0000	496.88
2869.0000	499.586
2870.0000	499.142
2871.0000	498.974
2872.0000	499.701
2873.0000	502.322
2874.0000	501.349
2875.0000	497.12
2876.0000	495.785
2877.0000	496.478
2878.0000	497.428
2879.0000	498.817
2880.0000	498.339
2881.0000	499.082
2882.0000	497.702
2883.0000	495.549
2884.0000	498.378
2885.0000	498.707
2886.0000	496.748
2887.0000	498.236
2888.0000	498.641
2889.0000	495.643
2890.0000	497.526
2891.0000	501.86
2892.0000	501.687
2893.0000	499.488
2894.0000	497.315
2895.0000	495.173
2896.0000	495.385
2897.0000	493.929
2898.0000	499.635
2899.0000	500.014
2900.0000	491.126
2901.0000	493.48
2902.0000	494.643
2903.0000	495.956
2904.0000	496.642
2905.0000	495.915
2906.0000	496.968
2907.0000	497.09
2908.0000	498.032
2909.0000	498.121
2910.0000	495.855
2911.0000	495.426
2912.0000	502.585
2913.0000	501.912
2914.0000	496.971
2915.0000	495.06
2916.0000	494.08
2917.0000	499.788
2918.0000	500.718
2919.0000	497.38
2920.0000	495.376
2921.0000	496.891
2922.0000	498.422
2923.0000	495.858
2924.0000	500.099
2925.0000	503.697
2926.0000	501.459
2927.0000	499.082
2928.0000	500.125
2929.0000	502.948
2930.0000	501.173
2931.0000	498.242
2932.0000	498.117
2933.0000	497.159
2934.0000	495.44
2935.0000	497.881
2936.0000	497.396
2937.0000	497.468
2938.0000	496.736
2939.0000	493.344
2940.0000	498.634
2941.0000	499.109
2942.0000	496.939
2943.0000	498.579
2944.0000	495.824
2945.0000	496.97
2946.0000	499.333
2947.0000	496.234
2948.0000	501.142
2949.0000	502.338
2950.0000	497.952
2951.0000	498.72
2952.0000	498.619
2953.0000	496.662
2954.0000	499.474
2955.0000	498.211
2956.0000	494.038
2957.0000	499.928
2958.0000	501.21
2959.0000	497.669
2960.0000	493.794
2961.0000	492.912
2962.0000	495.541
2963.0000	494.61
2964.0000	496.275
2965.0000	496.252
2966.0000	498.284
2967.0000	500.453
2968.0000	498.238
2969.0000	499.056
2970.0000	498.424
2971.0000	498.188
2972.0000	497.094
2973.0000	497.957
2974.0000	498.393
2975.0000	493.427
2976.0000	493.422
2977.0000	496.516
2978.0000	497.869
2979.0000	497.517
2980.0000	498.621
2981.0000	500.597
2982.0000	499.202
2983.0000	497.011
2984.0000	500.157
2985.0000	501.046
2986.0000	498.493
2987.0000	500.29
2988.0000	497.577
2989.0000	496.35
2990.0000	499.63
2991.0000	498.78
2992.0000	497.522
2993.0000	496.475
2994.0000	495.526
2995.0000	498.983
2996.0000	500.89
2997.0000	498.881
2998.0000	497.982
2999.0000	501.179
3000.0000	500.529
3001.0000	497.051
3002.0000	498.478
3003.0000	497.668
3004.0000	497.74
3005.0000	496.026
3006.0000	497.946
3007.0000	499.2
3008.0000	496.96
3009.0000	498.719
3010.0000	499.625
3011.0000	499.467
3012.0000	500.393
3013.0000	502.284
3014.0000	499.478
3015.0000	496.056
3016.0000	496.63
3017.0000	497.06
3018.0000	499.378
3019.0000	504.951
3020.0000	498.352
3021.0000	496.707
3022.0000	498.46
3023.0000	496.176
3024.0000	498.704
3025.0000	499.796
3026.0000	501.69
3027.0000	503.596
3028.0000	501.532
3029.0000	497.551
3030.0000	500.436
3031.0000	501.219
3032.0000	497.973
3033.0000	496.023
3034.0000	499.241
3035.0000	499.673
3036.0000	498.131
3037.0000	499.552
3038.0000	496.455
3039.0000	496.698
3040.0000	501.087
3041.0000	500.686
3042.0000	497.302
3043.0000	500.72
3044.0000	503.404
3045.0000	498.831
3046.0000	499.575
3047.0000	501.074
3048.0000	497.877
3049.0000	498.591
3050.0000	502.72
3051.0000	503.681
3052.0000	501.131
3053.0000	499.704
3054.0000	499.2
3055.0000	498.785
3056.0000	496.744
3057.0000	497.399
3058.0000	499.056
3059.0000	493.363
3060.0000	493.149
3061.0000	500.022
3062.0000	500.321
3063.0000	498.536
3064.0000	496.719
3065.0000	498.734
3066.0000	503.039
3067.0000	503.564
3068.0000	499.804
3069.0000	496.647
3070.0000	497.136
3071.0000	497.04
3072.0000	499.226
3073.0000	501.828
3074.0000	502.871
3075.0000	499.976
3076.0000	495.906
3077.0000	498.54
3078.0000	498.762
3079.0000	498.233
3080.0000	502.963
3081.0000	504.111
3082.0000	499.325
3083.0000	498.789
3084.0000	496.641
3085.0000	490.741
3086.0000	495.762
3087.0000	503.678
3088.0000	502.779
3089.0000	500.514
3090.0000	499.61
3091.0000	497.432
3092.0000	495.879
3093.0000	499.166
3094.0000	498.659
3095.0000	491.013
3096.0000	493.813
3097.0000	496.533
3098.0000	495.856
3099.0000	499.69
3100.0000	499.9
3101.0000	500.115
3102.0000	501.124
3103.0000	499.094
3104.0000	500.7
3105.0000	502.832
3106.0000	502.021
3107.0000	500.907
3108.0000	498.612
3109.0000	499.52
3110.0000	500.82
3111.0000	498.192
3112.0000	499.071
3113.0000	498.926
3114.0000	497.804
3115.0000	500.097
3116.0000	497.206
3117.0000	498.815
3118.0000	499.995
3119.0000	496.836
3120.0000	496.126
3121.0000	494.329
3122.0000	496.192
3123.0000	498.817
3124.0000	496
3125.0000	494.33
3126.0000	500.153
3127.0000	502.11
3128.0000	499.094
3129.0000	496.336
3130.0000	494.489
3131.0000	495.239
3132.0000	497.219
3133.0000	501.524
3134.0000	497.535
3135.0000	494.508
3136.0000	500.761
3137.0000	502.8
3138.0000	497.892
3139.0000	496.777
3140.0000	499.775
3141.0000	498.341
3142.0000	501.503
3143.0000	504.425
3144.0000	500.24
3145.0000	500.68
3146.0000	500.672
3147.0000	497.111
3148.0000	496.67
3149.0000	499.562
3150.0000	500.771
3151.0000	500.126
3152.0000	501.63
3153.0000	502.125
3154.0000	500.184
3155.0000	497.013
3156.0000	498.282
3157.0000	499.209
3158.0000	495.241
3159.0000	495.564
3160.0000	494.71
3161.0000	494.773
3162.0000	499.425
3163.0000	500.664
3164.0000	500.985
3165.0000	500.546
3166.0000	502.629
3167.0000	503.595
3168.0000	500.653
3169.0000	497.757
3170.0000	496.625
3171.0000	499.611
3172.0000	502.64
3173.0000	501.569
3174.0000	497.857
3175.0000	494.268
3176.0000	495.27
3177.0000	497.344
3178.0000	496.015
3179.0000	494.415
3180.0000	497.709
3181.0000	502.075
3182.0000	503.211
3183.0000	498.212
3184.0000	499.437
3185.0000	503.002
3186.0000	500.151
3187.0000	496.356
3188.0000	494.791
3189.0000	498.441
3190.0000	494.339
3191.0000	493.413
3192.0000	499.026
3193.0000	499.915
3194.0000	497.389
3195.0000	495.91
3196.0000	494.994
3197.0000	496.486
3198.0000	499.913
3199.0000	499.76
3200.0000	498.029
3201.0000	500.883
3202.0000	499.806
3203.0000	497.618
3204.0000	499.111
3205.0000	500.617
3206.0000	501.519
3207.0000	500.051
3208.0000	500.665
3209.0000	499.832
3210.0000	499.524
3211.0000	496.253
3212.0000	494.968
3213.0000	497.417
3214.0000	500.57
3215.0000	501.983
3216.0000	499.645
3217.0000	499.43
3218.0000	500.133
3219.0000	497.874
3220.0000	497.211
3221.0000	500.947
3222.0000	498.065
3223.0000	496.397
3224.0000	501.562
3225.0000	501.09
3226.0000	499.023
3227.0000	496.835
3228.0000	495.213
3229.0000	496.365
3230.0000	497.702
3231.0000	502.45
3232.0000	502.599
3233.0000	498.152
3234.0000	498.264
3235.0000	499.056
3236.0000	500.962
3237.0000	500.813
3238.0000	498.483
3239.0000	500.294
3240.0000	501.004
3241.0000	502.113
3242.0000	501
3243.0000	499.356
3244.0000	503.32
3245.0000	499.319
3246.0000	497.02
3247.0000	501.769
3248.0000	498.799
3249.0000	500.335
3250.0000	502.281
3251.0000	499.424
3252.0000	495.108
3253.0000	492.761
3254.0000	499.87
3255.0000	499.939
3256.0000	496.612
3257.0000	498.902
3258.0000	498.709
3259.0000	500.516
3260.0000	501.653
3261.0000	501.163
3262.0000	499.087
3263.0000	497.508
3264.0000	497.511
3265.0000	498.391
3266.0000	498.822
3267.0000	501.982
3268.0000	504.988
3269.0000	502.306
3270.0000	498.42
3271.0000	499.503
3272.0000	501.645
3273.0000	498.412
3274.0000	497.632
3275.0000	497.459
3276.0000	497.899
3277.0000	500.023
3278.0000	499.184
3279.0000	496.729
3280.0000	499.908
3281.0000	503.537
3282.0000	501.516
3283.0000	496.949
3284.0000	497.222
3285.0000	498.167
3286.0000	497.142
3287.0000	498.806
3288.0000	500.931
3289.0000	496.544
3290.0000	495.019
3291.0000	497.317
3292.0000	499.894
3293.0000	501.224
3294.0000	498.881
3295.0000	499.154
3296.0000	498.308
3297.0000	496.979
3298.0000	494.253
3299.0000	496.345
3300.0000	498.316
3301.0000	496.269
3302.0000	497.794
3303.0000	499.013
3304.0000	498.839
3305.0000	499.93
3306.0000	500.899
3307.0000	500.827
3308.0000	501.699
3309.0000	500.004
3310.0000	497.356
3311.0000	499.702
3312.0000	503.115
3313.0000	504.083
3314.0000	499.275
3315.0000	498.89
3316.0000	500.418
3317.0000	496.766
3318.0000	500.138
3319.0000	499.036
3320.0000	496.904
3321.0000	502.228
3322.0000	502.035
3323.0000	499.417
3324.0000	497.215
3325.0000	498.869
3326.0000	499.312
3327.0000	499.756
3328.0000	501.547
3329.0000	497.351
3330.0000	499.692
3331.0000	502.78
3332.0000	498.41
3333.0000	498.676
3334.0000	504.77
3335.0000	502.782
3336.0000	498.425
3337.0000	498.489
3338.0000	498.704
3339.0000	500.454
3340.0000	501.745
3341.0000	501.115
3342.0000	498.362
3343.0000	496.307
3344.0000	498.62
3345.0000	504.305
3346.0000	501.554
3347.0000	497.404
3348.0000	500.602
3349.0000	502.012
3350.0000	499.606
3351.0000	498.603
3352.0000	499.839
3353.0000	501.133
3354.0000	500.785
3355.0000	498.726
3356.0000	502.716
3357.0000	504.292
3358.0000	504.297
3359.0000	504.658
3360.0000	498.997
3361.0000	493.965
3362.0000	494.843
3363.0000	499.806
3364.0000	502.749
3365.0000	503.708
3366.0000	503.342
3367.0000	499.898
3368.0000	499.426
3369.0000	500.542
3370.0000	497.608
3371.0000	497.12
3372.0000	499.705
3373.0000	502.734
3374.0000	499.893
3375.0000	496.215
3376.0000	494.301
3377.0000	496.608
3378.0000	497.882
3379.0000	499.235
3380.0000	502.656
3381.0000	500.811
3382.0000	500.18
3383.0000	501.827
3384.0000	500.654
3385.0000	495.611
3386.0000	496.857
3387.0000	499.802
3388.0000	500.691
3389.0000	499.246
3390.0000	498.649
3391.0000	499.287
3392.0000	496.68
3393.0000	495.958
3394.0000	496.08
3395.0000	500.297
3396.0000	501.465
3397.0000	496.59
3398.0000	497.058
3399.0000	496.022
3400.0000	493.542
3401.0000	498.861
3402.0000	502.627
3403.0000	500.815
3404.0000	503.344
3405.0000	504.531
3406.0000	502.31
3407.0000	499.067
3408.0000	494.254
3409.0000	491.965
3410.0000	497.99
3411.0000	503.085
3412.0000	503.032
3413.0000	503.037
3414.0000	500.952
3415.0000	496.45
3416.0000	495.23
3417.0000	499.647
3418.0000	502.038
3419.0000	500.262
3420.0000	497.688
3421.0000	501.125
3422.0000	499.676
3423.0000	496.734
3424.0000	497.711
3425.0000	498.824
3426.0000	500.571
3427.0000	501.489
3428.0000	497.841
3429.0000	495.931
3430.0000	498.207
3431.0000	501.983
3432.0000	501.997
3433.0000	495.988
3434.0000	495.834
3435.0000	496.155
3436.0000	500.631
3437.0000	504.008
3438.0000	504.594
3439.0000	504.826
3440.0000	500.229
3441.0000	497.278
3442.0000	498.677
3443.0000	497.317
3444.0000	495.7
3445.0000	499.945
3446.0000	499.229
3447.0000	499.17
3448.0000	502.027
3449.0000	500.483
3450.0000	498.122
3451.0000	497.779
3452.0000	501.491
3453.0000	499.088
3454.0000	495.47
3455.0000	499.184
3456.0000	503.291
3457.0000	502.403
3458.0000	498.592
3459.0000	501.658
3460.0000	501.093
3461.0000	498.491
3462.0000	499.913
3463.0000	501.788
3464.0000	502.859
3465.0000	496.527
3466.0000	492.897
3467.0000	496.18
3468.0000	501.736
3469.0000	503.149
3470.0000	500.354
3471.0000	499.56
3472.0000	500.752
3473.0000	500.131
3474.0000	498.91
3475.0000	498.422
3476.0000	498.795
3477.0000	500.713
3478.0000	499.777
3479.0000	500.763
3480.0000	502.231
3481.0000	498.683
3482.0000	500.913
3483.0000	502.029
3484.0000	502.599
3485.0000	501.416
3486.0000	496.161
3487.0000	497.597
3488.0000	497.366
3489.0000	498.103
3490.0000	498.306
3491.0000	494.099
3492.0000	495.11
3493.0000	497.668
3494.0000	499.99
3495.0000	498.236
3496.0000	498.058
3497.0000	502.639
3498.0000	498.337
3499.0000	494.124
3500.0000	498.949
3501.0000	498.273
3502.0000	492.394
3503.0000	492.899
3504.0000	493.69
3505.0000	500.479
3506.0000	502.119
3507.0000	495.594
3508.0000	500.694
3509.0000	501.885
3510.0000	497.24
3511.0000	498.74
3512.0000	498.892
3513.0000	500.368
3514.0000	500.346
3515.0000	500.298
3516.0000	501.98
3517.0000	502.751
3518.0000	502.052
3519.0000	500.603
3520.0000	501.14
3521.0000	500.217
3522.0000	502.101
3523.0000	501.038
3524.0000	498.336
3525.0000	495.858
3526.0000	497.671
3527.0000	501.872
3528.0000	500.188
3529.0000	500.198
3530.0000	501.202
3531.0000	500.622
3532.0000	498.023
3533.0000	502.537
3534.0000	502.648
3535.0000	496.863
3536.0000	494.029
3537.0000	495.247
3538.0000	496.915
3539.0000	496.21
3540.0000	498.793
3541.0000	499.933
3542.0000	498.931
3543.0000	500.448
3544.0000	502.646
3545.0000	506.89
3546.0000	508.019
3547.0000	506.256
3548.0000	499.48
3549.0000	495.034
3550.0000	499.989
3551.0000	498.017
3552.0000	495.888
3553.0000	495.252
3554.0000	497.005
3555.0000	500.385
3556.0000	498.451
3557.0000	497.618
3558.0000	495.035
3559.0000	495.604
3560.0000	500.143
3561.0000	499.56
3562.0000	498.256
3563.0000	499.58
3564.0000	501.787
3565.0000	503.186
3566.0000	498.333
3567.0000	496.741
3568.0000	499.99
3569.0000	499.033
3570.0000	499.465
3571.0000	499.461
3572.0000	499.759
3573.0000	502.087
3574.0000	499.569
3575.0000	495.098
3576.0000	496.059
3577.0000	498.608
3578.0000	502.135
3579.0000	501.384
3580.0000	500.203
3581.0000	498.697
3582.0000	496.666
3583.0000	497.346
3584.0000	496.357
3585.0000	497.3
3586.0000	496.971
3587.0000	496.472
3588.0000	499.884
3589.0000	500.73
3590.0000	499.743
3591.0000	499.825
3592.0000	501.024
3593.0000	498.365
3594.0000	496.866
3595.0000	497.434
3596.0000	497.665
3597.0000	497.639
3598.0000	495.766
3599.0000	497.293
3600.0000	498.006
3601.0000	497.803
3602.0000	497.798
3603.0000	500.781
3604.0000	504.58
3605.0000	501.64
3606.0000	500.937
3607.0000	499.741
3608.0000	496.692
3609.0000	498.293
3610.0000	499.517
3611.0000	501.187
3612.0000	500.103
3613.0000	496.764
3614.0000	495.368
3615.0000	496.127
3616.0000	500.068
3617.0000	500.163
3618.0000	499.396
3619.0000	497.022
3620.0000	496.471
3621.0000	499.057
3622.0000	495.827
3623.0000	496.29
3624.0000	494.576
3625.0000	493.002
3626.0000	500.194
3627.0000	500.274
3628.0000	499.555
3629.0000	503.199
3630.0000	499.864
3631.0000	497.737
3632.0000	495.39
3633.0000	492.933
3634.0000	497.974
3635.0000	505.32
3636.0000	504.704
3637.0000	499.401
3638.0000	498.745
3639.0000	500.388
3640.0000	498.625
3641.0000	497.174
3642.0000	497.111
3643.0000	496.725
3644.0000	498.288
3645.0000	498.818
3646.0000	502.479
3647.0000	502.219
3648.0000	498.145
3649.0000	499.859
3650.0000	499.481
3651.0000	496.686
3652.0000	499.517
3653.0000	500.412
3654.0000	499.254
3655.0000	501.368
3656.0000	503.076
3657.0000	503.569
3658.0000	501.136
3659.0000	493.861
3660.0000	495.159
3661.0000	499.982
3662.0000	499.272
3663.0000	501.064
3664.0000	499.457
3665.0000	502.477
3666.0000	502.204
3667.0000	494.943
3668.0000	498.217
3669.0000	500.862
3670.0000	498.233
3671.0000	497.047
3672.0000	497.699
3673.0000	499.853
3674.0000	499.598
3675.0000	499.144
3676.0000	501.333
3677.0000	501.226
3678.0000	499.374
3679.0000	500.261
3680.0000	500.167
3681.0000	498.293
3682.0000	498.298
3683.0000	497.641
3684.0000	497.683
3685.0000	500.398
3686.0000	499.485
3687.0000	498.166
3688.0000	500.426
3689.0000	501.848
3690.0000	499.886
3691.0000	495.846
3692.0000	495.02
3693.0000	497.012
3694.0000	499.416
3695.0000	497.901
3696.0000	496.404
3697.0000	496.567
3698.0000	496.703
3699.0000	502.135
3700.0000	502.835
3701.0000	499.677
3702.0000	498.405
3703.0000	497.765
3704.0000	500.501
3705.0000	503.527
3706.0000	502.255
3707.0000	501.836
3708.0000	501.795
3709.0000	498.65
3710.0000	496.619
3711.0000	496.08
3712.0000	500.862
3713.0000	504.911
3714.0000	501.782
3715.0000	502.053
3716.0000	501.87
3717.0000	498.902
3718.0000	497.869
3719.0000	496.851
3720.0000	497.351
3721.0000	497.032
3722.0000	499.132
3723.0000	498.006
3724.0000	492.887
3725.0000	497.942
3726.0000	499.095
3727.0000	497.914
3728.0000	502.08
3729.0000	497.928
3730.0000	497.767
3731.0000	502.764
3732.0000	499.991
3733.0000	499.218
3734.0000	501.82
3735.0000	501.405
3736.0000	500.674
3737.0000	497.793
3738.0000	499.703
3739.0000	506.075
3740.0000	502.002
3741.0000	496.306
3742.0000	498.416
3743.0000	501.864
3744.0000	501.375
3745.0000	499.303
3746.0000	498.228
3747.0000	495.659
3748.0000	496.383
3749.0000	496.212
3750.0000	494.532
3751.0000	500.316
3752.0000	502.341
3753.0000	499.34
3754.0000	500.118
3755.0000	499.426
3756.0000	497.172
3757.0000	497.595
3758.0000	498.182
3759.0000	499.607
3760.0000	503.81
3761.0000	501.22
3762.0000	496.314
3763.0000	499.028
3764.0000	501.745
3765.0000	500.146
3766.0000	500.471
3767.0000	500.533
3768.0000	500.667
3769.0000	501.669
3770.0000	498.824
3771.0000	495.964
3772.0000	498.557
3773.0000	498.793
3774.0000	496.184
3775.0000	499.491
3776.0000	500.417
3777.0000	502.515
3778.0000	498.233
3779.0000	494.292
3780.0000	501.579
3781.0000	501.637
3782.0000	500.872
3783.0000	500.693
3784.0000	497.15
3785.0000	494.467
3786.0000	493.3
3787.0000	497.918
3788.0000	499.565
3789.0000	501.488
3790.0000	502.481
3791.0000	501.656
3792.0000	500.602
3793.0000	495.839
3794.0000	500.507
3795.0000	502.922
3796.0000	501.943
3797.0000	500.998
3798.0000	502.33
3799.0000	502.152
3800.0000	497.426
3801.0000	494.929
3802.0000	495.481
3803.0000	498.981
3804.0000	497.464
3805.0000	499.061
3806.0000	504.035
3807.0000	503.091
3808.0000	500.139
3809.0000	500.109
3810.0000	500.606
3811.0000	499.658
3812.0000	499.849
3813.0000	500.811
3814.0000	502.665
3815.0000	502.674
3816.0000	503.249
3817.0000	503.366
3818.0000	499.227
3819.0000	499.051
3820.0000	499.744
3821.0000	500.785
3822.0000	500.832
3823.0000	500.706
3824.0000	499.254
3825.0000	498.338
3826.0000	502.951
3827.0000	501.535
3828.0000	499.181
3829.0000	503.981
3830.0000	503.665
3831.0000	503.492
3832.0000	502.075
3833.0000	495.992
3834.0000	496.321
3835.0000	500.537
3836.0000	500.749
3837.0000	498.529
3838.0000	498.879
3839.0000	500.35
3840.0000	501.528
3841.0000	500.872
3842.0000	498.536
3843.0000	495.756
3844.0000	496.339
3845.0000	499.626
3846.0000	500.34
3847.0000	500.192
3848.0000	501.306
3849.0000	506.016
3850.0000	500.081
3851.0000	497.548
3852.0000	502.551
3853.0000	498.772
3854.0000	498.132
3855.0000	498.526
3856.0000	499.525
3857.0000	501.536
3858.0000	501.401
3859.0000	499.93
3860.0000	498.235
3861.0000	498.892
3862.0000	501.674
3863.0000	501.307
3864.0000	502.131
3865.0000	502.497
3866.0000	502.948
3867.0000	502.792
3868.0000	498.683
3869.0000	495.051
3870.0000	499.047
3871.0000	501.851
3872.0000	501.853
3873.0000	502.087
3874.0000	503.775
3875.0000	502.426
3876.0000	495.667
3877.0000	498.356
3878.0000	501.113
3879.0000	500.894
3880.0000	502.451
3881.0000	503.928
3882.0000	499.54
3883.0000	494.411
3884.0000	494.452
3885.0000	496.02
3886.0000	496.75
3887.0000	498.962
3888.0000	500.094
3889.0000	497.587
3890.0000	499.432
3891.0000	499.293
3892.0000	496.297
3893.0000	499.782
3894.0000	500.99
3895.0000	501.884
3896.0000	502.195
3897.0000	497.654
3898.0000	496.193
3899.0000	495.867
3900.0000	496.536
3901.0000	500.067
3902.0000	497.09
3903.0000	493
3904.0000	498.955
3905.0000	502.598
3906.0000	499.681
3907.0000	501.279
3908.0000	504.375
3909.0000	500.389
3910.0000	499.911
3911.0000	501.916
3912.0000	500.031
3913.0000	498.379
3914.0000	499.887
3915.0000	500.243
3916.0000	499.148
3917.0000	503.981
3918.0000	504.402
3919.0000	497.402
3920.0000	496.444
3921.0000	498.829
3922.0000	498.599
3923.0000	499.596
3924.0000	503.315
3925.0000	500.322
3926.0000	495.353
3927.0000	494.463
3928.0000	496.431
3929.0000	498.932
3930.0000	500.792
3931.0000	500.543
3932.0000	496.197
3933.0000	498.821
3934.0000	500.138
3935.0000	501.236
3936.0000	500.38
3937.0000	497.804
3938.0000	500.327
3939.0000	498.978
3940.0000	501.147
3941.0000	501.514
3942.0000	499.535
3943.0000	501.622
3944.0000	501.704
3945.0000	501.216
3946.0000	499.258
3947.0000	500.731
3948.0000	504.205
3949.0000	501.061
3950.0000	500.023
3951.0000	498.861
3952.0000	494.35
3953.0000	494.04
3954.0000	500.506
3955.0000	505.766
3956.0000	504.114
3957.0000	499.825
3958.0000	495.619
3959.0000	498.235
3960.0000	501.076
3961.0000	502.341
3962.0000	504.439
3963.0000	503.765
3964.0000	500.19
3965.0000	499.5
3966.0000	503.6
3967.0000	501.481
3968.0000	501.506
3969.0000	500.667
3970.0000	499.981
3971.0000	501.563
3972.0000	499.859
3973.0000	500.522
3974.0000	498.32
3975.0000	497.023
3976.0000	498.237
3977.0000	504.465
3978.0000	508.053
3979.0000	501.897
3980.0000	499.472
3981.0000	500.188
3982.0000	496.815
3983.0000	497.641
3984.0000	501.845
3985.0000	500.882
3986.0000	501.029
3987.0000	501.927
3988.0000	498.531
3989.0000	490.954
3990.0000	493.705
3991.0000	502.259
3992.0000	501.056
3993.0000	496.634
3994.0000	495.258
3995.0000	499.039
3996.0000	497.847
3997.0000	497.649
3998.0000	500.597
3999.0000	497.536
4000.0000	495.188
4001.0000	500.899
4002.0000	504.035
4003.0000	499.514
4004.0000	496.595
4005.0000	498.439
4006.0000	495.461
4007.0000	497.404
4008.0000	503.651
4009.0000	501.602
4010.0000	500.953
4011.0000	502.171
4012.0000	502.069
4013.0000	502.948
4014.0000	502.349
4015.0000	501.466
4016.0000	502.131
4017.0000	501.405
4018.0000	503.635
4019.0000	503.5
4020.0000	501.443
4021.0000	500.876
4022.0000	500.247
4023.0000	501.27
4024.0000	501.487
4025.0000	501.133
4026.0000	496.034
4027.0000	496.793
4028.0000	500.56
4029.0000	499.746
4030.0000	500.002
4031.0000	501.857
4032.0000	500.591
4033.0000	495.474
4034.0000	499.048
4035.0000	503.369
4036.0000	504.03
4037.0000	504.842
4038.0000	503.49
4039.0000	504.643
4040.0000	502.432
4041.0000	498.838
4042.0000	497.448
4043.0000	498.307
4044.0000	498.91
4045.0000	498.259
4046.0000	501.578
4047.0000	501.689
4048.0000	499.436
4049.0000	495.532
4050.0000	500.568
4051.0000	504.459
4052.0000	498.152
4053.0000	497.317
4054.0000	501.464
4055.0000	501.157
4056.0000	499.212
4057.0000	498.384
4058.0000	496.145
4059.0000	499.322
4060.0000	503.136
4061.0000	500.169
4062.0000	499.022
4063.0000	498.122
4064.0000	501.896
4065.0000	504.059
4066.0000	503.7
4067.0000	504.992
4068.0000	501.113
4069.0000	499.884
4070.0000	500.772
4071.0000	500.906
4072.0000	500.738
4073.0000	502.609
4074.0000	505.007
4075.0000	501.787
4076.0000	498.249
4077.0000	500.528
4078.0000	501.175
4079.0000	500.819
4080.0000	501.993
4081.0000	500.782
4082.0000	498.161
4083.0000	496.874
4084.0000	498.933
4085.0000	500.588
4086.0000	497.785
4087.0000	498.641
4088.0000	499.084
4089.0000	497.534
4090.0000	500.884
4091.0000	501.218
4092.0000	502.028
4093.0000	501.934
4094.0000	500.169
4095.0000	499.747
4096.0000	502.006
4097.0000	506.003
4098.0000	504.556
4099.0000	496.486
4100.0000	495.763
4101.0000	501.176
4102.0000	502.26
4103.0000	502.691
4104.0000	499.463
4105.0000	499.368
4106.0000	502.597
4107.0000	500.801
4108.0000	499.128
4109.0000	499.463
4110.0000	496.44
4111.0000	494.846
4112.0000	501.528
4113.0000	503.798
4114.0000	505.399
4115.0000	502.584
4116.0000	497.743
4117.0000	497.597
4118.0000	497.427
4119.0000	499.928
4120.0000	501.927
4121.0000	502.524
4122.0000	503.737
4123.0000	502.001
4124.0000	494.325
4125.0000	496.921
4126.0000	500.242
4127.0000	497.761
4128.0000	495.884
4129.0000	497.299
4130.0000	498.51
4131.0000	495.71
4132.0000	497.429
4133.0000	498.782
4134.0000	499.937
4135.0000	499.878
4136.0000	499.664
4137.0000	502.02
4138.0000	501.973
4139.0000	503.356
4140.0000	503.489
4141.0000	501.465
4142.0000	498.697
4143.0000	502.098
4144.0000	505.702
4145.0000	502.205
4146.0000	499.922
4147.0000	497.909
4148.0000	496.822
4149.0000	498.855
4150.0000	503.791
4151.0000	504.526
4152.0000	502.592
4153.0000	501.625
4154.0000	499.457
4155.0000	498.803
4156.0000	498.905
4157.0000	498.623
4158.0000	495.643
4159.0000	493.594
4160.0000	498.849
4161.0000	501.969
4162.0000	501.851
4163.0000	501.794
4164.0000	500.624
4165.0000	499.708
4166.0000	500.498
4167.0000	499.671
4168.0000	496.063
4169.0000	495.841
4170.0000	498.342
4171.0000	497.624
4172.0000	498.038
4173.0000	501.418
4174.0000	502.758
4175.0000	501.518
4176.0000	502.438
4177.0000	501.896
4178.0000	497.119
4179.0000	496.302
4180.0000	498.154
4181.0000	500.498
4182.0000	498.709
4183.0000	501.15
4184.0000	501.631
4185.0000	497.572
4186.0000	495.405
4187.0000	498.085
4188.0000	503.819
4189.0000	504.164
4190.0000	500.601
4191.0000	497.48
4192.0000	499.991
4193.0000	503.722
4194.0000	501.16
4195.0000	497.39
4196.0000	500.038
4197.0000	502.874
4198.0000	506.643
4199.0000	504.784
4200.0000	499.819
4201.0000	500.495
4202.0000	499.434
4203.0000	496.224
4204.0000	494.117
4205.0000	497.973
4206.0000	500.302
4207.0000	501.894
4208.0000	500.761
4209.0000	498.496
4210.0000	497.274
4211.0000	495.637
4212.0000	498.775
4213.0000	499.714
4214.0000	501.986
4215.0000	503.141
4216.0000	503.226
4217.0000	500.909
4218.0000	501.038
4219.0000	504.217
4220.0000	504.476
4221.0000	506.617
4222.0000	499.39
4223.0000	496.774
4224.0000	497.267
4225.0000	496.852
4226.0000	503.584
4227.0000	506.295
4228.0000	504.915
4229.0000	501.806
4230.0000	498.728
4231.0000	497.822
4232.0000	499.159
4233.0000	496.988
4234.0000	496.488
4235.0000	496.562
4236.0000	494.944
4237.0000	493.236
4238.0000	495.089
4239.0000	497.897
4240.0000	497.963
4241.0000	499.85
4242.0000	499.728
4243.0000	498.197
4244.0000	497.342
4245.0000	499.061
4246.0000	501.652
4247.0000	501.343
4248.0000	499.18
4249.0000	500.248
4250.0000	500.952
4251.0000	503.085
4252.0000	503.811
4253.0000	501.539
4254.0000	499.959
4255.0000	499.364
4256.0000	499.5
4257.0000	500.628
4258.0000	502.948
4259.0000	502.257
4260.0000	499.491
4261.0000	497.047
4262.0000	496.616
4263.0000	498.457
4264.0000	499.635
4265.0000	499.637
4266.0000	500.949
4267.0000	499
4268.0000	497.753
4269.0000	496.733
4270.0000	497.769
4271.0000	499.533
4272.0000	497.391
4273.0000	500.091
4274.0000	497.431
4275.0000	495.971
4276.0000	503.545
4277.0000	502.492
4278.0000	501.443
4279.0000	501.759
4280.0000	502.129
4281.0000	502.796
4282.0000	498.866
4283.0000	494.982
4284.0000	496.703
4285.0000	499.597
4286.0000	500.991
4287.0000	500.993
4288.0000	500.551
4289.0000	502.581
4290.0000	502.462
4291.0000	499.78
4292.0000	504.2
4293.0000	505.194
4294.0000	499.503
4295.0000	497.594
4296.0000	497.482
4297.0000	501.196
4298.0000	503.943
4299.0000	502.872
4300.0000	501.85
4301.0000	501.124
4302.0000	496.637
4303.0000	496.917
4304.0000	502.628
4305.0000	502.164
4306.0000	498.097
4307.0000	497.564
4308.0000	502.714
4309.0000	503.032
4310.0000	498.375
4311.0000	497.797
4312.0000	498.568
4313.0000	499.896
4314.0000	501.928
4315.0000	504.144
4316.0000	503.422
4317.0000	502.185
4318.0000	498.993
4319.0000	497.025
4320.0000	496.357
4321.0000	498.068
4322.0000	499.761
4323.0000	498.279
4324.0000	499.142
4325.0000	499.335
4326.0000	500.311
4327.0000	499.421
4328.0000	500.526
4329.0000	501.674
4330.0000	502.069
4331.0000	503.113
4332.0000	501.979
4333.0000	500.824
4334.0000	498.81
4335.0000	499.211
4336.0000	500.041
4337.0000	501.202
4338.0000	501.886
4339.0000	500.216
4340.0000	499.721
4341.0000	502.392
4342.0000	498.315
4343.0000	497.974
4344.0000	500.236
4345.0000	500.731
4346.0000	503.811
4347.0000	500.86
4348.0000	499.613
4349.0000	500.586
4350.0000	499.693
4351.0000	497.277
4352.0000	497.957
4353.0000	498.12
4354.0000	498.941
4355.0000	500.826
4356.0000	497.714
4357.0000	500.62
4358.0000	503.813
4359.0000	497.659
4360.0000	495.435
4361.0000	498.03
4362.0000	497.235
4363.0000	499.262
4364.0000	498.748
4365.0000	496.948
4366.0000	499.015
4367.0000	499.227
4368.0000	499.634
4369.0000	498.187
4370.0000	496.599
4371.0000	499.972
4372.0000	501.082
4373.0000	498.334
4374.0000	500.536
4375.0000	503.594
4376.0000	501
4377.0000	499.659
4378.0000	497.828
4379.0000	495.931
4380.0000	495.963
4381.0000	495.256
4382.0000	498.462
4383.0000	498.58
4384.0000	498.878
4385.0000	501.76
4386.0000	500.698
4387.0000	499.912
4388.0000	499.246
4389.0000	497.349
4390.0000	497.986
4391.0000	499.415
4392.0000	502.224
4393.0000	502.742
4394.0000	497.974
4395.0000	497.714
4396.0000	497.366
4397.0000	496.464
4398.0000	502.389
4399.0000	501.992
4400.0000	498.103
4401.0000	497.559
4402.0000	499.806
4403.0000	502.423
4404.0000	498.681
4405.0000	496.975
4406.0000	500.523
4407.0000	502.196
4408.0000	499.785
4409.0000	499.423
4410.0000	499.238
4411.0000	503.636
4412.0000	505.042
4413.0000	499.066
4414.0000	498.785
4415.0000	500.375
4416.0000	501.455
4417.0000	500.11
4418.0000	503.229
4419.0000	504.679
4420.0000	501.103
4421.0000	501.898
4422.0000	503.387
4423.0000	502.747
4424.0000	504.23
4425.0000	502.707
4426.0000	497.629
4427.0000	500.408
4428.0000	503.069
4429.0000	504.505
4430.0000	502.412
4431.0000	498.901
4432.0000	500.103
4433.0000	500.43
4434.0000	500.657
4435.0000	503.394
4436.0000	504.528
4437.0000	504.255
4438.0000	503.597
4439.0000	501.719
4440.0000	502.854
4441.0000	502.651
4442.0000	502.418
4443.0000	501.661
4444.0000	502.15
4445.0000	501.196
4446.0000	500.84
4447.0000	501.03
4448.0000	498.464
4449.0000	498.993
4450.0000	501.564
4451.0000	502.912
4452.0000	499.958
4453.0000	499.954
4454.0000	500.795
4455.0000	497.892
4456.0000	498.353
4457.0000	499.387
4458.0000	500.338
4459.0000	499.218
4460.0000	495.485
4461.0000	498.691
4462.0000	501.073
4463.0000	497.664
4464.0000	494.851
4465.0000	496.307
4466.0000	501.78
4467.0000	498.55
4468.0000	497.287
4469.0000	500.377
4470.0000	501.044
4471.0000	500.357
4472.0000	498.341
4473.0000	501.553
4474.0000	498.242
4475.0000	497.719
4476.0000	500.948
4477.0000	499.31
4478.0000	499.74
4479.0000	502.593
4480.0000	501.756
4481.0000	496.116
4482.0000	497.415
4483.0000	504.357
4484.0000	504.867
4485.0000	503.487
4486.0000	502.608
4487.0000	499.219
4488.0000	498.466
4489.0000	504.094
4490.0000	504.368
4491.0000	501.138
4492.0000	503.15
4493.0000	500.78
4494.0000	495.454
4495.0000	497.343
4496.0000	499.027
4497.0000	497.644
4498.0000	498.039
4499.0000	500.573
4500.0000	505.413
4501.0000	499.377
4502.0000	495.348
4503.0000	499.439
4504.0000	502.123
4505.0000	502.058
4506.0000	498.583
4507.0000	499.019
4508.0000	500.892
4509.0000	501.301
4510.0000	499.356
4511.0000	498.346
4512.0000	499.782
4513.0000	498.726
4514.0000	497.039
4515.0000	499.19
4516.0000	499.159
4517.0000	498.792
4518.0000	502.38
4519.0000	502.815
4520.0000	503.598
4521.0000	502.528
4522.0000	498.632
4523.0000	501.984
4524.0000	503.233
4525.0000	499.693
4526.0000	503.84
4527.0000	506.095
4528.0000	502.316
4529.0000	502.89
4530.0000	502.85
4531.0000	501.729
4532.0000	503.213
4533.0000	501.571
4534.0000	502.28
4535.0000	500.945
4536.0000	498.936
4537.0000	500.606
4538.0000	498.603
4539.0000	497.501
4540.0000	499.523
4541.0000	501.684
4542.0000	501.863
4543.0000	500.717
4544.0000	502.782
4545.0000	505.496
4546.0000	502.416
4547.0000	503.619
4548.0000	506.74
4549.0000	502.179
4550.0000	498.591
4551.0000	498.748
4552.0000	500.931
4553.0000	503.13
4554.0000	501.716
4555.0000	498.441
4556.0000	500.233
4557.0000	500.213
4558.0000	498.09
4559.0000	498.933
4560.0000	500.93
4561.0000	498.718
4562.0000	496.481
4563.0000	496.95
4564.0000	499.426
4565.0000	506.282
4566.0000	501.726
4567.0000	498.646
4568.0000	501.981
4569.0000	500.165
4570.0000	496.023
4571.0000	495.06
4572.0000	496.558
4573.0000	500.888
4574.0000	502.821
4575.0000	502.522
4576.0000	501.515
4577.0000	495.151
4578.0000	499.166
4579.0000	504.542
4580.0000	500.674
4581.0000	499.004
4582.0000	502.846
4583.0000	502.53
4584.0000	504.049
4585.0000	508.442
4586.0000	500.53
4587.0000	500.924
4588.0000	504.31
4589.0000	500.063
4590.0000	501.276
4591.0000	502.191
4592.0000	499.891
4593.0000	496.954
4594.0000	497.911
4595.0000	498.848
4596.0000	497.912
4597.0000	501.091
4598.0000	501.698
4599.0000	497.093
4600.0000	495.587
4601.0000	499.707
4602.0000	502.876
4603.0000	499.518
4604.0000	497.855
4605.0000	498.665
4606.0000	502.152
4607.0000	502.937
4608.0000	498.305
4609.0000	497.172
4610.0000	496.857
4611.0000	499.848
4612.0000	502.374
4613.0000	500.088
4614.0000	500.708
4615.0000	501.882
4616.0000	499.876
4617.0000	499.648
4618.0000	502.617
4619.0000	499.656
4620.0000	496.162
4621.0000	499.127
4622.0000	500.521
4623.0000	500.661
4624.0000	502.779
4625.0000	502.101
4626.0000	500.395
4627.0000	500.83
4628.0000	501.833
4629.0000	501.988
4630.0000	503.748
4631.0000	502.915
4632.0000	502.779
4633.0000	505.552
4634.0000	505.798
4635.0000	505.431
4636.0000	500.048
4637.0000	501.028
4638.0000	501.323
4639.0000	497.185
4640.0000	500.639
4641.0000	501.158
4642.0000	500.961
4643.0000	506.767
4644.0000	505.126
4645.0000	497.321
4646.0000	494.179
4647.0000	496.945
4648.0000	498.898
4649.0000	501.733
4650.0000	503.487
4651.0000	500.111
4652.0000	498.937
4653.0000	501.751
4654.0000	501.244
4655.0000	498.436
4656.0000	498.144
4657.0000	503.718
4658.0000	504.617
4659.0000	499.891
4660.0000	501.461
4661.0000	499.713
4662.0000	502.307
4663.0000	503.881
4664.0000	498.496
4665.0000	499.31
4666.0000	499.263
4667.0000	500.684
4668.0000	502.571
4669.0000	498.222
4670.0000	497.998
4671.0000	500.398
4672.0000	500.802
4673.0000	500.098
4674.0000	498.843
4675.0000	499.234
4676.0000	499.656
4677.0000	496.76
4678.0000	497.397
4679.0000	496.618
4680.0000	498.093
4681.0000	505.699
4682.0000	502.515
4683.0000	498.671
4684.0000	503.502
4685.0000	503.963
4686.0000	504.001
4687.0000	505.735
4688.0000	503.353
4689.0000	501.32
4690.0000	501.319
4691.0000	501.915
4692.0000	502.469
4693.0000	503.021
4694.0000	503.073
4695.0000	501.36
4696.0000	500.602
4697.0000	500.032
4698.0000	496.738
4699.0000	499.279
4700.0000	499.021
4701.0000	494.791
4702.0000	496.378
4703.0000	499.098
4704.0000	498.937
4705.0000	499.054
4706.0000	501.94
4707.0000	504.932
4708.0000	503.636
4709.0000	499.034
4710.0000	494.291
4711.0000	498.4
4712.0000	505.787
4713.0000	501.098
4714.0000	501.139
4715.0000	502.681
4716.0000	500.913
4717.0000	498.955
4718.0000	500.658
4719.0000	500.194
4720.0000	496.153
4721.0000	500.886
4722.0000	502.336
4723.0000	501.016
4724.0000	500.852
4725.0000	499.251
4726.0000	499.292
4727.0000	500.946
4728.0000	501.41
4729.0000	502.861
4730.0000	501.187
4731.0000	501.108
4732.0000	503.783
4733.0000	504.561
4734.0000	506.634
4735.0000	502.021
4736.0000	498.717
4737.0000	500.747
4738.0000	502.492
4739.0000	499.958
4740.0000	496.511
4741.0000	498.488
4742.0000	498.824
4743.0000	497.239
4744.0000	495.117
4745.0000	496.108
4746.0000	500.441
4747.0000	498.857
4748.0000	497.067
4749.0000	498.943
4750.0000	501.726
4751.0000	502.703
4752.0000	501.613
4753.0000	502.787
4754.0000	501.763
4755.0000	499.073
4756.0000	500.782
4757.0000	498.831
4758.0000	493.887
4759.0000	501.211
4760.0000	507.588
4761.0000	503.102
4762.0000	501.364
4763.0000	503.615
4764.0000	502.262
4765.0000	500.818
4766.0000	501.201
4767.0000	498.487
4768.0000	497.419
4769.0000	502.73
4770.0000	505.31
4771.0000	502.099
4772.0000	501.01
4773.0000	501.362
4774.0000	497.687
4775.0000	497.06
4776.0000	501.358
4777.0000	499.221
4778.0000	496.522
4779.0000	499.561
4780.0000	499.716
4781.0000	496.242
4782.0000	497.798
4783.0000	500.318
4784.0000	499.334
4785.0000	499.14
4786.0000	500.099
4787.0000	501.609
4788.0000	501.344
4789.0000	504.577
4790.0000	501.287
4791.0000	498.243
4792.0000	501.525
4793.0000	502.465
4794.0000	501.587
4795.0000	495.17
4796.0000	494.395
4797.0000	497.968
4798.0000	501.568
4799.0000	501.068
4800.0000	500.639
4801.0000	503.105
4802.0000	501.265
4803.0000	499.625
4804.0000	500.243
4805.0000	501.281
4806.0000	501.307
4807.0000	499.7
4808.0000	497.951
4809.0000	497.966
4810.0000	500.458
4811.0000	500.555
4812.0000	499.793
4813.0000	497.849
4814.0000	497.651
4815.0000	498.999
4816.0000	497.212
4817.0000	497.857
4818.0000	501.371
4819.0000	501.061
4820.0000	499.924
4821.0000	503.463
4822.0000	504.42
4823.0000	499.818
4824.0000	498.507
4825.0000	501.183
4826.0000	502.221
4827.0000	500.743
4828.0000	498.94
4829.0000	502.304
4830.0000	499.167
4831.0000	499.344
4832.0000	502.455
4833.0000	499.823
4834.0000	499.091
4835.0000	500.613
4836.0000	501.815
4837.0000	495.103
4838.0000	495.749
4839.0000	501.403
4840.0000	502.632
4841.0000	501.94
4842.0000	503.832
4843.0000	505.92
4844.0000	504.472
4845.0000	499.866
4846.0000	494.116
4847.0000	496.924
4848.0000	501.048
4849.0000	500.766
4850.0000	499.637
4851.0000	500.643
4852.0000	502.557
4853.0000	502.787
4854.0000	500.119
4855.0000	498.142
4856.0000	497.472
4857.0000	498.367
4858.0000	500.065
4859.0000	501.744
4860.0000	504.666
4861.0000	502.517
4862.0000	501.854
4863.0000	503.807
4864.0000	502.341
4865.0000	503.254
4866.0000	502.457
4867.0000	506.436
4868.0000	508.322
4869.0000	503.801
4870.0000	500.878
4871.0000	500.395
4872.0000	502.959
4873.0000	501.074
4874.0000	502.568
4875.0000	500.4
4876.0000	499.841
4877.0000	502.842
4878.0000	502.284
4879.0000	505.24
4880.0000	503.188
4881.0000	502.466
4882.0000	502.025
4883.0000	501.082
4884.0000	500.233
4885.0000	497.207
4886.0000	500.121
4887.0000	502.744
4888.0000	501.004
4889.0000	498.203
4890.0000	499.039
4891.0000	504.144
4892.0000	508.864
4893.0000	502.998
4894.0000	499.719
4895.0000	500.096
4896.0000	500.449
4897.0000	507.022
4898.0000	503.427
4899.0000	500.213
4900.0000	501.098
4901.0000	502.402
4902.0000	503.334
4903.0000	500.273
4904.0000	502.467
4905.0000	504.117
4906.0000	501.507
4907.0000	494.883
4908.0000	495.927
4909.0000	499.211
4910.0000	499.217
4911.0000	503.359
4912.0000	503.952
4913.0000	501.52
4914.0000	499.469
4915.0000	501.769
4916.0000	502.232
4917.0000	503.706
4918.0000	500.635
4919.0000	496.498
4920.0000	498.174
4921.0000	500.689
4922.0000	500.542
4923.0000	498.969
4924.0000	501.946
4925.0000	501.272
4926.0000	498.507
4927.0000	500.674
4928.0000	500.364
4929.0000	496.826
4930.0000	502.741
4931.0000	500.225
4932.0000	493.422
4933.0000	495.483
4934.0000	498.965
4935.0000	503.362
4936.0000	505.197
4937.0000	503.916
4938.0000	500.649
4939.0000	500.946
4940.0000	501.242
4941.0000	501.431
4942.0000	500.222
4943.0000	498.803
4944.0000	502.685
4945.0000	501.467
4946.0000	499.79
4947.0000	502.973
4948.0000	504.266
4949.0000	500.353
4950.0000	497.719
4951.0000	497.367
4952.0000	497.812
4953.0000	498.825
4954.0000	495.13
4955.0000	498.597
4956.0000	500.857
4957.0000	496.773
4958.0000	498.407
4959.0000	498.718
4960.0000	498.592
4961.0000	498.313
4962.0000	499.452
4963.0000	500.542
4964.0000	497.036
4965.0000	498.619
4966.0000	500.8
4967.0000	498.148
4968.0000	495.736
4969.0000	498.712
4970.0000	500.996
4971.0000	500.25
4972.0000	500.563
4973.0000	499.802
4974.0000	502.345
4975.0000	499.825
4976.0000	500.408
4977.0000	502.739
4978.0000	502.179
4979.0000	503.166
4980.0000	501.188
4981.0000	498.043
4982.0000	495.441
4983.0000	500.593
4984.0000	505.48
4985.0000	501.97
4986.0000	499.29
4987.0000	503.894
4988.0000	508.003
4989.0000	507.153
4990.0000	503.953
4991.0000	503.717
4992.0000	501.427
4993.0000	501.458
4994.0000	502.357
4995.0000	503.653
4996.0000	504.384
4997.0000	500.197
4998.0000	495.629
4999.0000	496.55
5000.0000	503.612
