TITLE	
DATA TYPE	
ORIGIN	JASCO
OWNER	
DATE	22/04/20
TIME	12:02:21
SPECTROMETER/DATA SYSTEM	
RESOLUTION	
DELTAX	0.5
XUNITS	SEC
YUNITS	INTENSITY
FIRSTX	0.0000
LASTX	4065.0000
NPOINTS	8131
FIRSTY	497.20023
MAXY	618.12921
MINY	-119.08036
XYDATA
0.0000	497.2
0.5000	497.124
1.0000	497.064
1.5000	497.071
2.0000	497.005
2.5000	497.114
3.0000	497.162
3.5000	497.249
4.0000	497.27
4.5000	497.298
5.0000	497.386
5.5000	497.358
6.0000	497.408
6.5000	497.455
7.0000	497.487
7.5000	497.444
8.0000	497.409
8.5000	497.459
9.0000	497.519
9.5000	497.702
10.0000	497.831
10.5000	497.941
11.0000	497.92
11.5000	497.963
12.0000	497.965
12.5000	497.944
13.0000	497.959
13.5000	497.891
14.0000	497.934
14.5000	497.963
15.0000	498.022
15.5000	498.085
16.0000	498.252
16.5000	498.316
17.0000	498.355
17.5000	498.517
18.0000	498.536
18.5000	498.56
19.0000	498.657
19.5000	498.681
20.0000	498.61
20.5000	498.601
21.0000	498.61
21.5000	498.632
22.0000	498.66
22.5000	498.66
23.0000	498.616
23.5000	498.585
24.0000	498.654
24.5000	498.656
25.0000	498.696
25.5000	498.704
26.0000	498.729
26.5000	498.929
27.0000	498.997
27.5000	498.999
28.0000	499.032
28.5000	498.999
29.0000	499.079
29.5000	499.264
30.0000	499.357
30.5000	499.329
31.0000	499.324
31.5000	499.276
32.0000	499.282
32.5000	499.362
33.0000	499.364
33.5000	499.339
34.0000	499.271
34.5000	499.268
35.0000	499.368
35.5000	499.42
36.0000	499.518
36.5000	499.493
37.0000	499.421
37.5000	499.472
38.0000	499.437
38.5000	499.558
39.0000	499.711
39.5000	499.67
40.0000	499.688
40.5000	499.691
41.0000	499.594
41.5000	499.619
42.0000	499.671
42.5000	499.706
43.0000	499.771
43.5000	499.768
44.0000	499.804
44.5000	499.802
45.0000	499.763
45.5000	499.785
46.0000	499.706
46.5000	499.711
47.0000	499.762
47.5000	499.862
48.0000	499.923
48.5000	499.93
49.0000	499.88
49.5000	499.819
50.0000	499.852
50.5000	499.795
51.0000	499.835
51.5000	499.835
52.0000	499.871
52.5000	499.92
53.0000	500.045
53.5000	500.034
54.0000	500.008
54.5000	499.95
55.0000	499.827
55.5000	499.882
56.0000	499.941
56.5000	500.031
57.0000	500.001
57.5000	500.092
58.0000	500.049
58.5000	500.018
59.0000	500.136
59.5000	499.971
60.0000	500.069
60.5000	500.098
61.0000	500.221
61.5000	500.359
62.0000	500.282
62.5000	500.367
63.0000	500.249
63.5000	500.242
64.0000	500.261
64.5000	500.187
65.0000	500.124
65.5000	500.106
66.0000	500.167
66.5000	500.167
67.0000	500.19
67.5000	500.26
68.0000	500.173
68.5000	500.187
69.0000	500.239
69.5000	500.052
70.0000	500.109
70.5000	500.167
71.0000	500.137
71.5000	500.176
72.0000	500.276
72.5000	500.224
73.0000	500.223
73.5000	500.349
74.0000	500.223
74.5000	500.282
75.0000	500.346
75.5000	500.275
76.0000	500.326
76.5000	500.348
77.0000	500.358
77.5000	500.376
78.0000	500.315
78.5000	500.177
79.0000	500.148
79.5000	500.132
80.0000	500.153
80.5000	500.243
81.0000	500.203
81.5000	500.203
82.0000	500.2
82.5000	500.218
83.0000	500.393
83.5000	500.445
84.0000	500.407
84.5000	500.403
85.0000	500.215
85.5000	500.234
86.0000	500.235
86.5000	500.211
87.0000	500.256
87.5000	500.257
88.0000	500.321
88.5000	500.364
89.0000	500.368
89.5000	500.278
90.0000	500.253
90.5000	500.271
91.0000	500.18
91.5000	500.347
92.0000	500.294
92.5000	500.161
93.0000	500.231
93.5000	500.113
94.0000	500.11
94.5000	500.136
95.0000	500.136
95.5000	500.062
96.0000	500.142
96.5000	500.126
97.0000	500.176
97.5000	500.267
98.0000	500.143
98.5000	500.169
99.0000	500.164
99.5000	500.127
100.0000	500.253
100.5000	500.246
101.0000	500.196
101.5000	500.233
102.0000	500.095
102.5000	500.087
103.0000	499.995
103.5000	500.001
104.0000	500.056
104.5000	499.889
105.0000	499.839
105.5000	499.812
106.0000	499.775
106.5000	499.888
107.0000	500.04
107.5000	500.011
108.0000	500.086
108.5000	500.115
109.0000	500.062
109.5000	500.036
110.0000	499.932
110.5000	499.959
111.0000	499.875
111.5000	499.943
112.0000	500.033
112.5000	499.943
113.0000	499.901
113.5000	499.712
114.0000	499.656
114.5000	499.625
115.0000	499.688
115.5000	499.756
116.0000	499.729
116.5000	499.694
117.0000	499.678
117.5000	499.71
118.0000	499.809
118.5000	499.903
119.0000	499.885
119.5000	499.862
120.0000	499.751
120.5000	499.73
121.0000	499.679
121.5000	499.683
122.0000	499.597
122.5000	499.589
123.0000	499.552
123.5000	499.516
124.0000	499.612
124.5000	499.53
125.0000	499.477
125.5000	499.417
126.0000	499.365
126.5000	499.282
127.0000	499.513
127.5000	499.552
128.0000	499.511
128.5000	499.63
129.0000	499.454
129.5000	499.431
130.0000	499.41
130.5000	493.877
131.0000	476.026
131.5000	446.271
132.0000	357.358
132.5000	-119.08
133.0000	-47.8711
133.5000	-34.4313
134.0000	-31.1058
134.5000	-29.6228
135.0000	-28.6238
135.5000	-27.969
136.0000	-27.3609
136.5000	-26.9135
137.0000	-26.7112
137.5000	-26.4949
138.0000	-26.4968
138.5000	208.519
139.0000	280.689
139.5000	278.731
140.0000	277.345
140.5000	264.607
141.0000	257.25
141.5000	256.873
142.0000	256.965
142.5000	257.049
143.0000	257.194
143.5000	257.368
144.0000	257.598
144.5000	257.901
145.0000	258.203
145.5000	258.482
146.0000	258.787
146.5000	259.007
147.0000	259.247
147.5000	259.485
148.0000	259.682
148.5000	259.973
149.0000	260.221
149.5000	260.478
150.0000	260.72
150.5000	260.985
151.0000	261.248
151.5000	261.527
152.0000	261.853
152.5000	262.112
153.0000	262.358
153.5000	262.602
154.0000	262.815
154.5000	263.042
155.0000	263.315
155.5000	263.603
156.0000	263.876
156.5000	264.165
157.0000	264.414
157.5000	264.621
158.0000	264.861
158.5000	265.106
159.0000	265.377
159.5000	265.652
160.0000	265.882
160.5000	266.077
161.0000	266.31
161.5000	266.572
162.0000	266.858
162.5000	267.167
163.0000	267.437
163.5000	267.69
164.0000	267.915
164.5000	268.123
165.0000	268.307
165.5000	268.552
166.0000	268.833
166.5000	269.08
167.0000	269.345
167.5000	269.587
168.0000	269.801
168.5000	270.053
169.0000	270.311
169.5000	270.532
170.0000	270.697
170.5000	270.975
171.0000	271.246
171.5000	271.443
172.0000	271.791
172.5000	272.043
173.0000	272.259
173.5000	272.55
174.0000	272.787
174.5000	273.024
175.0000	273.288
175.5000	273.539
176.0000	273.786
176.5000	273.985
177.0000	274.211
177.5000	274.42
178.0000	274.665
178.5000	274.964
179.0000	275.206
179.5000	275.489
180.0000	275.753
180.5000	275.956
181.0000	276.161
181.5000	276.407
182.0000	276.633
182.5000	276.834
183.0000	277.108
183.5000	277.318
184.0000	277.544
184.5000	277.854
185.0000	278.111
185.5000	278.381
186.0000	278.613
186.5000	278.827
187.0000	279.075
187.5000	279.289
188.0000	279.545
188.5000	279.771
189.0000	280.012
189.5000	280.298
190.0000	280.575
190.5000	280.801
191.0000	281.059
191.5000	281.286
192.0000	281.486
192.5000	281.77
193.0000	281.938
193.5000	282.16
194.0000	282.351
194.5000	282.553
195.0000	282.845
195.5000	283.059
196.0000	283.325
196.5000	283.597
197.0000	283.784
197.5000	283.982
198.0000	284.262
198.5000	284.506
199.0000	284.769
199.5000	285.039
200.0000	285.249
200.5000	285.489
201.0000	285.705
201.5000	285.929
202.0000	286.103
202.5000	286.349
203.0000	286.609
203.5000	286.896
204.0000	287.136
204.5000	287.365
205.0000	287.577
205.5000	287.769
206.0000	288.045
206.5000	288.217
207.0000	288.456
207.5000	288.737
208.0000	288.95
208.5000	289.231
209.0000	289.471
209.5000	289.697
210.0000	289.909
210.5000	290.151
211.0000	290.35
211.5000	290.546
212.0000	290.823
212.5000	291.044
213.0000	291.3
213.5000	291.508
214.0000	291.734
214.5000	291.918
215.0000	292.202
215.5000	292.467
216.0000	292.677
216.5000	292.949
217.0000	293.193
217.5000	293.358
218.0000	293.58
218.5000	293.824
219.0000	294.025
219.5000	294.304
220.0000	294.587
220.5000	294.779
221.0000	294.936
221.5000	295.192
222.0000	295.383
222.5000	295.591
223.0000	295.805
223.5000	296.046
224.0000	296.296
224.5000	296.564
225.0000	296.891
225.5000	297.106
226.0000	297.364
226.5000	297.578
227.0000	297.778
227.5000	298.021
228.0000	298.252
228.5000	298.503
229.0000	298.75
229.5000	298.964
230.0000	299.223
230.5000	299.473
231.0000	299.738
231.5000	299.978
232.0000	300.17
232.5000	300.387
233.0000	300.579
233.5000	300.845
234.0000	301.095
234.5000	301.453
235.0000	301.716
235.5000	301.941
236.0000	302.148
236.5000	302.282
237.0000	302.517
237.5000	302.772
238.0000	303.057
238.5000	303.333
239.0000	303.535
239.5000	303.816
240.0000	304.049
240.5000	304.241
241.0000	304.498
241.5000	304.651
242.0000	304.904
242.5000	305.128
243.0000	305.361
243.5000	305.658
244.0000	305.887
244.5000	306.146
245.0000	306.464
245.5000	306.722
246.0000	306.905
246.5000	307.181
247.0000	307.361
247.5000	307.585
248.0000	307.879
248.5000	308.119
249.0000	308.395
249.5000	308.618
250.0000	308.878
250.5000	309.186
251.0000	309.464
251.5000	309.775
252.0000	310.073
252.5000	310.261
253.0000	310.546
253.5000	310.805
254.0000	310.99
254.5000	311.287
255.0000	311.528
255.5000	311.719
256.0000	311.976
256.5000	312.216
257.0000	312.406
257.5000	312.755
258.0000	313.057
258.5000	313.311
259.0000	313.569
259.5000	313.785
260.0000	314.052
260.5000	314.285
261.0000	314.57
261.5000	314.785
262.0000	315.056
262.5000	315.37
263.0000	315.701
263.5000	315.981
264.0000	316.197
264.5000	316.426
265.0000	316.701
265.5000	317.067
266.0000	317.396
266.5000	317.715
267.0000	317.956
267.5000	318.183
268.0000	318.411
268.5000	318.719
269.0000	319.003
269.5000	319.281
270.0000	319.581
270.5000	319.795
271.0000	320.056
271.5000	320.367
272.0000	320.703
272.5000	320.978
273.0000	321.263
273.5000	321.493
274.0000	321.739
274.5000	322.014
275.0000	322.33
275.5000	322.661
276.0000	322.932
276.5000	323.229
277.0000	323.482
277.5000	323.755
278.0000	324.094
278.5000	324.428
279.0000	324.758
279.5000	325.119
280.0000	325.406
280.5000	325.657
281.0000	325.921
281.5000	326.128
282.0000	326.424
282.5000	326.746
283.0000	327.014
283.5000	327.276
284.0000	327.498
284.5000	327.767
285.0000	328.064
285.5000	328.357
286.0000	328.685
286.5000	329.091
287.0000	329.408
287.5000	329.747
288.0000	330.087
288.5000	330.315
289.0000	330.589
289.5000	330.855
290.0000	331.056
290.5000	331.249
291.0000	331.581
291.5000	331.893
292.0000	332.212
292.5000	332.529
293.0000	332.761
293.5000	333.012
294.0000	333.286
294.5000	333.578
295.0000	333.884
295.5000	334.214
296.0000	334.512
296.5000	334.74
297.0000	334.993
297.5000	335.29
298.0000	335.529
298.5000	335.85
299.0000	336.094
299.5000	336.36
300.0000	336.684
300.5000	336.961
301.0000	337.276
301.5000	337.513
302.0000	337.807
302.5000	338.118
303.0000	338.419
303.5000	338.712
304.0000	338.874
304.5000	339.15
305.0000	339.427
305.5000	339.706
306.0000	340.026
306.5000	340.207
307.0000	340.411
307.5000	340.576
308.0000	340.816
308.5000	341.113
309.0000	341.34
309.5000	341.622
310.0000	341.898
310.5000	342.215
311.0000	342.521
311.5000	342.834
312.0000	343.077
312.5000	343.238
313.0000	343.438
313.5000	343.596
314.0000	343.844
314.5000	344.127
315.0000	344.4
315.5000	344.668
316.0000	344.934
316.5000	345.182
317.0000	345.383
317.5000	345.607
318.0000	345.846
318.5000	346.026
319.0000	346.299
319.5000	346.538
320.0000	346.728
320.5000	346.993
321.0000	347.162
321.5000	347.369
322.0000	347.635
322.5000	347.8
323.0000	348.051
323.5000	348.32
324.0000	348.514
324.5000	348.714
325.0000	348.96
325.5000	349.168
326.0000	349.387
326.5000	349.707
327.0000	349.902
327.5000	350.083
328.0000	350.308
328.5000	350.427
329.0000	350.637
329.5000	350.907
330.0000	351.046
330.5000	351.325
331.0000	351.517
331.5000	351.696
332.0000	351.966
332.5000	352.183
333.0000	352.419
333.5000	352.634
334.0000	352.808
334.5000	352.966
335.0000	353.169
335.5000	353.343
336.0000	353.538
336.5000	353.725
337.0000	353.894
337.5000	354.114
338.0000	354.369
338.5000	354.584
339.0000	354.793
339.5000	355.07
340.0000	355.244
340.5000	355.473
341.0000	355.697
341.5000	355.86
342.0000	356.107
342.5000	356.255
343.0000	356.465
343.5000	356.617
344.0000	356.732
344.5000	356.96
345.0000	357.091
345.5000	357.312
346.0000	357.548
346.5000	357.764
347.0000	358.061
347.5000	358.262
348.0000	358.387
348.5000	358.63
349.0000	358.826
349.5000	359.028
350.0000	359.328
350.5000	359.539
351.0000	359.684
351.5000	359.867
352.0000	360.023
352.5000	360.12
353.0000	360.357
353.5000	360.57
354.0000	360.775
354.5000	360.928
355.0000	361.117
355.5000	361.29
356.0000	361.504
356.5000	361.776
357.0000	361.863
357.5000	362.072
358.0000	362.195
358.5000	362.448
359.0000	362.784
359.5000	362.955
360.0000	363.229
360.5000	363.368
361.0000	363.523
361.5000	363.81
362.0000	364.023
362.5000	364.347
363.0000	364.572
363.5000	364.703
364.0000	364.89
364.5000	365.049
365.0000	365.23
365.5000	365.492
366.0000	365.717
366.5000	365.829
367.0000	366.011
367.5000	366.159
368.0000	366.319
368.5000	366.568
369.0000	366.823
369.5000	367.006
370.0000	367.204
370.5000	367.414
371.0000	367.551
371.5000	367.784
372.0000	368.023
372.5000	368.21
373.0000	368.434
373.5000	368.657
374.0000	368.877
374.5000	368.998
375.0000	369.228
375.5000	369.419
376.0000	369.648
376.5000	369.958
377.0000	370.19
377.5000	370.457
378.0000	370.658
378.5000	370.818
379.0000	370.997
379.5000	371.221
380.0000	371.331
380.5000	371.637
381.0000	371.828
381.5000	371.959
382.0000	372.228
382.5000	372.371
383.0000	372.611
383.5000	372.866
384.0000	373.036
384.5000	373.215
385.0000	373.403
385.5000	373.555
386.0000	373.833
386.5000	374.05
387.0000	374.274
387.5000	374.488
388.0000	374.631
388.5000	374.859
389.0000	375.038
389.5000	375.196
390.0000	375.401
390.5000	375.62
391.0000	375.842
391.5000	376.015
392.0000	376.281
392.5000	376.541
393.0000	376.715
393.5000	376.939
394.0000	377.091
394.5000	377.24
395.0000	377.487
395.5000	377.702
396.0000	377.909
396.5000	378.09
397.0000	378.281
397.5000	378.523
398.0000	378.761
398.5000	378.989
399.0000	379.161
399.5000	379.374
400.0000	379.562
400.5000	379.665
401.0000	379.915
401.5000	380.165
402.0000	380.356
402.5000	380.656
403.0000	380.814
403.5000	380.962
404.0000	381.152
404.5000	381.303
405.0000	381.531
405.5000	381.624
406.0000	381.863
406.5000	382.073
407.0000	382.251
407.5000	382.542
408.0000	382.739
408.5000	383.006
409.0000	383.19
409.5000	383.335
410.0000	383.544
410.5000	383.637
411.0000	383.858
411.5000	384.131
412.0000	384.303
412.5000	384.5
413.0000	384.67
413.5000	384.785
414.0000	384.998
414.5000	385.257
415.0000	385.475
415.5000	385.732
416.0000	385.878
416.5000	386.032
417.0000	386.284
417.5000	386.53
418.0000	386.752
418.5000	386.977
419.0000	387.092
419.5000	387.234
420.0000	387.368
420.5000	387.522
421.0000	387.827
421.5000	388.024
422.0000	388.219
422.5000	388.417
423.0000	388.536
423.5000	388.747
424.0000	388.981
424.5000	389.176
425.0000	389.392
425.5000	389.506
426.0000	389.598
426.5000	389.852
427.0000	390.031
427.5000	390.322
428.0000	390.645
428.5000	390.758
429.0000	390.951
429.5000	391.126
430.0000	391.282
430.5000	391.556
431.0000	391.776
431.5000	391.924
432.0000	392.168
432.5000	392.335
433.0000	392.465
433.5000	392.682
434.0000	392.782
434.5000	392.97
435.0000	393.19
435.5000	393.381
436.0000	393.648
436.5000	393.784
437.0000	393.968
437.5000	394.113
438.0000	394.229
438.5000	394.473
439.0000	394.627
439.5000	394.85
440.0000	395.021
440.5000	395.176
441.0000	395.364
441.5000	395.579
442.0000	395.79
442.5000	395.996
443.0000	396.236
443.5000	396.372
444.0000	396.56
444.5000	396.668
445.0000	396.828
445.5000	396.984
446.0000	397.174
446.5000	397.326
447.0000	397.544
447.5000	397.726
448.0000	397.936
448.5000	398.131
449.0000	398.291
449.5000	398.466
450.0000	398.518
450.5000	398.803
451.0000	398.963
451.5000	399.113
452.0000	399.341
452.5000	399.503
453.0000	399.609
453.5000	399.752
454.0000	400.024
454.5000	400.166
455.0000	400.374
455.5000	400.738
456.0000	400.896
456.5000	401.048
457.0000	401.281
457.5000	401.361
458.0000	401.561
458.5000	401.702
459.0000	401.809
459.5000	402.02
460.0000	402.174
460.5000	402.439
461.0000	402.588
461.5000	402.736
462.0000	402.912
462.5000	403.147
463.0000	403.368
463.5000	403.624
464.0000	403.769
464.5000	403.917
465.0000	404.182
465.5000	404.255
466.0000	404.446
466.5000	404.595
467.0000	404.742
467.5000	404.956
468.0000	405.144
468.5000	405.398
469.0000	405.498
469.5000	405.642
470.0000	405.812
470.5000	405.9
471.0000	406.118
471.5000	406.339
472.0000	406.518
472.5000	406.685
473.0000	406.862
473.5000	406.935
474.0000	407.106
474.5000	407.255
475.0000	407.508
475.5000	407.769
476.0000	407.887
476.5000	408.063
477.0000	408.235
477.5000	408.383
478.0000	408.64
478.5000	408.826
479.0000	408.857
479.5000	409.076
480.0000	409.183
480.5000	409.385
481.0000	409.545
481.5000	409.647
482.0000	409.885
482.5000	410.053
483.0000	410.214
483.5000	410.405
484.0000	410.468
484.5000	410.619
485.0000	410.819
485.5000	410.994
486.0000	411.195
486.5000	411.345
487.0000	411.487
487.5000	411.627
488.0000	411.781
488.5000	411.967
489.0000	412.193
489.5000	412.418
490.0000	412.487
490.5000	412.627
491.0000	412.793
491.5000	412.865
492.0000	413.193
492.5000	413.33
493.0000	413.47
493.5000	413.738
494.0000	413.868
494.5000	413.996
495.0000	414.169
495.5000	414.214
496.0000	414.382
496.5000	414.612
497.0000	414.749
497.5000	415.001
498.0000	415.068
498.5000	415.213
499.0000	415.372
499.5000	415.501
500.0000	415.788
500.5000	415.98
501.0000	416.16
501.5000	416.255
502.0000	416.371
502.5000	416.528
503.0000	416.691
503.5000	416.862
504.0000	416.986
504.5000	417.148
505.0000	417.308
505.5000	417.482
506.0000	417.612
506.5000	417.703
507.0000	417.946
507.5000	418.217
508.0000	418.455
508.5000	418.672
509.0000	418.795
509.5000	418.875
510.0000	419.017
510.5000	419.175
511.0000	419.377
511.5000	419.575
512.0000	419.669
512.5000	419.822
513.0000	419.851
513.5000	419.955
514.0000	420.138
514.5000	420.329
515.0000	420.5
515.5000	420.763
516.0000	420.967
516.5000	421.173
517.0000	421.395
517.5000	421.413
518.0000	421.623
518.5000	421.768
519.0000	421.863
519.5000	422.102
520.0000	422.178
520.5000	422.292
521.0000	422.498
521.5000	422.618
522.0000	422.774
522.5000	422.91
523.0000	423.076
523.5000	423.174
524.0000	423.296
524.5000	423.474
525.0000	423.599
525.5000	423.774
526.0000	423.937
526.5000	423.971
527.0000	424.088
527.5000	424.337
528.0000	424.489
528.5000	424.717
529.0000	424.829
529.5000	424.957
530.0000	425.181
530.5000	425.312
531.0000	425.465
531.5000	425.579
532.0000	425.741
532.5000	425.911
533.0000	426.132
533.5000	426.237
534.0000	426.33
534.5000	426.426
535.0000	426.575
535.5000	426.805
536.0000	426.892
536.5000	427.062
537.0000	427.1
537.5000	427.267
538.0000	427.466
538.5000	427.602
539.0000	427.847
539.5000	427.979
540.0000	428.119
540.5000	428.303
541.0000	428.404
541.5000	428.542
542.0000	428.672
542.5000	428.913
543.0000	429.047
543.5000	429.157
544.0000	429.335
544.5000	429.418
545.0000	429.68
545.5000	429.772
546.0000	429.939
546.5000	430.006
547.0000	430.04
547.5000	430.277
548.0000	430.453
548.5000	430.703
549.0000	430.888
549.5000	430.941
550.0000	430.979
550.5000	431.089
551.0000	431.252
551.5000	431.505
552.0000	431.728
552.5000	431.854
553.0000	432.001
553.5000	432.152
554.0000	432.317
554.5000	432.443
555.0000	432.623
555.5000	432.738
556.0000	432.79
556.5000	432.963
557.0000	433.028
557.5000	433.23
558.0000	433.439
558.5000	433.546
559.0000	433.817
559.5000	433.942
560.0000	434.069
560.5000	434.19
561.0000	434.267
561.5000	434.38
562.0000	434.485
562.5000	434.686
563.0000	434.781
563.5000	435.002
564.0000	435.174
564.5000	435.367
565.0000	435.499
565.5000	435.489
566.0000	435.591
566.5000	435.616
567.0000	435.841
567.5000	436.005
568.0000	436.188
568.5000	436.431
569.0000	436.467
569.5000	436.628
570.0000	436.757
570.5000	436.891
571.0000	437.062
571.5000	437.21
572.0000	437.485
572.5000	437.607
573.0000	437.763
573.5000	437.896
574.0000	437.879
574.5000	437.974
575.0000	438.109
575.5000	438.211
576.0000	438.324
576.5000	438.521
577.0000	438.719
577.5000	438.832
578.0000	439.025
578.5000	439.178
579.0000	439.283
579.5000	439.548
580.0000	439.707
580.5000	439.78
581.0000	439.907
581.5000	439.926
582.0000	440.06
582.5000	440.204
583.0000	440.296
583.5000	440.504
584.0000	440.569
584.5000	440.686
585.0000	440.955
585.5000	441.049
586.0000	441.186
586.5000	441.371
587.0000	441.394
587.5000	441.543
588.0000	441.808
588.5000	441.923
589.0000	442.019
589.5000	442.166
590.0000	442.299
590.5000	442.459
591.0000	442.661
591.5000	442.748
592.0000	442.789
592.5000	442.835
593.0000	442.899
593.5000	443.037
594.0000	443.131
594.5000	443.343
595.0000	443.5
595.5000	443.67
596.0000	443.81
596.5000	443.951
597.0000	444.095
597.5000	444.26
598.0000	444.464
598.5000	444.497
599.0000	444.723
599.5000	444.804
600.0000	444.842
600.5000	445.115
601.0000	445.26
601.5000	445.349
602.0000	445.56
602.5000	445.584
603.0000	445.557
603.5000	445.72
604.0000	445.932
604.5000	446.056
605.0000	446.255
605.5000	446.436
606.0000	446.39
606.5000	446.5
607.0000	446.603
607.5000	446.654
608.0000	446.831
608.5000	446.959
609.0000	447.152
609.5000	447.299
610.0000	447.475
610.5000	447.624
611.0000	447.647
611.5000	447.786
612.0000	447.911
612.5000	448.121
613.0000	448.268
613.5000	448.388
614.0000	448.511
614.5000	448.593
615.0000	448.753
615.5000	448.904
616.0000	449.106
616.5000	449.204
617.0000	449.379
617.5000	449.476
618.0000	449.543
618.5000	449.701
619.0000	449.811
619.5000	449.946
620.0000	450.111
620.5000	450.284
621.0000	450.369
621.5000	450.511
622.0000	450.65
622.5000	450.729
623.0000	450.9
623.5000	451.021
624.0000	451.081
624.5000	451.182
625.0000	451.247
625.5000	451.413
626.0000	451.446
626.5000	451.608
627.0000	451.77
627.5000	451.905
628.0000	452.13
628.5000	452.2
629.0000	452.313
629.5000	452.37
630.0000	452.44
630.5000	452.545
631.0000	452.633
631.5000	452.795
632.0000	453.029
632.5000	453.187
633.0000	453.363
633.5000	453.439
634.0000	453.385
634.5000	453.543
635.0000	453.634
635.5000	453.787
636.0000	454.048
636.5000	454.049
637.0000	454.173
637.5000	454.248
638.0000	454.262
638.5000	454.471
639.0000	454.625
639.5000	454.742
640.0000	455.001
640.5000	455.223
641.0000	455.361
641.5000	455.563
642.0000	455.624
642.5000	455.641
643.0000	455.726
643.5000	455.837
644.0000	455.985
644.5000	456.098
645.0000	456.148
645.5000	456.259
646.0000	456.37
646.5000	456.51
647.0000	456.709
647.5000	456.782
648.0000	456.984
648.5000	457.101
649.0000	457.209
649.5000	457.335
650.0000	457.289
650.5000	457.434
651.0000	457.552
651.5000	457.689
652.0000	457.78
652.5000	457.884
653.0000	457.917
653.5000	458.044
654.0000	458.338
654.5000	458.436
655.0000	458.674
655.5000	458.756
656.0000	458.76
656.5000	458.928
657.0000	459.035
657.5000	459.169
658.0000	459.287
658.5000	459.384
659.0000	459.457
659.5000	459.598
660.0000	459.714
660.5000	459.77
661.0000	459.902
661.5000	460.047
662.0000	460.176
662.5000	460.351
663.0000	460.51
663.5000	460.613
664.0000	460.701
664.5000	460.839
665.0000	461.02
665.5000	461.052
666.0000	461.224
666.5000	461.278
667.0000	461.217
667.5000	461.422
668.0000	461.5
668.5000	461.702
669.0000	461.853
669.5000	461.924
670.0000	461.99
670.5000	462.032
671.0000	462.125
671.5000	462.258
672.0000	462.45
672.5000	462.506
673.0000	462.668
673.5000	462.737
674.0000	462.819
674.5000	463.092
675.0000	463.234
675.5000	463.414
676.0000	463.58
676.5000	463.568
677.0000	463.649
677.5000	463.686
678.0000	463.827
678.5000	463.954
679.0000	464.093
679.5000	464.333
680.0000	464.355
680.5000	464.521
681.0000	464.625
681.5000	464.59
682.0000	464.731
682.5000	464.814
683.0000	464.888
683.5000	465.069
684.0000	465.124
684.5000	465.228
685.0000	465.304
685.5000	465.434
686.0000	465.57
686.5000	465.618
687.0000	465.728
687.5000	465.82
688.0000	465.978
688.5000	466.149
689.0000	466.362
689.5000	466.401
690.0000	466.482
690.5000	466.63
691.0000	466.673
691.5000	466.89
692.0000	466.959
692.5000	467.067
693.0000	467.179
693.5000	467.18
694.0000	467.344
694.5000	467.387
695.0000	467.516
695.5000	467.697
696.0000	467.756
696.5000	467.907
697.0000	467.951
697.5000	468.026
698.0000	468.151
698.5000	468.198
699.0000	468.353
699.5000	468.449
700.0000	468.595
700.5000	468.778
701.0000	468.929
701.5000	469.058
702.0000	469.174
702.5000	469.205
703.0000	469.239
703.5000	469.276
704.0000	469.35
704.5000	469.562
705.0000	469.657
705.5000	469.755
706.0000	469.823
706.5000	469.851
707.0000	470.036
707.5000	470.216
708.0000	470.403
708.5000	470.471
709.0000	470.537
709.5000	470.672
710.0000	470.686
710.5000	470.857
711.0000	470.928
711.5000	471.006
712.0000	471.177
712.5000	471.208
713.0000	471.343
713.5000	471.477
714.0000	471.472
714.5000	471.666
715.0000	471.816
715.5000	471.925
716.0000	472.077
716.5000	472.081
717.0000	472.12
717.5000	472.194
718.0000	472.376
718.5000	472.581
719.0000	472.678
719.5000	472.79
720.0000	472.903
720.5000	472.995
721.0000	473.027
721.5000	473.066
722.0000	473.138
722.5000	473.217
723.0000	473.485
723.5000	473.537
724.0000	473.525
724.5000	473.692
725.0000	473.757
725.5000	473.987
726.0000	474.14
726.5000	474.184
727.0000	474.245
727.5000	474.363
728.0000	474.575
728.5000	474.611
729.0000	474.73
729.5000	474.834
730.0000	474.915
730.5000	475.071
731.0000	475.203
731.5000	475.2
732.0000	475.244
732.5000	475.397
733.0000	475.471
733.5000	475.603
734.0000	475.723
734.5000	475.736
735.0000	475.883
735.5000	476.01
736.0000	476.123
736.5000	476.277
737.0000	476.264
737.5000	476.307
738.0000	476.445
738.5000	476.549
739.0000	476.712
739.5000	476.916
740.0000	476.934
740.5000	476.968
741.0000	477.103
741.5000	477.15
742.0000	477.29
742.5000	477.425
743.0000	477.54
743.5000	477.615
744.0000	477.639
744.5000	477.738
745.0000	477.822
745.5000	477.922
746.0000	478.037
746.5000	478.202
747.0000	478.295
747.5000	478.451
748.0000	478.554
748.5000	478.636
749.0000	478.681
749.5000	478.681
750.0000	478.826
750.5000	478.791
751.0000	478.771
751.5000	478.855
752.0000	478.991
752.5000	479.121
753.0000	479.302
753.5000	479.545
754.0000	479.519
754.5000	479.618
755.0000	479.79
755.5000	479.824
756.0000	479.96
756.5000	480.079
757.0000	480.102
757.5000	480.195
758.0000	480.274
758.5000	480.351
759.0000	480.566
759.5000	480.714
760.0000	480.856
760.5000	480.993
761.0000	481.092
761.5000	481.25
762.0000	481.36
762.5000	481.453
763.0000	481.464
763.5000	481.348
764.0000	481.349
764.5000	481.486
765.0000	481.665
765.5000	481.799
766.0000	481.833
766.5000	481.933
767.0000	481.928
767.5000	482.069
768.0000	482.245
768.5000	482.338
769.0000	482.34
769.5000	482.49
770.0000	482.744
770.5000	482.779
771.0000	483.023
771.5000	483.068
772.0000	483.076
772.5000	483.141
773.0000	483.187
773.5000	483.281
774.0000	483.35
774.5000	483.563
775.0000	483.747
775.5000	483.874
776.0000	483.835
776.5000	483.854
777.0000	483.832
777.5000	483.848
778.0000	484.127
778.5000	484.353
779.0000	484.547
779.5000	484.719
780.0000	484.817
780.5000	484.744
781.0000	484.746
781.5000	484.778
782.0000	484.737
782.5000	484.847
783.0000	484.944
783.5000	485.089
784.0000	485.277
784.5000	485.319
785.0000	485.474
785.5000	485.585
786.0000	485.759
786.5000	486.003
787.0000	486.052
787.5000	486.071
788.0000	486.064
788.5000	486.1
789.0000	486.189
789.5000	486.304
790.0000	486.418
790.5000	486.509
791.0000	486.641
791.5000	486.713
792.0000	486.844
792.5000	486.884
793.0000	486.98
793.5000	487.12
794.0000	487.235
794.5000	487.39
795.0000	487.538
795.5000	487.616
796.0000	487.636
796.5000	487.719
797.0000	487.746
797.5000	487.831
798.0000	487.838
798.5000	487.963
799.0000	488.06
799.5000	488.183
800.0000	488.422
800.5000	488.55
801.0000	488.68
801.5000	488.739
802.0000	488.807
802.5000	488.887
803.0000	488.956
803.5000	489.025
804.0000	489.171
804.5000	489.19
805.0000	489.226
805.5000	489.279
806.0000	489.286
806.5000	489.381
807.0000	489.468
807.5000	489.683
808.0000	489.729
808.5000	489.81
809.0000	489.952
809.5000	489.986
810.0000	490.055
810.5000	490.143
811.0000	490.225
811.5000	490.303
812.0000	490.397
812.5000	490.51
813.0000	490.545
813.5000	490.629
814.0000	490.772
814.5000	490.828
815.0000	490.859
815.5000	490.878
816.0000	490.952
816.5000	490.974
817.0000	491.135
817.5000	491.302
818.0000	491.389
818.5000	491.598
819.0000	491.781
819.5000	491.849
820.0000	491.922
820.5000	491.969
821.0000	491.928
821.5000	492.015
822.0000	492.163
822.5000	492.283
823.0000	492.402
823.5000	492.477
824.0000	492.545
824.5000	492.562
825.0000	492.69
825.5000	492.744
826.0000	492.774
826.5000	492.909
827.0000	492.996
827.5000	493.158
828.0000	493.335
828.5000	493.444
829.0000	493.447
829.5000	493.496
830.0000	493.528
830.5000	493.537
831.0000	493.721
831.5000	493.771
832.0000	493.822
832.5000	493.849
833.0000	493.994
833.5000	494.146
834.0000	494.236
834.5000	494.406
835.0000	494.424
835.5000	494.44
836.0000	494.616
836.5000	494.759
837.0000	494.849
837.5000	495.029
838.0000	495.022
838.5000	495.094
839.0000	495.166
839.5000	495.147
840.0000	495.239
840.5000	495.285
841.0000	495.379
841.5000	495.388
842.0000	495.458
842.5000	495.635
843.0000	495.686
843.5000	495.895
844.0000	495.922
844.5000	495.982
845.0000	496.055
845.5000	496.17
846.0000	496.364
846.5000	496.381
847.0000	496.397
847.5000	496.397
848.0000	496.488
848.5000	496.567
849.0000	496.7
849.5000	496.856
850.0000	496.877
850.5000	496.9
851.0000	497.031
851.5000	497.127
852.0000	497.251
852.5000	497.445
853.0000	497.467
853.5000	497.498
854.0000	497.52
854.5000	497.533
855.0000	497.656
855.5000	497.735
856.0000	497.841
856.5000	497.922
857.0000	497.972
857.5000	498.129
858.0000	498.233
858.5000	498.285
859.0000	498.391
859.5000	498.351
860.0000	498.37
860.5000	498.501
861.0000	498.542
861.5000	498.649
862.0000	498.763
862.5000	498.898
863.0000	498.924
863.5000	499.04
864.0000	499.11
864.5000	499.154
865.0000	499.327
865.5000	499.36
866.0000	499.481
866.5000	499.461
867.0000	499.557
867.5000	499.675
868.0000	499.782
868.5000	499.895
869.0000	500.007
869.5000	500.112
870.0000	500.229
870.5000	500.372
871.0000	500.441
871.5000	500.501
872.0000	500.573
872.5000	500.583
873.0000	500.616
873.5000	500.78
874.0000	500.897
874.5000	501.017
875.0000	501.081
875.5000	501.079
876.0000	501.166
876.5000	501.214
877.0000	501.387
877.5000	501.472
878.0000	501.502
878.5000	501.683
879.0000	501.82
879.5000	501.91
880.0000	501.943
880.5000	501.982
881.0000	501.885
881.5000	501.983
882.0000	502.091
882.5000	502.126
883.0000	502.32
883.5000	502.391
884.0000	502.502
884.5000	502.678
885.0000	502.741
885.5000	502.786
886.0000	502.854
886.5000	502.924
887.0000	502.929
887.5000	503.026
888.0000	503.029
888.5000	503.014
889.0000	503.165
889.5000	503.219
890.0000	503.355
890.5000	503.423
891.0000	503.452
891.5000	503.575
892.0000	503.617
892.5000	503.69
893.0000	503.765
893.5000	503.86
894.0000	503.945
894.5000	504.041
895.0000	504.17
895.5000	504.241
896.0000	504.302
896.5000	504.356
897.0000	504.412
897.5000	504.382
898.0000	504.563
898.5000	504.707
899.0000	504.733
899.5000	504.925
900.0000	504.933
900.5000	505.016
901.0000	505.115
901.5000	505.158
902.0000	505.216
902.5000	505.34
903.0000	505.446
903.5000	505.535
904.0000	505.682
904.5000	505.638
905.0000	505.727
905.5000	505.866
906.0000	505.811
906.5000	505.935
907.0000	506.001
907.5000	506.124
908.0000	506.287
908.5000	506.416
909.0000	506.444
909.5000	506.263
910.0000	506.316
910.5000	506.422
911.0000	506.487
911.5000	506.722
912.0000	506.822
912.5000	506.913
913.0000	507.125
913.5000	507.167
914.0000	507.21
914.5000	507.257
915.0000	507.204
915.5000	507.221
916.0000	507.364
916.5000	507.493
917.0000	507.601
917.5000	507.798
918.0000	507.796
918.5000	507.893
919.0000	508.011
919.5000	508.035
920.0000	508.225
920.5000	508.194
921.0000	508.286
921.5000	508.413
922.0000	508.451
922.5000	508.577
923.0000	508.613
923.5000	508.707
924.0000	508.719
924.5000	508.752
925.0000	508.842
925.5000	508.854
926.0000	509.067
926.5000	509.11
927.0000	509.158
927.5000	509.234
928.0000	509.154
928.5000	509.315
929.0000	509.481
929.5000	509.613
930.0000	509.765
930.5000	509.771
931.0000	509.734
931.5000	509.811
932.0000	509.832
932.5000	510.002
933.0000	510.169
933.5000	510.346
934.0000	510.49
934.5000	510.482
935.0000	510.512
935.5000	510.492
936.0000	510.596
936.5000	510.671
937.0000	510.732
937.5000	510.806
938.0000	510.861
938.5000	510.862
939.0000	510.99
939.5000	511.048
940.0000	511.075
940.5000	511.29
941.0000	511.308
941.5000	511.442
942.0000	511.502
942.5000	511.558
943.0000	511.7
943.5000	511.803
944.0000	511.853
944.5000	511.992
945.0000	512.034
945.5000	512.06
946.0000	512.232
946.5000	512.297
947.0000	512.424
947.5000	512.526
948.0000	512.627
948.5000	512.628
949.0000	512.765
949.5000	512.843
950.0000	512.878
950.5000	512.983
951.0000	512.914
951.5000	512.943
952.0000	513.149
952.5000	513.23
953.0000	513.36
953.5000	513.381
954.0000	513.316
954.5000	513.376
955.0000	513.518
955.5000	513.584
956.0000	513.642
956.5000	513.809
957.0000	513.835
957.5000	513.963
958.0000	514.053
958.5000	514.1
959.0000	514.197
959.5000	514.371
960.0000	514.484
960.5000	514.475
961.0000	514.504
961.5000	514.465
962.0000	514.59
962.5000	514.656
963.0000	514.73
963.5000	514.796
964.0000	514.862
964.5000	514.97
965.0000	515.021
965.5000	515.164
966.0000	515.19
966.5000	515.359
967.0000	515.522
967.5000	515.571
968.0000	515.702
968.5000	515.766
969.0000	515.869
969.5000	516.022
970.0000	516.007
970.5000	516.062
971.0000	516.167
971.5000	516.204
972.0000	516.309
972.5000	516.332
973.0000	516.297
973.5000	516.357
974.0000	516.473
974.5000	516.595
975.0000	516.707
975.5000	516.747
976.0000	516.807
976.5000	516.82
977.0000	516.979
977.5000	517.049
978.0000	517.113
978.5000	517.222
979.0000	517.31
979.5000	517.396
980.0000	517.423
980.5000	517.529
981.0000	517.461
981.5000	517.608
982.0000	517.756
982.5000	517.839
983.0000	517.991
983.5000	518.066
984.0000	518.162
984.5000	518.22
985.0000	518.268
985.5000	518.275
986.0000	518.372
986.5000	518.496
987.0000	518.58
987.5000	518.662
988.0000	518.771
988.5000	518.862
989.0000	518.927
989.5000	519.018
990.0000	518.999
990.5000	519.071
991.0000	519.16
991.5000	519.256
992.0000	519.383
992.5000	519.435
993.0000	519.732
993.5000	519.828
994.0000	519.992
994.5000	520.001
995.0000	519.815
995.5000	519.886
996.0000	519.867
996.5000	519.958
997.0000	520.033
997.5000	520.105
998.0000	520.219
998.5000	520.209
999.0000	520.298
999.5000	520.351
1000.0000	520.422
1000.5000	520.616
1001.0000	520.748
1001.5000	520.825
1002.0000	520.958
1002.5000	521.03
1003.0000	521.155
1003.5000	521.309
1004.0000	521.282
1004.5000	521.329
1005.0000	521.341
1005.5000	521.322
1006.0000	521.362
1006.5000	521.402
1007.0000	521.477
1007.5000	521.56
1008.0000	521.586
1008.5000	521.738
1009.0000	521.734
1009.5000	521.912
1010.0000	522.143
1010.5000	522.203
1011.0000	522.255
1011.5000	522.242
1012.0000	522.245
1012.5000	522.312
1013.0000	522.545
1013.5000	522.658
1014.0000	522.777
1014.5000	522.845
1015.0000	522.773
1015.5000	522.814
1016.0000	522.793
1016.5000	522.86
1017.0000	523.047
1017.5000	523.234
1018.0000	523.373
1018.5000	523.42
1019.0000	523.459
1019.5000	523.455
1020.0000	523.398
1020.5000	523.533
1021.0000	523.681
1021.5000	523.679
1022.0000	523.856
1022.5000	523.928
1023.0000	523.932
1023.5000	524.005
1024.0000	524.054
1024.5000	524.057
1025.0000	524.055
1025.5000	524.193
1026.0000	524.314
1026.5000	524.45
1027.0000	524.625
1027.5000	524.633
1028.0000	524.702
1028.5000	524.748
1029.0000	524.817
1029.5000	524.94
1030.0000	525.027
1030.5000	525.049
1031.0000	525.105
1031.5000	525.1
1032.0000	525.117
1032.5000	525.283
1033.0000	525.292
1033.5000	525.393
1034.0000	525.433
1034.5000	525.545
1035.0000	525.69
1035.5000	525.791
1036.0000	525.894
1036.5000	525.816
1037.0000	525.85
1037.5000	525.901
1038.0000	525.927
1038.5000	526.052
1039.0000	526.133
1039.5000	526.221
1040.0000	526.21
1040.5000	526.254
1041.0000	526.299
1041.5000	526.33
1042.0000	526.588
1042.5000	526.682
1043.0000	526.768
1043.5000	526.854
1044.0000	526.975
1044.5000	526.951
1045.0000	526.924
1045.5000	527.012
1046.0000	527.026
1046.5000	527.098
1047.0000	527.139
1047.5000	527.184
1048.0000	527.264
1048.5000	527.309
1049.0000	527.466
1049.5000	527.524
1050.0000	527.554
1050.5000	527.61
1051.0000	527.653
1051.5000	527.852
1052.0000	527.923
1052.5000	528.044
1053.0000	528.131
1053.5000	528.061
1054.0000	528.109
1054.5000	528.138
1055.0000	528.263
1055.5000	528.319
1056.0000	528.313
1056.5000	528.56
1057.0000	528.586
1057.5000	528.696
1058.0000	528.811
1058.5000	528.867
1059.0000	528.941
1059.5000	529.021
1060.0000	529.066
1060.5000	529.006
1061.0000	529.112
1061.5000	529.137
1062.0000	529.157
1062.5000	529.288
1063.0000	529.304
1063.5000	529.421
1064.0000	529.567
1064.5000	529.657
1065.0000	529.676
1065.5000	529.642
1066.0000	529.741
1066.5000	529.711
1067.0000	529.756
1067.5000	529.811
1068.0000	529.752
1068.5000	529.803
1069.0000	529.928
1069.5000	530
1070.0000	530.184
1070.5000	530.355
1071.0000	530.338
1071.5000	530.421
1072.0000	530.36
1072.5000	530.341
1073.0000	530.439
1073.5000	530.494
1074.0000	530.599
1074.5000	530.778
1075.0000	530.886
1075.5000	531.018
1076.0000	531.054
1076.5000	531.079
1077.0000	531.137
1077.5000	531.177
1078.0000	531.297
1078.5000	531.253
1079.0000	531.25
1079.5000	531.304
1080.0000	531.39
1080.5000	531.483
1081.0000	531.534
1081.5000	531.69
1082.0000	531.742
1082.5000	531.848
1083.0000	531.909
1083.5000	531.843
1084.0000	531.892
1084.5000	531.851
1085.0000	532.002
1085.5000	532.015
1086.0000	532.149
1086.5000	532.323
1087.0000	532.353
1087.5000	532.446
1088.0000	532.443
1088.5000	532.509
1089.0000	532.574
1089.5000	532.709
1090.0000	532.7
1090.5000	532.705
1091.0000	532.807
1091.5000	532.822
1092.0000	532.948
1092.5000	533.034
1093.0000	533.114
1093.5000	533.152
1094.0000	533.25
1094.5000	533.234
1095.0000	533.211
1095.5000	533.364
1096.0000	533.329
1096.5000	533.508
1097.0000	533.546
1097.5000	533.636
1098.0000	533.773
1098.5000	533.938
1099.0000	534.089
1099.5000	534.096
1100.0000	534.149
1100.5000	534.149
1101.0000	534.122
1101.5000	534.155
1102.0000	534.207
1102.5000	534.267
1103.0000	534.397
1103.5000	534.483
1104.0000	534.562
1104.5000	534.485
1105.0000	534.537
1105.5000	534.578
1106.0000	534.687
1106.5000	534.78
1107.0000	534.861
1107.5000	534.93
1108.0000	534.924
1108.5000	535.05
1109.0000	535.13
1109.5000	535.225
1110.0000	535.279
1110.5000	535.349
1111.0000	535.416
1111.5000	535.496
1112.0000	535.628
1112.5000	535.661
1113.0000	535.662
1113.5000	535.697
1114.0000	535.664
1114.5000	535.709
1115.0000	535.826
1115.5000	535.79
1116.0000	535.903
1116.5000	536.034
1117.0000	536.112
1117.5000	536.27
1118.0000	536.334
1118.5000	536.29
1119.0000	536.233
1119.5000	536.317
1120.0000	536.382
1120.5000	536.521
1121.0000	536.669
1121.5000	536.715
1122.0000	536.724
1122.5000	536.774
1123.0000	536.93
1123.5000	536.947
1124.0000	537.003
1124.5000	537.08
1125.0000	537.119
1125.5000	537.305
1126.0000	537.489
1126.5000	537.516
1127.0000	537.471
1127.5000	537.422
1128.0000	537.362
1128.5000	537.472
1129.0000	537.468
1129.5000	537.5
1130.0000	537.659
1130.5000	537.747
1131.0000	537.892
1131.5000	537.988
1132.0000	537.995
1132.5000	537.978
1133.0000	538.013
1133.5000	538.089
1134.0000	538.171
1134.5000	538.275
1135.0000	538.407
1135.5000	538.638
1136.0000	538.648
1136.5000	538.808
1137.0000	538.905
1137.5000	538.825
1138.0000	538.931
1138.5000	538.868
1139.0000	538.904
1139.5000	538.963
1140.0000	539.056
1140.5000	539.161
1141.0000	539.214
1141.5000	539.228
1142.0000	539.269
1142.5000	539.37
1143.0000	539.372
1143.5000	539.455
1144.0000	539.529
1144.5000	539.489
1145.0000	539.479
1145.5000	539.586
1146.0000	539.642
1146.5000	539.767
1147.0000	539.932
1147.5000	539.954
1148.0000	539.921
1148.5000	540.015
1149.0000	540.017
1149.5000	540.108
1150.0000	540.224
1150.5000	540.235
1151.0000	540.387
1151.5000	540.394
1152.0000	540.467
1152.5000	540.528
1153.0000	540.539
1153.5000	540.63
1154.0000	540.745
1154.5000	540.73
1155.0000	540.704
1155.5000	540.792
1156.0000	540.822
1156.5000	540.883
1157.0000	541.045
1157.5000	540.998
1158.0000	541.033
1158.5000	541.099
1159.0000	541.251
1159.5000	541.385
1160.0000	541.531
1160.5000	541.6
1161.0000	541.528
1161.5000	541.606
1162.0000	541.521
1162.5000	541.682
1163.0000	541.775
1163.5000	541.802
1164.0000	541.898
1164.5000	541.916
1165.0000	541.984
1165.5000	542.025
1166.0000	542.209
1166.5000	542.112
1167.0000	542.101
1167.5000	542.164
1168.0000	542.117
1168.5000	542.36
1169.0000	542.542
1169.5000	542.565
1170.0000	542.634
1170.5000	542.663
1171.0000	542.643
1171.5000	542.774
1172.0000	542.851
1172.5000	542.872
1173.0000	542.939
1173.5000	543.021
1174.0000	543.045
1174.5000	543.088
1175.0000	543.066
1175.5000	543.115
1176.0000	543.172
1176.5000	543.172
1177.0000	543.244
1177.5000	543.26
1178.0000	543.368
1178.5000	543.518
1179.0000	543.649
1179.5000	543.708
1180.0000	543.761
1180.5000	543.792
1181.0000	543.753
1181.5000	543.765
1182.0000	543.767
1182.5000	543.895
1183.0000	544.102
1183.5000	544.185
1184.0000	544.257
1184.5000	544.236
1185.0000	544.189
1185.5000	544.162
1186.0000	544.202
1186.5000	544.301
1187.0000	544.355
1187.5000	544.424
1188.0000	544.521
1188.5000	544.387
1189.0000	544.469
1189.5000	544.648
1190.0000	544.711
1190.5000	544.802
1191.0000	544.932
1191.5000	544.947
1192.0000	544.898
1192.5000	545.056
1193.0000	545.007
1193.5000	545.016
1194.0000	545.094
1194.5000	545.089
1195.0000	545.201
1195.5000	545.282
1196.0000	545.32
1196.5000	545.369
1197.0000	545.489
1197.5000	545.493
1198.0000	545.512
1198.5000	545.565
1199.0000	545.497
1199.5000	545.632
1200.0000	545.663
1200.5000	545.661
1201.0000	545.764
1201.5000	545.668
1202.0000	545.818
1202.5000	545.997
1203.0000	546.024
1203.5000	546.181
1204.0000	546.243
1204.5000	546.285
1205.0000	546.272
1205.5000	546.334
1206.0000	546.417
1206.5000	546.463
1207.0000	546.546
1207.5000	546.588
1208.0000	546.56
1208.5000	546.634
1209.0000	546.71
1209.5000	546.715
1210.0000	546.703
1210.5000	546.685
1211.0000	546.784
1211.5000	546.877
1212.0000	547.011
1212.5000	547.059
1213.0000	547.108
1213.5000	547.254
1214.0000	547.392
1214.5000	547.444
1215.0000	547.406
1215.5000	547.362
1216.0000	547.319
1216.5000	547.398
1217.0000	547.448
1217.5000	547.533
1218.0000	547.59
1218.5000	547.629
1219.0000	547.777
1219.5000	547.801
1220.0000	547.752
1220.5000	547.859
1221.0000	547.902
1221.5000	547.973
1222.0000	548.084
1222.5000	548.105
1223.0000	548.102
1223.5000	548.146
1224.0000	548.278
1224.5000	548.294
1225.0000	548.426
1225.5000	548.421
1226.0000	548.383
1226.5000	548.309
1227.0000	548.235
1227.5000	548.312
1228.0000	548.327
1228.5000	548.468
1229.0000	548.488
1229.5000	548.43
1230.0000	548.55
1230.5000	548.618
1231.0000	548.808
1231.5000	548.9
1232.0000	548.913
1232.5000	549.014
1233.0000	548.947
1233.5000	549.052
1234.0000	549.243
1234.5000	549.32
1235.0000	549.402
1235.5000	549.441
1236.0000	549.395
1236.5000	549.371
1237.0000	549.474
1237.5000	549.525
1238.0000	549.515
1238.5000	549.54
1239.0000	549.51
1239.5000	549.519
1240.0000	549.526
1240.5000	549.603
1241.0000	549.618
1241.5000	549.659
1242.0000	549.777
1242.5000	549.845
1243.0000	550.081
1243.5000	550.167
1244.0000	550.193
1244.5000	550.257
1245.0000	550.125
1245.5000	550.138
1246.0000	550.219
1246.5000	550.217
1247.0000	550.324
1247.5000	550.405
1248.0000	550.406
1248.5000	550.463
1249.0000	550.458
1249.5000	550.532
1250.0000	550.582
1250.5000	550.733
1251.0000	550.828
1251.5000	550.8
1252.0000	550.858
1252.5000	550.788
1253.0000	550.779
1253.5000	550.855
1254.0000	550.802
1254.5000	550.841
1255.0000	550.917
1255.5000	550.941
1256.0000	551.127
1256.5000	551.236
1257.0000	551.261
1257.5000	551.293
1258.0000	551.337
1258.5000	551.315
1259.0000	551.328
1259.5000	551.435
1260.0000	551.429
1260.5000	551.486
1261.0000	551.641
1261.5000	551.703
1262.0000	551.63
1262.5000	551.722
1263.0000	551.729
1263.5000	551.708
1264.0000	551.81
1264.5000	551.862
1265.0000	551.84
1265.5000	551.818
1266.0000	552.019
1266.5000	552.016
1267.0000	552.068
1267.5000	552.153
1268.0000	552.096
1268.5000	552.103
1269.0000	552.172
1269.5000	552.282
1270.0000	552.356
1270.5000	552.418
1271.0000	552.454
1271.5000	552.417
1272.0000	552.486
1272.5000	552.515
1273.0000	552.524
1273.5000	552.654
1274.0000	552.702
1274.5000	552.8
1275.0000	552.922
1275.5000	552.86
1276.0000	552.923
1276.5000	552.891
1277.0000	552.923
1277.5000	553.06
1278.0000	552.968
1278.5000	553.109
1279.0000	553.186
1279.5000	553.21
1280.0000	553.334
1280.5000	553.267
1281.0000	553.283
1281.5000	553.311
1282.0000	553.371
1282.5000	553.421
1283.0000	553.456
1283.5000	553.497
1284.0000	553.468
1284.5000	553.55
1285.0000	553.529
1285.5000	553.59
1286.0000	553.74
1286.5000	553.821
1287.0000	553.843
1287.5000	553.834
1288.0000	553.888
1288.5000	553.832
1289.0000	553.927
1289.5000	554.079
1290.0000	554.083
1290.5000	554.202
1291.0000	554.269
1291.5000	554.202
1292.0000	554.304
1292.5000	554.296
1293.0000	554.3
1293.5000	554.386
1294.0000	554.306
1294.5000	554.402
1295.0000	554.506
1295.5000	554.589
1296.0000	554.589
1296.5000	554.705
1297.0000	554.633
1297.5000	554.652
1298.0000	554.716
1298.5000	554.611
1299.0000	554.723
1299.5000	554.78
1300.0000	554.857
1300.5000	554.945
1301.0000	554.989
1301.5000	554.99
1302.0000	555.031
1302.5000	555.117
1303.0000	555.154
1303.5000	555.18
1304.0000	555.145
1304.5000	555.159
1305.0000	555.337
1305.5000	555.402
1306.0000	555.587
1306.5000	555.589
1307.0000	555.491
1307.5000	555.562
1308.0000	555.495
1308.5000	555.58
1309.0000	555.58
1309.5000	555.569
1310.0000	555.617
1310.5000	555.532
1311.0000	555.532
1311.5000	555.671
1312.0000	555.749
1312.5000	555.836
1313.0000	555.92
1313.5000	555.897
1314.0000	556.02
1314.5000	556.102
1315.0000	556.185
1315.5000	556.25
1316.0000	556.211
1316.5000	556.238
1317.0000	556.243
1317.5000	556.172
1318.0000	556.125
1318.5000	556.172
1319.0000	556.166
1319.5000	556.251
1320.0000	556.401
1320.5000	556.405
1321.0000	556.508
1321.5000	556.57
1322.0000	556.617
1322.5000	556.774
1323.0000	556.818
1323.5000	556.877
1324.0000	556.849
1324.5000	556.751
1325.0000	556.854
1325.5000	556.799
1326.0000	556.809
1326.5000	556.922
1327.0000	556.86
1327.5000	556.893
1328.0000	557.008
1328.5000	557.01
1329.0000	557.047
1329.5000	557.202
1330.0000	557.255
1330.5000	557.272
1331.0000	557.274
1331.5000	557.237
1332.0000	557.202
1332.5000	557.282
1333.0000	557.362
1333.5000	557.438
1334.0000	557.458
1334.5000	557.587
1335.0000	557.608
1335.5000	557.616
1336.0000	557.692
1336.5000	557.639
1337.0000	557.647
1337.5000	557.723
1338.0000	557.735
1338.5000	557.771
1339.0000	557.767
1339.5000	557.849
1340.0000	557.914
1340.5000	557.972
1341.0000	558.171
1341.5000	558.003
1342.0000	557.991
1342.5000	557.985
1343.0000	557.909
1343.5000	558.071
1344.0000	558.099
1344.5000	558.162
1345.0000	558.18
1345.5000	558.118
1346.0000	558.231
1346.5000	558.278
1347.0000	558.422
1347.5000	558.552
1348.0000	558.544
1348.5000	558.568
1349.0000	558.519
1349.5000	558.562
1350.0000	558.575
1350.5000	558.587
1351.0000	558.626
1351.5000	558.67
1352.0000	558.726
1352.5000	558.722
1353.0000	558.836
1353.5000	558.895
1354.0000	558.926
1354.5000	558.981
1355.0000	558.991
1355.5000	558.946
1356.0000	559.049
1356.5000	559.125
1357.0000	559.129
1357.5000	559.183
1358.0000	559.202
1358.5000	559.31
1359.0000	559.261
1359.5000	559.317
1360.0000	559.311
1360.5000	559.331
1361.0000	559.404
1361.5000	559.502
1362.0000	559.529
1362.5000	559.522
1363.0000	559.673
1363.5000	559.5
1364.0000	559.605
1364.5000	559.514
1365.0000	559.483
1365.5000	559.692
1366.0000	559.697
1366.5000	559.855
1367.0000	559.898
1367.5000	559.962
1368.0000	560.041
1368.5000	560.042
1369.0000	560.189
1369.5000	560.15
1370.0000	560.074
1370.5000	560.163
1371.0000	560.083
1371.5000	560.083
1372.0000	560.181
1372.5000	560.31
1373.0000	560.257
1373.5000	560.395
1374.0000	560.358
1374.5000	560.225
1375.0000	560.32
1375.5000	560.338
1376.0000	560.494
1376.5000	560.527
1377.0000	560.615
1377.5000	560.636
1378.0000	560.588
1378.5000	560.659
1379.0000	560.665
1379.5000	560.726
1380.0000	560.836
1380.5000	560.966
1381.0000	561.047
1381.5000	561.052
1382.0000	561.031
1382.5000	560.944
1383.0000	560.956
1383.5000	560.907
1384.0000	560.881
1384.5000	560.933
1385.0000	561.088
1385.5000	561.132
1386.0000	561.284
1386.5000	561.327
1387.0000	561.216
1387.5000	561.308
1388.0000	561.215
1388.5000	561.373
1389.0000	561.432
1389.5000	561.521
1390.0000	561.628
1390.5000	561.569
1391.0000	561.638
1391.5000	561.574
1392.0000	561.596
1392.5000	561.748
1393.0000	561.76
1393.5000	561.844
1394.0000	561.911
1394.5000	561.755
1395.0000	561.784
1395.5000	561.812
1396.0000	561.849
1396.5000	561.965
1397.0000	562.076
1397.5000	562.181
1398.0000	562.206
1398.5000	562.17
1399.0000	562.057
1399.5000	562.038
1400.0000	562.093
1400.5000	562.062
1401.0000	562.208
1401.5000	562.253
1402.0000	562.223
1402.5000	562.323
1403.0000	562.284
1403.5000	562.268
1404.0000	562.178
1404.5000	562.171
1405.0000	562.282
1405.5000	562.302
1406.0000	562.573
1406.5000	562.603
1407.0000	562.651
1407.5000	562.716
1408.0000	562.597
1408.5000	562.646
1409.0000	562.582
1409.5000	562.57
1410.0000	562.647
1410.5000	562.746
1411.0000	562.795
1411.5000	562.889
1412.0000	562.878
1412.5000	562.938
1413.0000	562.93
1413.5000	562.936
1414.0000	563.136
1414.5000	563.161
1415.0000	563.273
1415.5000	563.314
1416.0000	563.281
1416.5000	563.214
1417.0000	563.122
1417.5000	563.249
1418.0000	563.271
1418.5000	563.44
1419.0000	563.581
1419.5000	563.568
1420.0000	563.567
1420.5000	563.543
1421.0000	563.539
1421.5000	563.594
1422.0000	563.639
1422.5000	563.742
1423.0000	563.822
1423.5000	563.682
1424.0000	563.747
1424.5000	563.735
1425.0000	563.727
1425.5000	563.826
1426.0000	563.77
1426.5000	563.729
1427.0000	563.672
1427.5000	563.737
1428.0000	563.743
1428.5000	563.777
1429.0000	563.987
1429.5000	564.055
1430.0000	564.145
1430.5000	564.258
1431.0000	564.189
1431.5000	564.09
1432.0000	564.124
1432.5000	564.117
1433.0000	564.162
1433.5000	564.367
1434.0000	564.412
1434.5000	564.495
1435.0000	564.545
1435.5000	564.565
1436.0000	564.53
1436.5000	564.553
1437.0000	564.595
1437.5000	564.519
1438.0000	564.629
1438.5000	564.637
1439.0000	564.751
1439.5000	564.767
1440.0000	564.71
1440.5000	564.682
1441.0000	564.613
1441.5000	564.712
1442.0000	564.813
1442.5000	564.863
1443.0000	564.745
1443.5000	564.761
1444.0000	564.793
1444.5000	564.759
1445.0000	564.894
1445.5000	564.985
1446.0000	564.975
1446.5000	565.16
1447.0000	565.212
1447.5000	565.195
1448.0000	565.228
1448.5000	565.184
1449.0000	565.201
1449.5000	565.156
1450.0000	565.203
1450.5000	565.231
1451.0000	565.289
1451.5000	565.389
1452.0000	565.455
1452.5000	565.44
1453.0000	565.55
1453.5000	565.523
1454.0000	565.522
1454.5000	565.543
1455.0000	565.567
1455.5000	565.702
1456.0000	565.74
1456.5000	565.826
1457.0000	565.747
1457.5000	565.749
1458.0000	565.76
1458.5000	565.861
1459.0000	565.937
1459.5000	565.909
1460.0000	565.944
1460.5000	565.869
1461.0000	565.92
1461.5000	565.974
1462.0000	566.036
1462.5000	566.058
1463.0000	565.995
1463.5000	566.072
1464.0000	566.013
1464.5000	566.104
1465.0000	566.143
1465.5000	566.14
1466.0000	566.294
1466.5000	566.268
1467.0000	566.29
1467.5000	566.209
1468.0000	566.164
1468.5000	566.19
1469.0000	566.223
1469.5000	566.415
1470.0000	566.511
1470.5000	566.568
1471.0000	566.731
1471.5000	566.572
1472.0000	566.537
1472.5000	566.604
1473.0000	566.518
1473.5000	566.746
1474.0000	566.749
1474.5000	566.8
1475.0000	566.859
1475.5000	566.912
1476.0000	566.959
1476.5000	566.904
1477.0000	566.934
1477.5000	566.95
1478.0000	567.052
1478.5000	567.065
1479.0000	567.071
1479.5000	567.057
1480.0000	566.969
1480.5000	567.08
1481.0000	567.128
1481.5000	567.129
1482.0000	567.286
1482.5000	567.252
1483.0000	567.286
1483.5000	567.225
1484.0000	567.172
1484.5000	567.19
1485.0000	567.217
1485.5000	567.351
1486.0000	567.337
1486.5000	567.446
1487.0000	567.576
1487.5000	567.577
1488.0000	567.728
1488.5000	567.731
1489.0000	567.6
1489.5000	567.667
1490.0000	567.656
1490.5000	567.826
1491.0000	567.907
1491.5000	567.854
1492.0000	567.926
1492.5000	567.829
1493.0000	567.841
1493.5000	567.946
1494.0000	567.92
1494.5000	567.932
1495.0000	568.106
1495.5000	568.107
1496.0000	568.087
1496.5000	568.093
1497.0000	568.018
1497.5000	568.059
1498.0000	568.168
1498.5000	568.281
1499.0000	568.336
1499.5000	568.391
1500.0000	568.375
1500.5000	568.332
1501.0000	568.454
1501.5000	568.42
1502.0000	568.413
1502.5000	568.481
1503.0000	568.4
1503.5000	568.584
1504.0000	568.628
1504.5000	568.719
1505.0000	568.717
1505.5000	568.671
1506.0000	568.848
1506.5000	568.756
1507.0000	568.892
1507.5000	568.982
1508.0000	568.932
1508.5000	569.027
1509.0000	569.018
1509.5000	568.971
1510.0000	569.053
1510.5000	569.087
1511.0000	569.048
1511.5000	569.033
1512.0000	568.995
1512.5000	568.984
1513.0000	568.965
1513.5000	569.024
1514.0000	569.048
1514.5000	569.163
1515.0000	569.253
1515.5000	569.302
1516.0000	569.35
1516.5000	569.327
1517.0000	569.304
1517.5000	569.246
1518.0000	569.227
1518.5000	569.211
1519.0000	569.265
1519.5000	569.299
1520.0000	569.355
1520.5000	569.403
1521.0000	569.453
1521.5000	569.501
1522.0000	569.499
1522.5000	569.449
1523.0000	569.447
1523.5000	569.482
1524.0000	569.565
1524.5000	569.627
1525.0000	569.758
1525.5000	569.901
1526.0000	569.862
1526.5000	569.905
1527.0000	569.872
1527.5000	569.939
1528.0000	569.963
1528.5000	569.922
1529.0000	569.926
1529.5000	569.796
1530.0000	569.863
1530.5000	569.946
1531.0000	569.995
1531.5000	569.996
1532.0000	570.097
1532.5000	570.137
1533.0000	570.168
1533.5000	570.255
1534.0000	570.193
1534.5000	570.205
1535.0000	570.301
1535.5000	570.335
1536.0000	570.351
1536.5000	570.45
1537.0000	570.483
1537.5000	570.558
1538.0000	570.584
1538.5000	570.604
1539.0000	570.614
1539.5000	570.555
1540.0000	570.671
1540.5000	570.619
1541.0000	570.571
1541.5000	570.772
1542.0000	570.82
1542.5000	570.969
1543.0000	571.062
1543.5000	570.949
1544.0000	570.846
1544.5000	570.918
1545.0000	570.831
1545.5000	570.867
1546.0000	571.034
1546.5000	570.998
1547.0000	571.143
1547.5000	571.157
1548.0000	571.033
1548.5000	571.068
1549.0000	571.031
1549.5000	570.989
1550.0000	571.102
1550.5000	571.11
1551.0000	571.127
1551.5000	571.249
1552.0000	571.213
1552.5000	571.15
1553.0000	571.166
1553.5000	571.143
1554.0000	571.241
1554.5000	571.361
1555.0000	571.482
1555.5000	571.557
1556.0000	571.533
1556.5000	571.594
1557.0000	571.648
1557.5000	571.739
1558.0000	571.759
1558.5000	571.718
1559.0000	571.681
1559.5000	571.659
1560.0000	571.678
1560.5000	571.823
1561.0000	571.898
1561.5000	571.872
1562.0000	571.991
1562.5000	572.014
1563.0000	571.937
1563.5000	571.982
1564.0000	571.997
1564.5000	571.91
1565.0000	571.962
1565.5000	571.978
1566.0000	572.008
1566.5000	572.041
1567.0000	572.198
1567.5000	572.25
1568.0000	572.275
1568.5000	572.329
1569.0000	572.26
1569.5000	572.302
1570.0000	572.283
1570.5000	572.312
1571.0000	572.331
1571.5000	572.307
1572.0000	572.378
1572.5000	572.422
1573.0000	572.488
1573.5000	572.582
1574.0000	572.592
1574.5000	572.565
1575.0000	572.55
1575.5000	572.504
1576.0000	572.467
1576.5000	572.595
1577.0000	572.592
1577.5000	572.557
1578.0000	572.759
1578.5000	572.669
1579.0000	572.733
1579.5000	572.868
1580.0000	572.811
1580.5000	572.911
1581.0000	572.917
1581.5000	572.963
1582.0000	572.894
1582.5000	572.904
1583.0000	572.933
1583.5000	573.039
1584.0000	573.175
1584.5000	573.155
1585.0000	573.205
1585.5000	573.134
1586.0000	573.23
1586.5000	573.288
1587.0000	573.335
1587.5000	573.392
1588.0000	573.297
1588.5000	573.276
1589.0000	573.259
1589.5000	573.331
1590.0000	573.458
1590.5000	573.484
1591.0000	573.563
1591.5000	573.615
1592.0000	573.508
1592.5000	573.507
1593.0000	573.548
1593.5000	573.562
1594.0000	573.692
1594.5000	573.797
1595.0000	573.758
1595.5000	573.703
1596.0000	573.702
1596.5000	573.791
1597.0000	573.854
1597.5000	573.924
1598.0000	573.92
1598.5000	573.807
1599.0000	573.825
1599.5000	573.857
1600.0000	573.822
1600.5000	574.077
1601.0000	574.114
1601.5000	574.113
1602.0000	574.353
1602.5000	574.224
1603.0000	574.331
1603.5000	574.341
1604.0000	574.247
1604.5000	574.326
1605.0000	574.257
1605.5000	574.38
1606.0000	574.454
1606.5000	574.497
1607.0000	574.581
1607.5000	574.505
1608.0000	574.474
1608.5000	574.629
1609.0000	574.656
1609.5000	574.807
1610.0000	574.826
1610.5000	574.748
1611.0000	574.779
1611.5000	574.751
1612.0000	574.864
1612.5000	574.796
1613.0000	574.776
1613.5000	574.856
1614.0000	574.816
1614.5000	574.949
1615.0000	575
1615.5000	574.954
1616.0000	575.097
1616.5000	575.12
1617.0000	575.14
1617.5000	575.168
1618.0000	575.137
1618.5000	575.11
1619.0000	575.19
1619.5000	575.146
1620.0000	575.023
1620.5000	575.019
1621.0000	575.17
1621.5000	575.201
1622.0000	575.457
1622.5000	575.557
1623.0000	575.442
1623.5000	575.574
1624.0000	575.484
1624.5000	575.498
1625.0000	575.504
1625.5000	575.501
1626.0000	575.734
1626.5000	575.613
1627.0000	575.536
1627.5000	575.551
1628.0000	575.32
1628.5000	575.429
1629.0000	575.661
1629.5000	575.634
1630.0000	575.654
1630.5000	575.745
1631.0000	575.663
1631.5000	575.703
1632.0000	575.943
1632.5000	575.953
1633.0000	575.964
1633.5000	576.054
1634.0000	575.955
1634.5000	576.056
1635.0000	576.18
1635.5000	576.203
1636.0000	576.216
1636.5000	576.197
1637.0000	576.153
1637.5000	576.199
1638.0000	576.309
1638.5000	576.242
1639.0000	576.311
1639.5000	576.288
1640.0000	576.275
1640.5000	576.393
1641.0000	576.349
1641.5000	576.426
1642.0000	576.414
1642.5000	576.402
1643.0000	576.532
1643.5000	576.531
1644.0000	576.408
1644.5000	576.395
1645.0000	576.369
1645.5000	576.403
1646.0000	576.608
1646.5000	576.769
1647.0000	576.732
1647.5000	576.773
1648.0000	576.826
1648.5000	576.766
1649.0000	576.857
1649.5000	576.87
1650.0000	576.93
1650.5000	577.048
1651.0000	577.073
1651.5000	577.062
1652.0000	577.036
1652.5000	577.069
1653.0000	577.166
1653.5000	577.287
1654.0000	577.183
1654.5000	577.173
1655.0000	577.111
1655.5000	577.09
1656.0000	577.255
1656.5000	577.26
1657.0000	577.314
1657.5000	577.316
1658.0000	577.374
1658.5000	577.476
1659.0000	577.563
1659.5000	577.728
1660.0000	577.788
1660.5000	577.65
1661.0000	577.819
1661.5000	577.798
1662.0000	577.745
1662.5000	577.973
1663.0000	577.892
1663.5000	577.91
1664.0000	578.029
1664.5000	577.972
1665.0000	577.98
1665.5000	578.133
1666.0000	578.036
1666.5000	577.95
1667.0000	577.904
1667.5000	577.749
1668.0000	577.806
1668.5000	577.915
1669.0000	577.919
1669.5000	577.969
1670.0000	578.024
1670.5000	578.117
1671.0000	578.174
1671.5000	578.255
1672.0000	578.325
1672.5000	578.314
1673.0000	578.385
1673.5000	578.424
1674.0000	578.498
1674.5000	578.516
1675.0000	578.707
1675.5000	578.633
1676.0000	578.603
1676.5000	578.642
1677.0000	578.527
1677.5000	578.669
1678.0000	578.723
1678.5000	578.824
1679.0000	578.863
1679.5000	578.885
1680.0000	578.837
1680.5000	578.831
1681.0000	579.006
1681.5000	579.093
1682.0000	579.232
1682.5000	579.132
1683.0000	578.945
1683.5000	578.949
1684.0000	578.927
1684.5000	579.109
1685.0000	579.232
1685.5000	579.212
1686.0000	579.266
1686.5000	579.227
1687.0000	579.293
1687.5000	579.29
1688.0000	579.282
1688.5000	579.287
1689.0000	579.38
1689.5000	579.396
1690.0000	579.411
1690.5000	579.528
1691.0000	579.488
1691.5000	579.454
1692.0000	579.508
1692.5000	579.475
1693.0000	579.467
1693.5000	579.471
1694.0000	579.53
1694.5000	579.634
1695.0000	579.644
1695.5000	579.828
1696.0000	579.817
1696.5000	579.721
1697.0000	579.832
1697.5000	579.895
1698.0000	579.929
1698.5000	580.033
1699.0000	580.016
1699.5000	579.969
1700.0000	580.01
1700.5000	580.151
1701.0000	580.11
1701.5000	580.091
1702.0000	580.192
1702.5000	580.078
1703.0000	580.052
1703.5000	580.099
1704.0000	580.019
1704.5000	580.16
1705.0000	580.339
1705.5000	580.388
1706.0000	580.517
1706.5000	580.448
1707.0000	580.404
1707.5000	580.464
1708.0000	580.305
1708.5000	580.419
1709.0000	580.535
1709.5000	580.517
1710.0000	580.633
1710.5000	580.662
1711.0000	580.604
1711.5000	580.651
1712.0000	580.752
1712.5000	580.757
1713.0000	580.689
1713.5000	580.717
1714.0000	580.773
1714.5000	580.803
1715.0000	580.908
1715.5000	580.999
1716.0000	580.976
1716.5000	580.998
1717.0000	581.04
1717.5000	581.076
1718.0000	581.077
1718.5000	581.001
1719.0000	580.95
1719.5000	580.913
1720.0000	581.029
1720.5000	581.146
1721.0000	581.359
1721.5000	581.413
1722.0000	581.306
1722.5000	581.307
1723.0000	581.231
1723.5000	581.234
1724.0000	581.363
1724.5000	581.455
1725.0000	581.445
1725.5000	581.53
1726.0000	581.506
1726.5000	581.498
1727.0000	581.521
1727.5000	581.504
1728.0000	581.428
1728.5000	581.492
1729.0000	581.647
1729.5000	581.799
1730.0000	581.947
1730.5000	582
1731.0000	582.024
1731.5000	581.856
1732.0000	581.855
1732.5000	581.861
1733.0000	581.847
1733.5000	582.078
1734.0000	582.222
1734.5000	582.165
1735.0000	582.317
1735.5000	582.251
1736.0000	582.25
1736.5000	582.337
1737.0000	582.282
1737.5000	582.331
1738.0000	582.159
1738.5000	582.211
1739.0000	582.225
1739.5000	582.222
1740.0000	582.404
1740.5000	582.414
1741.0000	582.461
1741.5000	582.454
1742.0000	582.452
1742.5000	582.533
1743.0000	582.543
1743.5000	582.597
1744.0000	582.563
1744.5000	582.528
1745.0000	582.579
1745.5000	582.536
1746.0000	582.658
1746.5000	582.684
1747.0000	582.674
1747.5000	582.721
1748.0000	582.671
1748.5000	582.74
1749.0000	582.819
1749.5000	582.901
1750.0000	582.984
1750.5000	583.022
1751.0000	582.976
1751.5000	582.924
1752.0000	583.002
1752.5000	582.923
1753.0000	582.929
1753.5000	583.08
1754.0000	583.032
1754.5000	583.12
1755.0000	583.192
1755.5000	583.183
1756.0000	583.229
1756.5000	583.342
1757.0000	583.422
1757.5000	583.471
1758.0000	583.491
1758.5000	583.445
1759.0000	583.388
1759.5000	583.312
1760.0000	583.466
1760.5000	583.427
1761.0000	583.541
1761.5000	583.669
1762.0000	583.694
1762.5000	583.715
1763.0000	583.707
1763.5000	583.661
1764.0000	583.599
1764.5000	583.655
1765.0000	583.579
1765.5000	583.644
1766.0000	583.645
1766.5000	583.785
1767.0000	583.867
1767.5000	584.004
1768.0000	584.102
1768.5000	584.149
1769.0000	584.163
1769.5000	584.123
1770.0000	584.079
1770.5000	584.024
1771.0000	584.095
1771.5000	584.174
1772.0000	584.311
1772.5000	584.393
1773.0000	584.38
1773.5000	584.341
1774.0000	584.252
1774.5000	584.223
1775.0000	584.234
1775.5000	584.152
1776.0000	584.231
1776.5000	584.213
1777.0000	584.374
1777.5000	584.435
1778.0000	584.449
1778.5000	584.553
1779.0000	584.487
1779.5000	584.602
1780.0000	584.613
1780.5000	584.649
1781.0000	584.721
1781.5000	584.805
1782.0000	584.813
1782.5000	584.778
1783.0000	584.795
1783.5000	584.672
1784.0000	584.755
1784.5000	584.725
1785.0000	584.681
1785.5000	584.859
1786.0000	584.913
1786.5000	585.005
1787.0000	585.035
1787.5000	584.98
1788.0000	585.024
1788.5000	585.066
1789.0000	585.165
1789.5000	585.279
1790.0000	585.25
1790.5000	585.366
1791.0000	585.321
1791.5000	585.267
1792.0000	585.275
1792.5000	585.192
1793.0000	585.289
1793.5000	585.457
1794.0000	585.385
1794.5000	585.38
1795.0000	585.376
1795.5000	585.299
1796.0000	585.417
1796.5000	585.393
1797.0000	585.377
1797.5000	585.456
1798.0000	585.502
1798.5000	585.698
1799.0000	585.777
1799.5000	585.69
1800.0000	585.729
1800.5000	585.686
1801.0000	585.651
1801.5000	585.792
1802.0000	585.761
1802.5000	585.777
1803.0000	585.89
1803.5000	585.832
1804.0000	585.965
1804.5000	586.079
1805.0000	586.141
1805.5000	586.174
1806.0000	586.239
1806.5000	586.308
1807.0000	586.187
1807.5000	586.27
1808.0000	586.27
1808.5000	586.181
1809.0000	586.427
1809.5000	586.448
1810.0000	586.469
1810.5000	586.537
1811.0000	586.388
1811.5000	586.421
1812.0000	586.413
1812.5000	586.486
1813.0000	586.752
1813.5000	586.803
1814.0000	586.885
1814.5000	586.982
1815.0000	586.795
1815.5000	586.831
1816.0000	586.731
1816.5000	586.686
1817.0000	586.72
1817.5000	586.806
1818.0000	587.024
1818.5000	587.091
1819.0000	587.216
1819.5000	587.063
1820.0000	586.889
1820.5000	586.939
1821.0000	586.903
1821.5000	587.128
1822.0000	587.213
1822.5000	587.22
1823.0000	587.319
1823.5000	587.191
1824.0000	587.378
1824.5000	587.288
1825.0000	587.302
1825.5000	587.277
1826.0000	587.145
1826.5000	587.246
1827.0000	587.263
1827.5000	587.312
1828.0000	587.349
1828.5000	587.299
1829.0000	587.248
1829.5000	587.23
1830.0000	587.202
1830.5000	587.257
1831.0000	587.354
1831.5000	587.519
1832.0000	587.699
1832.5000	587.782
1833.0000	587.813
1833.5000	587.812
1834.0000	587.776
1834.5000	587.737
1835.0000	587.845
1835.5000	587.915
1836.0000	587.999
1836.5000	588.069
1837.0000	588.021
1837.5000	588.03
1838.0000	587.928
1838.5000	587.936
1839.0000	587.916
1839.5000	587.962
1840.0000	588.038
1840.5000	588.022
1841.0000	588.075
1841.5000	588.149
1842.0000	588.231
1842.5000	588.293
1843.0000	588.292
1843.5000	588.308
1844.0000	588.342
1844.5000	588.41
1845.0000	588.473
1845.5000	588.407
1846.0000	588.336
1846.5000	588.333
1847.0000	588.349
1847.5000	588.344
1848.0000	588.405
1848.5000	588.4
1849.0000	588.507
1849.5000	588.55
1850.0000	588.57
1850.5000	588.713
1851.0000	588.625
1851.5000	588.712
1852.0000	588.767
1852.5000	588.639
1853.0000	588.741
1853.5000	588.825
1854.0000	588.914
1854.5000	589.048
1855.0000	589.012
1855.5000	589.048
1856.0000	589.108
1856.5000	589.107
1857.0000	589.255
1857.5000	589.168
1858.0000	589.054
1858.5000	589.049
1859.0000	588.962
1859.5000	589.09
1860.0000	589.133
1860.5000	589.202
1861.0000	589.312
1861.5000	589.334
1862.0000	589.447
1862.5000	589.496
1863.0000	589.515
1863.5000	589.612
1864.0000	589.597
1864.5000	589.608
1865.0000	589.633
1865.5000	589.513
1866.0000	589.565
1866.5000	589.593
1867.0000	589.558
1867.5000	589.59
1868.0000	589.6
1868.5000	589.607
1869.0000	589.701
1869.5000	589.8
1870.0000	589.913
1870.5000	589.849
1871.0000	589.77
1871.5000	589.744
1872.0000	589.658
1872.5000	589.763
1873.0000	589.982
1873.5000	590.101
1874.0000	590.148
1874.5000	590.202
1875.0000	590.091
1875.5000	589.99
1876.0000	590.088
1876.5000	590.125
1877.0000	590.105
1877.5000	590.061
1878.0000	590.041
1878.5000	590.076
1879.0000	590.156
1879.5000	590.322
1880.0000	590.329
1880.5000	590.372
1881.0000	590.397
1881.5000	590.355
1882.0000	590.382
1882.5000	590.372
1883.0000	590.317
1883.5000	590.429
1884.0000	590.446
1884.5000	590.437
1885.0000	590.532
1885.5000	590.498
1886.0000	590.594
1886.5000	590.655
1887.0000	590.662
1887.5000	590.712
1888.0000	590.729
1888.5000	590.778
1889.0000	590.705
1889.5000	590.727
1890.0000	590.674
1890.5000	590.745
1891.0000	590.838
1891.5000	590.866
1892.0000	590.867
1892.5000	590.798
1893.0000	590.89
1893.5000	590.849
1894.0000	590.952
1894.5000	590.978
1895.0000	590.988
1895.5000	591.07
1896.0000	591.074
1896.5000	591.196
1897.0000	591.205
1897.5000	591.245
1898.0000	591.281
1898.5000	591.234
1899.0000	591.242
1899.5000	591.221
1900.0000	591.32
1900.5000	591.306
1901.0000	591.383
1901.5000	591.42
1902.0000	591.375
1902.5000	591.463
1903.0000	591.449
1903.5000	591.559
1904.0000	591.599
1904.5000	591.592
1905.0000	591.713
1905.5000	591.753
1906.0000	591.741
1906.5000	591.756
1907.0000	591.701
1907.5000	591.703
1908.0000	591.766
1908.5000	591.811
1909.0000	591.892
1909.5000	591.819
1910.0000	591.745
1910.5000	591.776
1911.0000	591.727
1911.5000	591.734
1912.0000	591.93
1912.5000	591.855
1913.0000	591.912
1913.5000	592.053
1914.0000	591.972
1914.5000	592.098
1915.0000	592.125
1915.5000	592.107
1916.0000	591.998
1916.5000	592
1917.0000	592.061
1917.5000	592.105
1918.0000	592.251
1918.5000	592.242
1919.0000	592.275
1919.5000	592.304
1920.0000	592.347
1920.5000	592.46
1921.0000	592.436
1921.5000	592.411
1922.0000	592.391
1922.5000	592.38
1923.0000	592.344
1923.5000	592.413
1924.0000	592.522
1924.5000	592.601
1925.0000	592.644
1925.5000	592.673
1926.0000	592.643
1926.5000	592.56
1927.0000	592.644
1927.5000	592.648
1928.0000	592.573
1928.5000	592.624
1929.0000	592.681
1929.5000	592.725
1930.0000	592.888
1930.5000	592.981
1931.0000	593.036
1931.5000	593.075
1932.0000	593.113
1932.5000	593.016
1933.0000	592.911
1933.5000	592.971
1934.0000	592.991
1934.5000	592.985
1935.0000	593.058
1935.5000	593.003
1936.0000	592.861
1936.5000	593.062
1937.0000	593.083
1937.5000	593.201
1938.0000	593.386
1938.5000	593.332
1939.0000	593.377
1939.5000	593.377
1940.0000	593.374
1940.5000	593.29
1941.0000	593.234
1941.5000	593.295
1942.0000	593.359
1942.5000	593.472
1943.0000	593.628
1943.5000	593.546
1944.0000	593.504
1944.5000	593.52
1945.0000	593.45
1945.5000	593.517
1946.0000	593.541
1946.5000	593.595
1947.0000	593.716
1947.5000	593.67
1948.0000	593.655
1948.5000	593.632
1949.0000	593.578
1949.5000	593.674
1950.0000	593.88
1950.5000	593.994
1951.0000	594.118
1951.5000	594.03
1952.0000	593.933
1952.5000	593.893
1953.0000	593.799
1953.5000	593.893
1954.0000	593.883
1954.5000	593.785
1955.0000	593.907
1955.5000	593.96
1956.0000	593.904
1956.5000	594.114
1957.0000	594.07
1957.5000	593.965
1958.0000	594.077
1958.5000	594.05
1959.0000	594.086
1959.5000	594.212
1960.0000	594.217
1960.5000	594.261
1961.0000	594.265
1961.5000	594.264
1962.0000	594.31
1962.5000	594.288
1963.0000	594.249
1963.5000	594.303
1964.0000	594.303
1964.5000	594.378
1965.0000	594.466
1965.5000	594.396
1966.0000	594.545
1966.5000	594.449
1967.0000	594.52
1967.5000	594.694
1968.0000	594.784
1968.5000	594.923
1969.0000	594.844
1969.5000	594.775
1970.0000	594.651
1970.5000	594.634
1971.0000	594.644
1971.5000	594.701
1972.0000	594.795
1972.5000	594.762
1973.0000	594.803
1973.5000	594.739
1974.0000	594.695
1974.5000	594.747
1975.0000	594.804
1975.5000	594.935
1976.0000	594.904
1976.5000	595.06
1977.0000	595.131
1977.5000	595.155
1978.0000	595.233
1978.5000	595.033
1979.0000	595.106
1979.5000	595.059
1980.0000	595.033
1980.5000	595.192
1981.0000	595.136
1981.5000	595.228
1982.0000	595.254
1982.5000	595.232
1983.0000	595.343
1983.5000	595.277
1984.0000	595.304
1984.5000	595.378
1985.0000	595.324
1985.5000	595.371
1986.0000	595.457
1986.5000	595.467
1987.0000	595.493
1987.5000	595.467
1988.0000	595.505
1988.5000	595.589
1989.0000	595.51
1989.5000	595.586
1990.0000	595.557
1990.5000	595.457
1991.0000	595.526
1991.5000	595.585
1992.0000	595.695
1992.5000	595.843
1993.0000	595.801
1993.5000	595.856
1994.0000	595.741
1994.5000	595.767
1995.0000	595.907
1995.5000	595.865
1996.0000	595.975
1996.5000	595.836
1997.0000	595.885
1997.5000	595.885
1998.0000	595.848
1998.5000	595.94
1999.0000	595.985
1999.5000	596.105
2000.0000	596.124
2000.5000	596.14
2001.0000	596.047
2001.5000	596.012
2002.0000	596.073
2002.5000	596.099
2003.0000	596.189
2003.5000	596.229
2004.0000	596.142
2004.5000	596.15
2005.0000	596.149
2005.5000	596.154
2006.0000	596.28
2006.5000	596.298
2007.0000	596.297
2007.5000	596.24
2008.0000	596.267
2008.5000	596.394
2009.0000	596.365
2009.5000	596.512
2010.0000	596.516
2010.5000	596.453
2011.0000	596.457
2011.5000	596.375
2012.0000	596.48
2012.5000	596.544
2013.0000	596.654
2013.5000	596.71
2014.0000	596.636
2014.5000	596.68
2015.0000	596.73
2015.5000	596.655
2016.0000	596.572
2016.5000	596.506
2017.0000	596.584
2017.5000	596.616
2018.0000	596.779
2018.5000	596.827
2019.0000	596.642
2019.5000	596.875
2020.0000	596.885
2020.5000	597.035
2021.0000	597.086
2021.5000	596.934
2022.0000	596.925
2022.5000	596.794
2023.0000	596.891
2023.5000	596.937
2024.0000	596.918
2024.5000	596.917
2025.0000	596.953
2025.5000	597.062
2026.0000	597.058
2026.5000	597.136
2027.0000	597.103
2027.5000	597.002
2028.0000	597.041
2028.5000	597.124
2029.0000	597.188
2029.5000	597.294
2030.0000	597.411
2030.5000	597.338
2031.0000	597.29
2031.5000	597.302
2032.0000	597.316
2032.5000	597.404
2033.0000	597.442
2033.5000	597.406
2034.0000	597.341
2034.5000	597.267
2035.0000	597.305
2035.5000	597.365
2036.0000	597.411
2036.5000	597.493
2037.0000	597.538
2037.5000	597.563
2038.0000	597.563
2038.5000	597.426
2039.0000	597.374
2039.5000	597.32
2040.0000	597.398
2040.5000	597.456
2041.0000	597.654
2041.5000	597.726
2042.0000	597.618
2042.5000	597.771
2043.0000	597.758
2043.5000	597.771
2044.0000	597.852
2044.5000	597.936
2045.0000	597.852
2045.5000	597.838
2046.0000	597.917
2046.5000	597.926
2047.0000	597.959
2047.5000	597.975
2048.0000	597.955
2048.5000	597.909
2049.0000	597.953
2049.5000	598.075
2050.0000	598.131
2050.5000	598.061
2051.0000	598.056
2051.5000	598.061
2052.0000	598.052
2052.5000	598.055
2053.0000	598.138
2053.5000	598.007
2054.0000	598.073
2054.5000	598.151
2055.0000	598.143
2055.5000	598.257
2056.0000	598.287
2056.5000	598.302
2057.0000	598.31
2057.5000	598.294
2058.0000	598.304
2058.5000	598.306
2059.0000	598.221
2059.5000	598.215
2060.0000	598.221
2060.5000	598.304
2061.0000	598.379
2061.5000	598.424
2062.0000	598.397
2062.5000	598.289
2063.0000	598.246
2063.5000	598.326
2064.0000	598.447
2064.5000	598.521
2065.0000	598.632
2065.5000	598.676
2066.0000	598.596
2066.5000	598.668
2067.0000	598.697
2067.5000	598.603
2068.0000	598.616
2068.5000	598.558
2069.0000	598.449
2069.5000	598.527
2070.0000	598.486
2070.5000	598.538
2071.0000	598.687
2071.5000	598.734
2072.0000	598.737
2072.5000	598.791
2073.0000	598.839
2073.5000	598.819
2074.0000	598.83
2074.5000	598.838
2075.0000	598.792
2075.5000	598.66
2076.0000	598.789
2076.5000	598.857
2077.0000	598.867
2077.5000	598.985
2078.0000	599.018
2078.5000	598.971
2079.0000	598.928
2079.5000	599.1
2080.0000	599.081
2080.5000	599.071
2081.0000	599.201
2081.5000	599.099
2082.0000	598.997
2082.5000	599.095
2083.0000	599.107
2083.5000	599.117
2084.0000	599.25
2084.5000	599.252
2085.0000	599.215
2085.5000	599.146
2086.0000	599.166
2086.5000	599.183
2087.0000	599.233
2087.5000	599.44
2088.0000	599.407
2088.5000	599.37
2089.0000	599.43
2089.5000	599.387
2090.0000	599.416
2090.5000	599.466
2091.0000	599.421
2091.5000	599.572
2092.0000	599.545
2092.5000	599.566
2093.0000	599.679
2093.5000	599.57
2094.0000	599.655
2094.5000	599.703
2095.0000	599.636
2095.5000	599.594
2096.0000	599.627
2096.5000	599.593
2097.0000	599.718
2097.5000	599.889
2098.0000	599.922
2098.5000	599.957
2099.0000	599.762
2099.5000	599.755
2100.0000	599.762
2100.5000	599.78
2101.0000	599.927
2101.5000	599.877
2102.0000	599.917
2102.5000	599.883
2103.0000	599.951
2103.5000	599.833
2104.0000	599.867
2104.5000	599.81
2105.0000	599.686
2105.5000	599.936
2106.0000	599.933
2106.5000	600.109
2107.0000	600.106
2107.5000	599.967
2108.0000	599.969
2108.5000	600.005
2109.0000	600.08
2109.5000	600.127
2110.0000	600.16
2110.5000	600.077
2111.0000	600.156
2111.5000	600.105
2112.0000	600.04
2112.5000	600.137
2113.0000	600.169
2113.5000	600.17
2114.0000	600.232
2114.5000	600.296
2115.0000	600.254
2115.5000	600.364
2116.0000	600.305
2116.5000	600.251
2117.0000	600.328
2117.5000	600.399
2118.0000	600.421
2118.5000	600.461
2119.0000	600.378
2119.5000	600.217
2120.0000	600.258
2120.5000	600.198
2121.0000	600.187
2121.5000	600.304
2122.0000	600.465
2122.5000	600.479
2123.0000	600.518
2123.5000	600.582
2124.0000	600.503
2124.5000	600.532
2125.0000	600.529
2125.5000	600.559
2126.0000	600.551
2126.5000	600.692
2127.0000	600.756
2127.5000	600.781
2128.0000	600.79
2128.5000	600.691
2129.0000	600.71
2129.5000	600.695
2130.0000	600.776
2130.5000	600.809
2131.0000	600.912
2131.5000	600.917
2132.0000	600.876
2132.5000	600.89
2133.0000	600.837
2133.5000	600.857
2134.0000	600.867
2134.5000	600.856
2135.0000	600.792
2135.5000	600.894
2136.0000	600.94
2136.5000	600.963
2137.0000	601.051
2137.5000	601.084
2138.0000	601.087
2138.5000	601.103
2139.0000	601.057
2139.5000	600.864
2140.0000	600.918
2140.5000	601.099
2141.0000	601.227
2141.5000	601.223
2142.0000	601.155
2142.5000	601.081
2143.0000	601.084
2143.5000	601.144
2144.0000	601.285
2144.5000	601.113
2145.0000	601.155
2145.5000	601.138
2146.0000	601.148
2146.5000	601.25
2147.0000	601.223
2147.5000	601.294
2148.0000	601.205
2148.5000	601.231
2149.0000	601.185
2149.5000	601.205
2150.0000	601.211
2150.5000	601.227
2151.0000	601.312
2151.5000	601.403
2152.0000	601.439
2152.5000	601.428
2153.0000	601.359
2153.5000	601.352
2154.0000	601.41
2154.5000	601.491
2155.0000	601.519
2155.5000	601.469
2156.0000	601.446
2156.5000	601.392
2157.0000	601.48
2157.5000	601.511
2158.0000	601.57
2158.5000	601.561
2159.0000	601.543
2159.5000	601.554
2160.0000	601.517
2160.5000	601.641
2161.0000	601.644
2161.5000	601.697
2162.0000	601.719
2162.5000	601.63
2163.0000	601.709
2163.5000	601.671
2164.0000	601.725
2164.5000	601.803
2165.0000	601.806
2165.5000	601.862
2166.0000	601.902
2166.5000	601.979
2167.0000	602.025
2167.5000	602.116
2168.0000	602.063
2168.5000	602.064
2169.0000	602.082
2169.5000	602.006
2170.0000	601.994
2170.5000	601.899
2171.0000	601.882
2171.5000	601.895
2172.0000	601.924
2172.5000	602.142
2173.0000	602.195
2173.5000	602.127
2174.0000	602.142
2174.5000	602.042
2175.0000	601.908
2175.5000	601.975
2176.0000	602.108
2176.5000	602.092
2177.0000	602.2
2177.5000	602.333
2178.0000	602.337
2178.5000	602.335
2179.0000	602.398
2179.5000	602.398
2180.0000	602.349
2180.5000	602.438
2181.0000	602.399
2181.5000	602.374
2182.0000	602.355
2182.5000	602.282
2183.0000	602.175
2183.5000	602.139
2184.0000	602.144
2184.5000	602.2
2185.0000	602.311
2185.5000	602.367
2186.0000	602.494
2186.5000	602.511
2187.0000	602.577
2187.5000	602.545
2188.0000	602.549
2188.5000	602.574
2189.0000	602.484
2189.5000	602.493
2190.0000	602.428
2190.5000	602.437
2191.0000	602.626
2191.5000	602.727
2192.0000	602.758
2192.5000	602.718
2193.0000	602.639
2193.5000	602.609
2194.0000	602.522
2194.5000	602.534
2195.0000	602.524
2195.5000	602.622
2196.0000	602.778
2196.5000	602.842
2197.0000	602.84
2197.5000	602.91
2198.0000	602.994
2198.5000	603.044
2199.0000	603.09
2199.5000	603.049
2200.0000	602.971
2200.5000	603.016
2201.0000	603.075
2201.5000	602.978
2202.0000	602.957
2202.5000	602.888
2203.0000	602.809
2203.5000	602.838
2204.0000	602.839
2204.5000	602.784
2205.0000	602.747
2205.5000	602.762
2206.0000	602.777
2206.5000	602.783
2207.0000	602.945
2207.5000	603.024
2208.0000	603.009
2208.5000	603.161
2209.0000	603.1
2209.5000	603.075
2210.0000	603.167
2210.5000	603.14
2211.0000	603.247
2211.5000	603.182
2212.0000	603.15
2212.5000	603.033
2213.0000	602.977
2213.5000	603.01
2214.0000	603.009
2214.5000	603.187
2215.0000	603.193
2215.5000	603.315
2216.0000	603.393
2216.5000	603.39
2217.0000	603.529
2217.5000	603.478
2218.0000	603.488
2218.5000	603.575
2219.0000	603.494
2219.5000	603.482
2220.0000	603.509
2220.5000	603.503
2221.0000	603.334
2221.5000	603.374
2222.0000	603.36
2222.5000	603.17
2223.0000	603.323
2223.5000	603.283
2224.0000	603.275
2224.5000	603.441
2225.0000	603.527
2225.5000	603.61
2226.0000	603.64
2226.5000	603.631
2227.0000	603.543
2227.5000	603.562
2228.0000	603.575
2228.5000	603.53
2229.0000	603.556
2229.5000	603.664
2230.0000	603.679
2230.5000	603.697
2231.0000	603.842
2231.5000	603.726
2232.0000	603.725
2232.5000	603.788
2233.0000	603.613
2233.5000	603.648
2234.0000	603.711
2234.5000	603.755
2235.0000	603.759
2235.5000	603.733
2236.0000	603.716
2236.5000	603.605
2237.0000	603.684
2237.5000	603.711
2238.0000	603.879
2238.5000	604.002
2239.0000	604.157
2239.5000	604.156
2240.0000	604.093
2240.5000	604.127
2241.0000	604.07
2241.5000	604.232
2242.0000	604.04
2242.5000	604.119
2243.0000	604.109
2243.5000	604.132
2244.0000	604.256
2244.5000	604.176
2245.0000	604.14
2245.5000	604.098
2246.0000	604.018
2246.5000	604.056
2247.0000	604.039
2247.5000	603.989
2248.0000	604.078
2248.5000	604.117
2249.0000	604.133
2249.5000	604.235
2250.0000	604.259
2250.5000	604.149
2251.0000	604.19
2251.5000	604.086
2252.0000	604.2
2252.5000	604.232
2253.0000	604.263
2253.5000	604.29
2254.0000	604.247
2254.5000	604.245
2255.0000	604.24
2255.5000	604.287
2256.0000	604.171
2256.5000	604.324
2257.0000	604.422
2257.5000	604.341
2258.0000	604.455
2258.5000	604.387
2259.0000	604.41
2259.5000	604.559
2260.0000	604.629
2260.5000	604.618
2261.0000	604.463
2261.5000	604.428
2262.0000	604.301
2262.5000	604.374
2263.0000	604.582
2263.5000	604.571
2264.0000	604.724
2264.5000	604.732
2265.0000	604.666
2265.5000	604.713
2266.0000	604.697
2266.5000	604.694
2267.0000	604.698
2267.5000	604.758
2268.0000	604.708
2268.5000	604.704
2269.0000	604.653
2269.5000	604.644
2270.0000	604.716
2270.5000	604.786
2271.0000	604.831
2271.5000	604.762
2272.0000	604.753
2272.5000	604.719
2273.0000	604.746
2273.5000	604.769
2274.0000	604.725
2274.5000	604.617
2275.0000	604.858
2275.5000	604.928
2276.0000	604.923
2276.5000	605.085
2277.0000	604.897
2277.5000	604.92
2278.0000	604.981
2278.5000	604.91
2279.0000	604.941
2279.5000	604.866
2280.0000	604.864
2280.5000	604.886
2281.0000	604.862
2281.5000	604.965
2282.0000	605.033
2282.5000	605.139
2283.0000	605.129
2283.5000	605.082
2284.0000	605.015
2284.5000	604.925
2285.0000	604.956
2285.5000	604.991
2286.0000	605.062
2286.5000	605.092
2287.0000	605.129
2287.5000	605.063
2288.0000	604.962
2288.5000	605.051
2289.0000	605.082
2289.5000	605.139
2290.0000	605.361
2290.5000	605.312
2291.0000	605.349
2291.5000	605.355
2292.0000	605.275
2292.5000	605.331
2293.0000	605.239
2293.5000	605.315
2294.0000	605.307
2294.5000	605.284
2295.0000	605.37
2295.5000	605.348
2296.0000	605.327
2296.5000	605.289
2297.0000	605.163
2297.5000	605.183
2298.0000	605.2
2298.5000	605.109
2299.0000	605.264
2299.5000	605.286
2300.0000	605.409
2300.5000	605.478
2301.0000	605.453
2301.5000	605.355
2302.0000	605.234
2302.5000	605.266
2303.0000	605.222
2303.5000	605.363
2304.0000	605.461
2304.5000	605.581
2305.0000	605.708
2305.5000	605.666
2306.0000	605.661
2306.5000	605.709
2307.0000	605.689
2307.5000	605.718
2308.0000	605.728
2308.5000	605.577
2309.0000	605.536
2309.5000	605.531
2310.0000	605.56
2310.5000	605.678
2311.0000	605.678
2311.5000	605.743
2312.0000	605.83
2312.5000	605.827
2313.0000	605.93
2313.5000	605.955
2314.0000	605.888
2314.5000	605.968
2315.0000	605.92
2315.5000	605.806
2316.0000	605.878
2316.5000	605.867
2317.0000	605.81
2317.5000	605.895
2318.0000	605.82
2318.5000	605.651
2319.0000	605.754
2319.5000	605.794
2320.0000	605.918
2320.5000	606.163
2321.0000	606.088
2321.5000	605.914
2322.0000	605.823
2322.5000	605.684
2323.0000	605.778
2323.5000	605.974
2324.0000	606.078
2324.5000	606.149
2325.0000	606.131
2325.5000	606.14
2326.0000	606.099
2326.5000	606.11
2327.0000	606.234
2327.5000	606.177
2328.0000	606.158
2328.5000	606.127
2329.0000	606.049
2329.5000	606.073
2330.0000	606.112
2330.5000	606.042
2331.0000	606.059
2331.5000	606.129
2332.0000	606.118
2332.5000	606.113
2333.0000	606.061
2333.5000	605.956
2334.0000	606.038
2334.5000	606.284
2335.0000	606.479
2335.5000	606.55
2336.0000	606.468
2336.5000	606.508
2337.0000	606.44
2337.5000	606.433
2338.0000	606.421
2338.5000	606.288
2339.0000	606.186
2339.5000	606.31
2340.0000	606.378
2340.5000	606.389
2341.0000	606.513
2341.5000	606.417
2342.0000	606.356
2342.5000	606.419
2343.0000	606.317
2343.5000	606.383
2344.0000	606.464
2344.5000	606.56
2345.0000	606.636
2345.5000	606.668
2346.0000	606.635
2346.5000	606.471
2347.0000	606.482
2347.5000	606.436
2348.0000	606.528
2348.5000	606.543
2349.0000	606.593
2349.5000	606.716
2350.0000	606.719
2350.5000	606.619
2351.0000	606.513
2351.5000	606.458
2352.0000	606.495
2352.5000	606.614
2353.0000	606.726
2353.5000	606.618
2354.0000	606.51
2354.5000	606.694
2355.0000	606.666
2355.5000	606.761
2356.0000	606.768
2356.5000	606.697
2357.0000	606.722
2357.5000	606.757
2358.0000	606.855
2358.5000	606.882
2359.0000	607.021
2359.5000	606.948
2360.0000	606.986
2360.5000	607.005
2361.0000	606.812
2361.5000	606.952
2362.0000	606.888
2362.5000	606.866
2363.0000	606.946
2363.5000	606.915
2364.0000	606.964
2364.5000	606.897
2365.0000	606.956
2365.5000	607.06
2366.0000	606.997
2366.5000	606.99
2367.0000	606.961
2367.5000	606.84
2368.0000	606.924
2368.5000	606.997
2369.0000	606.974
2369.5000	607.045
2370.0000	607.033
2370.5000	606.98
2371.0000	607.044
2371.5000	606.943
2372.0000	607.022
2372.5000	607.004
2373.0000	607.06
2373.5000	607.154
2374.0000	607.073
2374.5000	607.304
2375.0000	607.264
2375.5000	607.27
2376.0000	607.226
2376.5000	607.109
2377.0000	607.146
2377.5000	607.23
2378.0000	607.386
2378.5000	607.421
2379.0000	607.56
2379.5000	607.428
2380.0000	607.349
2380.5000	607.348
2381.0000	607.144
2381.5000	607.233
2382.0000	607.343
2382.5000	607.326
2383.0000	607.341
2383.5000	607.321
2384.0000	607.304
2384.5000	607.274
2385.0000	607.355
2385.5000	607.596
2386.0000	607.579
2386.5000	607.675
2387.0000	607.604
2387.5000	607.448
2388.0000	607.427
2388.5000	607.338
2389.0000	607.391
2389.5000	607.392
2390.0000	607.542
2390.5000	607.602
2391.0000	607.57
2391.5000	607.57
2392.0000	607.453
2392.5000	607.452
2393.0000	607.438
2393.5000	607.427
2394.0000	607.441
2394.5000	607.572
2395.0000	607.672
2395.5000	607.633
2396.0000	607.612
2396.5000	607.551
2397.0000	607.558
2397.5000	607.684
2398.0000	607.688
2398.5000	607.713
2399.0000	607.748
2399.5000	607.699
2400.0000	607.818
2400.5000	607.807
2401.0000	607.86
2401.5000	607.93
2402.0000	607.884
2402.5000	607.785
2403.0000	607.658
2403.5000	607.581
2404.0000	607.691
2404.5000	607.906
2405.0000	608.045
2405.5000	608.107
2406.0000	608.012
2406.5000	607.952
2407.0000	607.879
2407.5000	607.803
2408.0000	607.876
2408.5000	607.928
2409.0000	608.069
2409.5000	608.195
2410.0000	607.996
2410.5000	608.013
2411.0000	608.03
2411.5000	608.022
2412.0000	608.172
2412.5000	608.079
2413.0000	608.023
2413.5000	608.117
2414.0000	608.113
2414.5000	608.251
2415.0000	608.234
2415.5000	608.163
2416.0000	608.198
2416.5000	608.109
2417.0000	608.266
2417.5000	608.306
2418.0000	608.39
2418.5000	608.467
2419.0000	608.267
2419.5000	608.245
2420.0000	608.196
2420.5000	608.154
2421.0000	608.161
2421.5000	608.244
2422.0000	608.276
2422.5000	608.193
2423.0000	608.268
2423.5000	608.145
2424.0000	608.18
2424.5000	608.388
2425.0000	608.344
2425.5000	608.458
2426.0000	608.375
2426.5000	608.286
2427.0000	608.383
2427.5000	608.36
2428.0000	608.469
2428.5000	608.508
2429.0000	608.5
2429.5000	608.395
2430.0000	608.325
2430.5000	608.362
2431.0000	608.395
2431.5000	608.54
2432.0000	608.55
2432.5000	608.507
2433.0000	608.463
2433.5000	608.401
2434.0000	608.465
2434.5000	608.485
2435.0000	608.53
2435.5000	608.509
2436.0000	608.474
2436.5000	608.548
2437.0000	608.603
2437.5000	608.682
2438.0000	608.765
2438.5000	608.819
2439.0000	608.794
2439.5000	608.771
2440.0000	608.633
2440.5000	608.577
2441.0000	608.657
2441.5000	608.718
2442.0000	608.678
2442.5000	608.693
2443.0000	608.722
2443.5000	608.705
2444.0000	608.824
2444.5000	608.769
2445.0000	608.607
2445.5000	608.636
2446.0000	608.686
2446.5000	608.671
2447.0000	608.768
2447.5000	608.791
2448.0000	608.726
2448.5000	608.759
2449.0000	608.735
2449.5000	608.665
2450.0000	608.743
2450.5000	608.771
2451.0000	608.782
2451.5000	608.836
2452.0000	608.799
2452.5000	608.842
2453.0000	608.791
2453.5000	608.783
2454.0000	608.902
2454.5000	608.906
2455.0000	608.826
2455.5000	608.978
2456.0000	608.919
2456.5000	609.043
2457.0000	609.204
2457.5000	609.12
2458.0000	609.16
2458.5000	609.029
2459.0000	609.093
2459.5000	609.071
2460.0000	609.043
2460.5000	609.074
2461.0000	609.103
2461.5000	609.11
2462.0000	609.124
2462.5000	609.105
2463.0000	609.045
2463.5000	609.062
2464.0000	609.07
2464.5000	609.195
2465.0000	609.194
2465.5000	609.29
2466.0000	609.208
2466.5000	609.17
2467.0000	609.155
2467.5000	609.183
2468.0000	609.292
2468.5000	609.221
2469.0000	609.271
2469.5000	609.113
2470.0000	609.202
2470.5000	609.267
2471.0000	609.346
2471.5000	609.44
2472.0000	609.384
2472.5000	609.304
2473.0000	609.273
2473.5000	609.078
2474.0000	609.035
2474.5000	609.122
2475.0000	609.138
2475.5000	609.346
2476.0000	609.402
2476.5000	609.486
2477.0000	609.452
2477.5000	609.365
2478.0000	609.409
2478.5000	609.398
2479.0000	609.455
2479.5000	609.54
2480.0000	609.553
2480.5000	609.499
2481.0000	609.521
2481.5000	609.572
2482.0000	609.443
2482.5000	609.551
2483.0000	609.433
2483.5000	609.527
2484.0000	609.684
2484.5000	609.536
2485.0000	609.561
2485.5000	609.484
2486.0000	609.462
2486.5000	609.449
2487.0000	609.507
2487.5000	609.45
2488.0000	609.547
2488.5000	609.604
2489.0000	609.623
2489.5000	609.614
2490.0000	609.544
2490.5000	609.574
2491.0000	609.609
2491.5000	609.647
2492.0000	609.666
2492.5000	609.753
2493.0000	609.797
2493.5000	609.733
2494.0000	609.815
2494.5000	609.803
2495.0000	609.725
2495.5000	609.862
2496.0000	609.862
2496.5000	609.808
2497.0000	609.906
2497.5000	609.888
2498.0000	609.768
2498.5000	609.86
2499.0000	609.821
2499.5000	609.845
2500.0000	609.924
2500.5000	609.822
2501.0000	609.878
2501.5000	609.915
2502.0000	609.92
2502.5000	609.993
2503.0000	610.006
2503.5000	609.935
2504.0000	609.894
2504.5000	609.886
2505.0000	609.777
2505.5000	609.774
2506.0000	609.826
2506.5000	609.92
2507.0000	609.927
2507.5000	610.02
2508.0000	610.02
2508.5000	609.963
2509.0000	610.126
2509.5000	610.201
2510.0000	610.225
2510.5000	610.145
2511.0000	610.054
2511.5000	609.954
2512.0000	609.956
2512.5000	610.103
2513.0000	610.107
2513.5000	610.137
2514.0000	610.134
2514.5000	610.066
2515.0000	610.211
2515.5000	610.225
2516.0000	610.158
2516.5000	610.187
2517.0000	610.076
2517.5000	610.059
2518.0000	610.207
2518.5000	610.313
2519.0000	610.334
2519.5000	610.367
2520.0000	610.287
2520.5000	610.266
2521.0000	610.286
2521.5000	610.314
2522.0000	610.325
2522.5000	610.19
2523.0000	610.187
2523.5000	610.186
2524.0000	610.148
2524.5000	610.315
2525.0000	610.274
2525.5000	610.308
2526.0000	610.372
2526.5000	610.366
2527.0000	610.405
2527.5000	610.352
2528.0000	610.43
2528.5000	610.284
2529.0000	610.383
2529.5000	610.437
2530.0000	610.395
2530.5000	610.461
2531.0000	610.399
2531.5000	610.564
2532.0000	610.422
2532.5000	610.383
2533.0000	610.458
2533.5000	610.306
2534.0000	610.417
2534.5000	610.504
2535.0000	610.409
2535.5000	610.361
2536.0000	610.403
2536.5000	610.411
2537.0000	610.449
2537.5000	610.533
2538.0000	610.625
2538.5000	610.714
2539.0000	610.707
2539.5000	610.692
2540.0000	610.672
2540.5000	610.506
2541.0000	610.466
2541.5000	610.5
2542.0000	610.541
2542.5000	610.627
2543.0000	610.724
2543.5000	610.764
2544.0000	610.61
2544.5000	610.83
2545.0000	610.997
2545.5000	610.902
2546.0000	611.003
2546.5000	610.887
2547.0000	610.81
2547.5000	610.923
2548.0000	611.007
2548.5000	610.905
2549.0000	610.704
2549.5000	610.717
2550.0000	610.657
2550.5000	610.667
2551.0000	610.819
2551.5000	610.688
2552.0000	610.685
2552.5000	610.761
2553.0000	610.827
2553.5000	610.987
2554.0000	611.052
2554.5000	611.142
2555.0000	610.968
2555.5000	610.999
2556.0000	611.042
2556.5000	610.896
2557.0000	611.121
2557.5000	610.994
2558.0000	611.025
2558.5000	611.158
2559.0000	611.03
2559.5000	611.039
2560.0000	610.978
2560.5000	610.996
2561.0000	611.02
2561.5000	611.151
2562.0000	611.139
2562.5000	610.997
2563.0000	611.12
2563.5000	611.081
2564.0000	611.055
2564.5000	611.103
2565.0000	611.103
2565.5000	610.941
2566.0000	610.919
2566.5000	610.908
2567.0000	610.858
2567.5000	610.863
2568.0000	610.967
2568.5000	611.013
2569.0000	610.958
2569.5000	611.062
2570.0000	610.98
2570.5000	611.03
2571.0000	611.048
2571.5000	611.159
2572.0000	611.172
2572.5000	611.115
2573.0000	611.231
2573.5000	611.351
2574.0000	611.337
2574.5000	611.461
2575.0000	611.401
2575.5000	611.253
2576.0000	611.33
2576.5000	611.295
2577.0000	611.341
2577.5000	611.26
2578.0000	611.333
2578.5000	611.22
2579.0000	611.214
2579.5000	611.381
2580.0000	611.308
2580.5000	611.341
2581.0000	611.412
2581.5000	611.302
2582.0000	611.324
2582.5000	611.474
2583.0000	611.392
2583.5000	611.467
2584.0000	611.538
2584.5000	611.464
2585.0000	611.497
2585.5000	611.443
2586.0000	611.445
2586.5000	611.579
2587.0000	611.572
2587.5000	611.644
2588.0000	611.652
2588.5000	611.566
2589.0000	611.622
2589.5000	611.638
2590.0000	611.523
2590.5000	611.504
2591.0000	611.643
2591.5000	611.623
2592.0000	611.75
2592.5000	611.751
2593.0000	611.544
2593.5000	611.455
2594.0000	611.464
2594.5000	611.531
2595.0000	611.653
2595.5000	611.774
2596.0000	611.654
2596.5000	611.638
2597.0000	611.657
2597.5000	611.655
2598.0000	611.774
2598.5000	611.756
2599.0000	611.709
2599.5000	611.704
2600.0000	611.74
2600.5000	611.771
2601.0000	611.809
2601.5000	611.827
2602.0000	611.765
2602.5000	611.886
2603.0000	611.881
2603.5000	611.875
2604.0000	611.925
2604.5000	611.808
2605.0000	611.76
2605.5000	611.794
2606.0000	611.799
2606.5000	611.772
2607.0000	611.842
2607.5000	611.81
2608.0000	611.789
2608.5000	611.811
2609.0000	611.796
2609.5000	611.76
2610.0000	611.809
2610.5000	611.794
2611.0000	611.775
2611.5000	611.795
2612.0000	611.739
2612.5000	611.831
2613.0000	611.786
2613.5000	611.829
2614.0000	611.87
2614.5000	611.91
2615.0000	611.895
2615.5000	611.916
2616.0000	611.913
2616.5000	611.901
2617.0000	611.866
2617.5000	611.807
2618.0000	611.818
2618.5000	611.756
2619.0000	611.881
2619.5000	612.048
2620.0000	612.093
2620.5000	612.094
2621.0000	612.029
2621.5000	611.916
2622.0000	611.91
2622.5000	611.931
2623.0000	611.975
2623.5000	612.005
2624.0000	612.051
2624.5000	612.067
2625.0000	612.127
2625.5000	612.222
2626.0000	612.17
2626.5000	612.246
2627.0000	612.193
2627.5000	612.113
2628.0000	612.119
2628.5000	611.991
2629.0000	612.058
2629.5000	612.011
2630.0000	612.117
2630.5000	612.133
2631.0000	612.204
2631.5000	612.235
2632.0000	612.11
2632.5000	612.219
2633.0000	612.078
2633.5000	612.156
2634.0000	612.241
2634.5000	612.203
2635.0000	612.2
2635.5000	612.231
2636.0000	612.22
2636.5000	612.322
2637.0000	612.435
2637.5000	612.355
2638.0000	612.31
2638.5000	612.198
2639.0000	612.119
2639.5000	612.19
2640.0000	612.386
2640.5000	612.377
2641.0000	612.466
2641.5000	612.494
2642.0000	612.224
2642.5000	612.271
2643.0000	612.296
2643.5000	612.328
2644.0000	612.512
2644.5000	612.562
2645.0000	612.651
2645.5000	612.575
2646.0000	612.516
2646.5000	612.499
2647.0000	612.38
2647.5000	612.48
2648.0000	612.647
2648.5000	612.729
2649.0000	612.592
2649.5000	612.422
2650.0000	612.377
2650.5000	612.253
2651.0000	612.387
2651.5000	612.51
2652.0000	612.479
2652.5000	612.537
2653.0000	612.585
2653.5000	612.531
2654.0000	612.473
2654.5000	612.505
2655.0000	612.428
2655.5000	612.516
2656.0000	612.541
2656.5000	612.517
2657.0000	612.568
2657.5000	612.517
2658.0000	612.626
2658.5000	612.649
2659.0000	612.687
2659.5000	612.708
2660.0000	612.676
2660.5000	612.606
2661.0000	612.658
2661.5000	612.625
2662.0000	612.557
2662.5000	612.685
2663.0000	612.772
2663.5000	612.876
2664.0000	612.836
2664.5000	612.819
2665.0000	612.634
2665.5000	612.643
2666.0000	612.792
2666.5000	612.701
2667.0000	612.811
2667.5000	612.768
2668.0000	612.743
2668.5000	612.704
2669.0000	612.722
2669.5000	612.716
2670.0000	612.668
2670.5000	612.854
2671.0000	612.822
2671.5000	612.848
2672.0000	612.834
2672.5000	612.896
2673.0000	612.91
2673.5000	612.889
2674.0000	612.886
2674.5000	612.808
2675.0000	612.754
2675.5000	612.861
2676.0000	612.874
2676.5000	612.918
2677.0000	612.854
2677.5000	612.757
2678.0000	612.684
2678.5000	612.698
2679.0000	612.868
2679.5000	612.926
2680.0000	613.064
2680.5000	612.901
2681.0000	612.924
2681.5000	612.97
2682.0000	612.922
2682.5000	612.917
2683.0000	612.926
2683.5000	612.781
2684.0000	612.841
2684.5000	613.029
2685.0000	613.076
2685.5000	613.186
2686.0000	613.275
2686.5000	613.159
2687.0000	613.072
2687.5000	613.037
2688.0000	612.962
2688.5000	612.982
2689.0000	613.029
2689.5000	612.953
2690.0000	613.099
2690.5000	613.17
2691.0000	613.064
2691.5000	613.212
2692.0000	613.052
2692.5000	612.992
2693.0000	613.105
2693.5000	613.135
2694.0000	613.128
2694.5000	613.062
2695.0000	612.94
2695.5000	612.876
2696.0000	612.898
2696.5000	612.973
2697.0000	613.178
2697.5000	613.163
2698.0000	613.189
2698.5000	613.29
2699.0000	613.151
2699.5000	613.231
2700.0000	613.245
2700.5000	613.19
2701.0000	613.273
2701.5000	613.267
2702.0000	613.184
2702.5000	613.232
2703.0000	613.199
2703.5000	613.241
2704.0000	613.273
2704.5000	613.318
2705.0000	613.274
2705.5000	613.178
2706.0000	613.34
2706.5000	613.312
2707.0000	613.384
2707.5000	613.349
2708.0000	613.278
2708.5000	613.286
2709.0000	613.332
2709.5000	613.403
2710.0000	613.392
2710.5000	613.453
2711.0000	613.332
2711.5000	613.429
2712.0000	613.44
2712.5000	613.317
2713.0000	613.38
2713.5000	613.348
2714.0000	613.438
2714.5000	613.411
2715.0000	613.41
2715.5000	613.448
2716.0000	613.388
2716.5000	613.484
2717.0000	613.485
2717.5000	613.342
2718.0000	613.29
2718.5000	613.281
2719.0000	613.264
2719.5000	613.438
2720.0000	613.528
2720.5000	613.512
2721.0000	613.588
2721.5000	613.607
2722.0000	613.529
2722.5000	613.456
2723.0000	613.477
2723.5000	613.43
2724.0000	613.52
2724.5000	613.623
2725.0000	613.614
2725.5000	613.605
2726.0000	613.557
2726.5000	613.549
2727.0000	613.621
2727.5000	613.594
2728.0000	613.567
2728.5000	613.599
2729.0000	613.527
2729.5000	613.537
2730.0000	613.599
2730.5000	613.466
2731.0000	613.416
2731.5000	613.505
2732.0000	613.463
2732.5000	613.543
2733.0000	613.7
2733.5000	613.717
2734.0000	613.707
2734.5000	613.75
2735.0000	613.634
2735.5000	613.514
2736.0000	613.62
2736.5000	613.638
2737.0000	613.57
2737.5000	613.645
2738.0000	613.516
2738.5000	613.606
2739.0000	613.644
2739.5000	613.676
2740.0000	613.757
2740.5000	613.598
2741.0000	613.757
2741.5000	613.61
2742.0000	613.582
2742.5000	613.658
2743.0000	613.612
2743.5000	613.691
2744.0000	613.767
2744.5000	613.772
2745.0000	613.815
2745.5000	613.867
2746.0000	613.914
2746.5000	613.901
2747.0000	613.899
2747.5000	613.905
2748.0000	613.678
2748.5000	613.792
2749.0000	613.703
2749.5000	613.7
2750.0000	613.86
2750.5000	613.78
2751.0000	613.861
2751.5000	613.881
2752.0000	613.917
2752.5000	613.908
2753.0000	613.945
2753.5000	613.94
2754.0000	613.968
2754.5000	614.096
2755.0000	614.06
2755.5000	614.069
2756.0000	614.029
2756.5000	613.877
2757.0000	613.767
2757.5000	613.68
2758.0000	613.645
2758.5000	613.699
2759.0000	613.706
2759.5000	613.827
2760.0000	613.933
2760.5000	613.948
2761.0000	613.89
2761.5000	613.824
2762.0000	613.77
2762.5000	613.879
2763.0000	613.988
2763.5000	614.155
2764.0000	614.197
2764.5000	614.054
2765.0000	614.066
2765.5000	613.88
2766.0000	613.938
2766.5000	613.984
2767.0000	614.005
2767.5000	614.162
2768.0000	614.201
2768.5000	614.255
2769.0000	614.303
2769.5000	614.249
2770.0000	614.08
2770.5000	614.068
2771.0000	614.043
2771.5000	614.024
2772.0000	614.039
2772.5000	613.972
2773.0000	613.983
2773.5000	613.908
2774.0000	613.948
2774.5000	614.063
2775.0000	613.955
2775.5000	614.069
2776.0000	614.076
2776.5000	614.044
2777.0000	614.184
2777.5000	614.196
2778.0000	614.278
2778.5000	614.252
2779.0000	614.17
2779.5000	614.244
2780.0000	614.251
2780.5000	614.155
2781.0000	614.292
2781.5000	614.152
2782.0000	614.072
2782.5000	614.25
2783.0000	614.263
2783.5000	614.274
2784.0000	614.308
2784.5000	614.301
2785.0000	614.254
2785.5000	614.242
2786.0000	614.236
2786.5000	614.206
2787.0000	614.147
2787.5000	614.333
2788.0000	614.402
2788.5000	614.431
2789.0000	614.488
2789.5000	614.4
2790.0000	614.298
2790.5000	614.254
2791.0000	614.334
2791.5000	614.269
2792.0000	614.302
2792.5000	614.339
2793.0000	614.275
2793.5000	614.312
2794.0000	614.35
2794.5000	614.346
2795.0000	614.272
2795.5000	614.354
2796.0000	614.437
2796.5000	614.5
2797.0000	614.597
2797.5000	614.537
2798.0000	614.41
2798.5000	614.303
2799.0000	614.338
2799.5000	614.371
2800.0000	614.347
2800.5000	614.333
2801.0000	614.29
2801.5000	614.317
2802.0000	614.401
2802.5000	614.354
2803.0000	614.367
2803.5000	614.238
2804.0000	614.321
2804.5000	614.54
2805.0000	614.547
2805.5000	614.573
2806.0000	614.582
2806.5000	614.537
2807.0000	614.596
2807.5000	614.666
2808.0000	614.673
2808.5000	614.683
2809.0000	614.63
2809.5000	614.658
2810.0000	614.674
2810.5000	614.591
2811.0000	614.658
2811.5000	614.682
2812.0000	614.587
2812.5000	614.589
2813.0000	614.639
2813.5000	614.626
2814.0000	614.632
2814.5000	614.59
2815.0000	614.536
2815.5000	614.402
2816.0000	614.462
2816.5000	614.588
2817.0000	614.659
2817.5000	614.8
2818.0000	614.741
2818.5000	614.739
2819.0000	614.606
2819.5000	614.64
2820.0000	614.674
2820.5000	614.787
2821.0000	614.828
2821.5000	614.804
2822.0000	614.847
2822.5000	614.706
2823.0000	614.664
2823.5000	614.704
2824.0000	614.772
2824.5000	614.841
2825.0000	614.879
2825.5000	614.867
2826.0000	614.763
2826.5000	614.643
2827.0000	614.706
2827.5000	614.819
2828.0000	614.761
2828.5000	614.805
2829.0000	614.616
2829.5000	614.418
2830.0000	614.493
2830.5000	614.491
2831.0000	614.715
2831.5000	614.791
2832.0000	614.747
2832.5000	614.777
2833.0000	614.717
2833.5000	614.744
2834.0000	614.755
2834.5000	614.803
2835.0000	614.853
2835.5000	614.895
2836.0000	614.902
2836.5000	614.819
2837.0000	614.765
2837.5000	614.648
2838.0000	614.81
2838.5000	614.929
2839.0000	614.96
2839.5000	615.076
2840.0000	614.967
2840.5000	614.878
2841.0000	615.048
2841.5000	615.014
2842.0000	615.075
2842.5000	615.066
2843.0000	614.941
2843.5000	614.939
2844.0000	614.835
2844.5000	614.9
2845.0000	614.815
2845.5000	614.809
2846.0000	614.855
2846.5000	614.923
2847.0000	615.009
2847.5000	614.978
2848.0000	614.956
2848.5000	614.993
2849.0000	614.958
2849.5000	615.028
2850.0000	615.142
2850.5000	615.016
2851.0000	614.993
2851.5000	615.169
2852.0000	615.149
2852.5000	615.203
2853.0000	615.23
2853.5000	615.115
2854.0000	615.079
2854.5000	615.131
2855.0000	615.221
2855.5000	615.195
2856.0000	615.379
2856.5000	615.334
2857.0000	615.236
2857.5000	615.226
2858.0000	615.018
2858.5000	614.919
2859.0000	615.087
2859.5000	615.084
2860.0000	615.086
2860.5000	615.207
2861.0000	615.047
2861.5000	614.954
2862.0000	615.02
2862.5000	615.103
2863.0000	614.9
2863.5000	614.735
2864.0000	614.419
2864.5000	614.015
2865.0000	614.013
2865.5000	614.035
2866.0000	614.188
2866.5000	614.257
2867.0000	614.334
2867.5000	614.575
2868.0000	614.588
2868.5000	614.761
2869.0000	614.751
2869.5000	614.653
2870.0000	614.634
2870.5000	614.612
2871.0000	614.723
2871.5000	614.648
2872.0000	614.81
2872.5000	614.848
2873.0000	614.834
2873.5000	615.126
2874.0000	615.108
2874.5000	615.144
2875.0000	615.202
2875.5000	615.041
2876.0000	615.068
2876.5000	615.134
2877.0000	615.174
2877.5000	615.179
2878.0000	615.16
2878.5000	615.18
2879.0000	615.182
2879.5000	615.25
2880.0000	615.226
2880.5000	615.175
2881.0000	615.022
2881.5000	615.094
2882.0000	615.255
2882.5000	615.267
2883.0000	615.335
2883.5000	615.302
2884.0000	615.304
2884.5000	615.272
2885.0000	615.432
2885.5000	615.326
2886.0000	615.151
2886.5000	615.204
2887.0000	615.056
2887.5000	614.984
2888.0000	615.087
2888.5000	615.107
2889.0000	615.132
2889.5000	615.219
2890.0000	615.159
2890.5000	615.143
2891.0000	615.234
2891.5000	615.24
2892.0000	615.179
2892.5000	615.217
2893.0000	615.329
2893.5000	615.263
2894.0000	615.304
2894.5000	615.265
2895.0000	615.204
2895.5000	615.271
2896.0000	615.26
2896.5000	615.322
2897.0000	615.275
2897.5000	615.285
2898.0000	615.398
2898.5000	615.367
2899.0000	615.437
2899.5000	615.469
2900.0000	615.486
2900.5000	615.55
2901.0000	615.403
2901.5000	615.42
2902.0000	615.45
2902.5000	615.263
2903.0000	615.268
2903.5000	615.31
2904.0000	615.263
2904.5000	615.431
2905.0000	615.586
2905.5000	615.491
2906.0000	615.531
2906.5000	615.506
2907.0000	615.456
2907.5000	615.586
2908.0000	615.463
2908.5000	615.433
2909.0000	615.483
2909.5000	615.428
2910.0000	615.5
2910.5000	615.52
2911.0000	615.53
2911.5000	615.558
2912.0000	615.55
2912.5000	615.589
2913.0000	615.518
2913.5000	615.611
2914.0000	615.676
2914.5000	615.66
2915.0000	615.678
2915.5000	615.728
2916.0000	615.708
2916.5000	615.682
2917.0000	615.625
2917.5000	615.544
2918.0000	615.535
2918.5000	615.551
2919.0000	615.636
2919.5000	615.554
2920.0000	615.571
2920.5000	615.614
2921.0000	615.462
2921.5000	615.42
2922.0000	615.472
2922.5000	615.502
2923.0000	615.623
2923.5000	615.72
2924.0000	615.738
2924.5000	615.688
2925.0000	615.704
2925.5000	615.659
2926.0000	615.644
2926.5000	615.694
2927.0000	615.636
2927.5000	615.684
2928.0000	615.605
2928.5000	615.573
2929.0000	615.665
2929.5000	615.647
2930.0000	615.724
2930.5000	615.81
2931.0000	615.827
2931.5000	615.898
2932.0000	615.845
2932.5000	615.793
2933.0000	615.655
2933.5000	615.628
2934.0000	615.678
2934.5000	615.744
2935.0000	615.929
2935.5000	615.937
2936.0000	615.929
2936.5000	615.902
2937.0000	615.938
2937.5000	615.935
2938.0000	615.896
2938.5000	615.927
2939.0000	615.891
2939.5000	615.93
2940.0000	615.887
2940.5000	615.794
2941.0000	615.851
2941.5000	615.876
2942.0000	615.852
2942.5000	615.891
2943.0000	615.802
2943.5000	615.702
2944.0000	615.761
2944.5000	615.893
2945.0000	615.855
2945.5000	615.97
2946.0000	615.979
2946.5000	615.89
2947.0000	615.97
2947.5000	615.831
2948.0000	615.901
2948.5000	615.918
2949.0000	615.842
2949.5000	615.932
2950.0000	615.906
2950.5000	615.742
2951.0000	615.803
2951.5000	615.8
2952.0000	615.816
2952.5000	615.929
2953.0000	615.947
2953.5000	615.936
2954.0000	615.954
2954.5000	616.021
2955.0000	616.014
2955.5000	616.045
2956.0000	616.098
2956.5000	616.045
2957.0000	616.024
2957.5000	616.011
2958.0000	616.112
2958.5000	616.112
2959.0000	616.061
2959.5000	616.133
2960.0000	615.935
2960.5000	615.951
2961.0000	615.938
2961.5000	615.732
2962.0000	615.839
2962.5000	615.916
2963.0000	616.022
2963.5000	616.041
2964.0000	615.979
2964.5000	615.796
2965.0000	615.728
2965.5000	615.832
2966.0000	615.86
2966.5000	616.011
2967.0000	616.037
2967.5000	616.028
2968.0000	616.021
2968.5000	615.959
2969.0000	616.018
2969.5000	616.073
2970.0000	616
2970.5000	616.079
2971.0000	616.093
2971.5000	616.053
2972.0000	616.138
2972.5000	616.146
2973.0000	616.02
2973.5000	616.104
2974.0000	616.051
2974.5000	615.933
2975.0000	616.022
2975.5000	615.838
2976.0000	615.889
2976.5000	615.978
2977.0000	615.994
2977.5000	616.236
2978.0000	616.37
2978.5000	616.338
2979.0000	616.298
2979.5000	616.228
2980.0000	616.24
2980.5000	616.256
2981.0000	616.248
2981.5000	616.272
2982.0000	616.189
2982.5000	616.042
2983.0000	616.19
2983.5000	616.254
2984.0000	616.157
2984.5000	616.421
2985.0000	616.304
2985.5000	616.173
2986.0000	616.17
2986.5000	616.071
2987.0000	616.225
2987.5000	616.248
2988.0000	616.329
2988.5000	616.307
2989.0000	616.104
2989.5000	616.138
2990.0000	616.307
2990.5000	616.336
2991.0000	616.447
2991.5000	616.454
2992.0000	616.23
2992.5000	616.121
2993.0000	616.001
2993.5000	615.972
2994.0000	616.043
2994.5000	616.122
2995.0000	616.168
2995.5000	616.139
2996.0000	616.035
2996.5000	616.222
2997.0000	616.208
2997.5000	616.25
2998.0000	616.326
2998.5000	616.249
2999.0000	616.355
2999.5000	616.494
3000.0000	616.593
3000.5000	616.625
3001.0000	616.533
3001.5000	616.421
3002.0000	616.398
3002.5000	616.298
3003.0000	616.413
3003.5000	616.533
3004.0000	616.469
3004.5000	616.48
3005.0000	616.406
3005.5000	616.288
3006.0000	616.348
3006.5000	616.388
3007.0000	616.393
3007.5000	616.493
3008.0000	616.457
3008.5000	616.45
3009.0000	616.471
3009.5000	616.414
3010.0000	616.495
3010.5000	616.496
3011.0000	616.464
3011.5000	616.461
3012.0000	616.311
3012.5000	616.23
3013.0000	616.226
3013.5000	616.182
3014.0000	616.211
3014.5000	616.285
3015.0000	616.352
3015.5000	616.309
3016.0000	616.385
3016.5000	616.579
3017.0000	616.504
3017.5000	616.474
3018.0000	616.508
3018.5000	616.377
3019.0000	616.382
3019.5000	616.528
3020.0000	616.535
3020.5000	616.659
3021.0000	616.669
3021.5000	616.703
3022.0000	616.7
3022.5000	616.555
3023.0000	616.595
3023.5000	616.482
3024.0000	616.432
3024.5000	616.269
3025.0000	616.326
3025.5000	616.324
3026.0000	616.379
3026.5000	616.509
3027.0000	616.407
3027.5000	616.456
3028.0000	616.358
3028.5000	616.476
3029.0000	616.442
3029.5000	616.48
3030.0000	616.522
3030.5000	616.478
3031.0000	616.485
3031.5000	616.521
3032.0000	616.543
3032.5000	616.503
3033.0000	616.53
3033.5000	616.499
3034.0000	616.432
3034.5000	616.367
3035.0000	616.425
3035.5000	616.347
3036.0000	616.437
3036.5000	616.526
3037.0000	616.498
3037.5000	616.528
3038.0000	616.576
3038.5000	616.521
3039.0000	616.611
3039.5000	616.708
3040.0000	616.631
3040.5000	616.491
3041.0000	616.4
3041.5000	616.367
3042.0000	616.349
3042.5000	616.497
3043.0000	616.558
3043.5000	616.525
3044.0000	616.578
3044.5000	616.643
3045.0000	616.643
3045.5000	616.704
3046.0000	616.767
3046.5000	616.803
3047.0000	616.875
3047.5000	616.724
3048.0000	616.614
3048.5000	616.445
3049.0000	616.518
3049.5000	616.6
3050.0000	616.613
3050.5000	616.703
3051.0000	616.635
3051.5000	616.739
3052.0000	616.681
3052.5000	616.747
3053.0000	616.724
3053.5000	616.562
3054.0000	616.673
3054.5000	616.498
3055.0000	616.396
3055.5000	616.477
3056.0000	616.489
3056.5000	616.553
3057.0000	616.675
3057.5000	616.63
3058.0000	616.497
3058.5000	616.65
3059.0000	616.749
3059.5000	616.716
3060.0000	616.803
3060.5000	616.788
3061.0000	616.509
3061.5000	616.589
3062.0000	616.581
3062.5000	616.552
3063.0000	616.648
3063.5000	616.583
3064.0000	616.608
3064.5000	616.595
3065.0000	616.605
3065.5000	616.688
3066.0000	616.745
3066.5000	616.746
3067.0000	616.756
3067.5000	616.763
3068.0000	616.691
3068.5000	616.651
3069.0000	616.566
3069.5000	616.654
3070.0000	616.722
3070.5000	616.728
3071.0000	616.758
3071.5000	616.635
3072.0000	616.662
3072.5000	616.67
3073.0000	616.695
3073.5000	616.741
3074.0000	616.618
3074.5000	616.539
3075.0000	616.503
3075.5000	616.472
3076.0000	616.627
3076.5000	616.657
3077.0000	616.826
3077.5000	616.863
3078.0000	616.883
3078.5000	616.958
3079.0000	616.933
3079.5000	616.854
3080.0000	616.774
3080.5000	616.831
3081.0000	616.818
3081.5000	616.801
3082.0000	616.766
3082.5000	616.71
3083.0000	616.746
3083.5000	616.806
3084.0000	616.836
3084.5000	616.827
3085.0000	616.811
3085.5000	616.728
3086.0000	616.665
3086.5000	616.707
3087.0000	616.731
3087.5000	616.861
3088.0000	616.899
3088.5000	616.859
3089.0000	616.807
3089.5000	616.785
3090.0000	616.865
3090.5000	616.841
3091.0000	616.847
3091.5000	616.704
3092.0000	616.677
3092.5000	616.72
3093.0000	616.67
3093.5000	616.822
3094.0000	616.837
3094.5000	616.842
3095.0000	616.902
3095.5000	617.003
3096.0000	616.937
3096.5000	616.931
3097.0000	616.983
3097.5000	616.772
3098.0000	616.784
3098.5000	616.77
3099.0000	616.717
3099.5000	616.944
3100.0000	617.067
3100.5000	617.13
3101.0000	617.062
3101.5000	617.031
3102.0000	616.84
3102.5000	616.846
3103.0000	616.956
3103.5000	616.819
3104.0000	617.031
3104.5000	616.984
3105.0000	617.016
3105.5000	617.015
3106.0000	616.801
3106.5000	616.895
3107.0000	616.901
3107.5000	616.893
3108.0000	616.964
3108.5000	616.84
3109.0000	616.699
3109.5000	616.801
3110.0000	616.771
3110.5000	616.854
3111.0000	616.917
3111.5000	616.854
3112.0000	616.889
3112.5000	616.881
3113.0000	616.888
3113.5000	616.98
3114.0000	617.085
3114.5000	616.927
3115.0000	616.957
3115.5000	616.919
3116.0000	616.771
3116.5000	616.753
3117.0000	616.779
3117.5000	616.798
3118.0000	616.851
3118.5000	616.982
3119.0000	616.977
3119.5000	616.843
3120.0000	616.85
3120.5000	616.928
3121.0000	616.9
3121.5000	616.986
3122.0000	616.952
3122.5000	617.022
3123.0000	616.967
3123.5000	616.935
3124.0000	616.953
3124.5000	616.804
3125.0000	616.761
3125.5000	616.884
3126.0000	616.961
3126.5000	616.981
3127.0000	617.132
3127.5000	617.163
3128.0000	617.242
3128.5000	617.153
3129.0000	617.197
3129.5000	617.079
3130.0000	616.972
3130.5000	617.036
3131.0000	616.894
3131.5000	617.001
3132.0000	616.982
3132.5000	616.999
3133.0000	617.013
3133.5000	616.994
3134.0000	617.044
3134.5000	617.097
3135.0000	617.107
3135.5000	617.08
3136.0000	616.967
3136.5000	616.992
3137.0000	617.009
3137.5000	617.056
3138.0000	617.217
3138.5000	617.206
3139.0000	617.174
3139.5000	617.173
3140.0000	617.065
3140.5000	616.958
3141.0000	616.977
3141.5000	616.953
3142.0000	616.947
3142.5000	617.015
3143.0000	616.995
3143.5000	617.013
3144.0000	617.011
3144.5000	616.996
3145.0000	616.968
3145.5000	616.887
3146.0000	616.92
3146.5000	616.976
3147.0000	617.027
3147.5000	617.061
3148.0000	617.076
3148.5000	617.072
3149.0000	617.075
3149.5000	617.04
3150.0000	617.067
3150.5000	617.095
3151.0000	617.028
3151.5000	617.124
3152.0000	616.991
3152.5000	616.993
3153.0000	617.201
3153.5000	617.076
3154.0000	617.161
3154.5000	617.074
3155.0000	616.969
3155.5000	616.948
3156.0000	616.963
3156.5000	617.051
3157.0000	617.065
3157.5000	617.077
3158.0000	617.136
3158.5000	616.946
3159.0000	616.935
3159.5000	616.958
3160.0000	616.919
3160.5000	617.041
3161.0000	617.004
3161.5000	617.012
3162.0000	617.046
3162.5000	617.157
3163.0000	617.121
3163.5000	617.206
3164.0000	617.169
3164.5000	617.092
3165.0000	617.068
3165.5000	617.076
3166.0000	616.986
3166.5000	616.922
3167.0000	617.078
3167.5000	617.07
3168.0000	617.09
3168.5000	617.186
3169.0000	617.206
3169.5000	617.287
3170.0000	617.376
3170.5000	617.388
3171.0000	617.362
3171.5000	617.217
3172.0000	617.22
3172.5000	617.156
3173.0000	617.084
3173.5000	617.09
3174.0000	617.102
3174.5000	617.078
3175.0000	617.17
3175.5000	617.151
3176.0000	617.18
3176.5000	617.177
3177.0000	617.001
3177.5000	617.093
3178.0000	617.063
3178.5000	617.079
3179.0000	617.244
3179.5000	617.293
3180.0000	617.284
3180.5000	617.362
3181.0000	617.28
3181.5000	617.247
3182.0000	617.259
3182.5000	617.234
3183.0000	617.19
3183.5000	617.18
3184.0000	617.228
3184.5000	617.306
3185.0000	617.37
3185.5000	617.389
3186.0000	617.326
3186.5000	617.251
3187.0000	617.294
3187.5000	617.154
3188.0000	617.137
3188.5000	617.09
3189.0000	617.136
3189.5000	617.255
3190.0000	617.153
3190.5000	617.225
3191.0000	617.17
3191.5000	617.161
3192.0000	617.219
3192.5000	617.242
3193.0000	617.306
3193.5000	617.276
3194.0000	617.382
3194.5000	617.45
3195.0000	617.23
3195.5000	617.261
3196.0000	617.314
3196.5000	617.236
3197.0000	617.384
3197.5000	617.415
3198.0000	617.348
3198.5000	617.248
3199.0000	617.251
3199.5000	617.233
3200.0000	617.313
3200.5000	617.399
3201.0000	617.374
3201.5000	617.317
3202.0000	617.295
3202.5000	617.23
3203.0000	617.364
3203.5000	617.412
3204.0000	617.361
3204.5000	617.421
3205.0000	617.228
3205.5000	617.204
3206.0000	617.176
3206.5000	617.134
3207.0000	617.267
3207.5000	617.395
3208.0000	617.478
3208.5000	617.552
3209.0000	617.37
3209.5000	617.187
3210.0000	617.091
3210.5000	617.076
3211.0000	617.23
3211.5000	617.242
3212.0000	617.356
3212.5000	617.274
3213.0000	617.27
3213.5000	617.361
3214.0000	617.235
3214.5000	617.353
3215.0000	617.282
3215.5000	617.254
3216.0000	617.401
3216.5000	617.234
3217.0000	617.207
3217.5000	617.204
3218.0000	617.066
3218.5000	617.2
3219.0000	617.361
3219.5000	617.399
3220.0000	617.331
3220.5000	617.348
3221.0000	617.196
3221.5000	617.139
3222.0000	617.237
3222.5000	617.234
3223.0000	617.331
3223.5000	617.366
3224.0000	617.395
3224.5000	617.394
3225.0000	617.495
3225.5000	617.537
3226.0000	617.511
3226.5000	617.589
3227.0000	617.538
3227.5000	617.526
3228.0000	617.527
3228.5000	617.436
3229.0000	617.36
3229.5000	617.406
3230.0000	617.331
3230.5000	617.276
3231.0000	617.315
3231.5000	617.266
3232.0000	617.353
3232.5000	617.45
3233.0000	617.422
3233.5000	617.421
3234.0000	617.447
3234.5000	617.391
3235.0000	617.443
3235.5000	617.382
3236.0000	617.385
3236.5000	617.421
3237.0000	617.307
3237.5000	617.43
3238.0000	617.404
3238.5000	617.43
3239.0000	617.478
3239.5000	617.382
3240.0000	617.421
3240.5000	617.387
3241.0000	617.427
3241.5000	617.482
3242.0000	617.498
3242.5000	617.504
3243.0000	617.544
3243.5000	617.594
3244.0000	617.476
3244.5000	617.426
3245.0000	617.409
3245.5000	617.379
3246.0000	617.384
3246.5000	617.426
3247.0000	617.46
3247.5000	617.524
3248.0000	617.671
3248.5000	617.662
3249.0000	617.649
3249.5000	617.556
3250.0000	617.533
3250.5000	617.496
3251.0000	617.505
3251.5000	617.526
3252.0000	617.486
3252.5000	617.579
3253.0000	617.609
3253.5000	617.559
3254.0000	617.609
3254.5000	617.537
3255.0000	617.478
3255.5000	617.45
3256.0000	617.429
3256.5000	617.522
3257.0000	617.53
3257.5000	617.61
3258.0000	617.642
3258.5000	617.604
3259.0000	617.452
3259.5000	617.481
3260.0000	617.523
3260.5000	617.438
3261.0000	617.517
3261.5000	617.435
3262.0000	617.35
3262.5000	617.446
3263.0000	617.534
3263.5000	617.589
3264.0000	617.411
3264.5000	617.373
3265.0000	617.355
3265.5000	617.288
3266.0000	617.458
3266.5000	617.43
3267.0000	617.375
3267.5000	617.465
3268.0000	617.466
3268.5000	617.401
3269.0000	617.448
3269.5000	617.415
3270.0000	617.439
3270.5000	617.574
3271.0000	617.599
3271.5000	617.58
3272.0000	617.629
3272.5000	617.557
3273.0000	617.457
3273.5000	617.497
3274.0000	617.525
3274.5000	617.414
3275.0000	617.555
3275.5000	617.465
3276.0000	617.308
3276.5000	617.388
3277.0000	617.435
3277.5000	617.533
3278.0000	617.694
3278.5000	617.749
3279.0000	617.666
3279.5000	617.701
3280.0000	617.605
3280.5000	617.635
3281.0000	617.677
3281.5000	617.643
3282.0000	617.704
3282.5000	617.693
3283.0000	617.601
3283.5000	617.464
3284.0000	617.377
3284.5000	617.352
3285.0000	617.364
3285.5000	617.412
3286.0000	617.494
3286.5000	617.553
3287.0000	617.674
3287.5000	617.753
3288.0000	617.718
3288.5000	617.682
3289.0000	617.57
3289.5000	617.521
3290.0000	617.53
3290.5000	617.522
3291.0000	617.659
3291.5000	617.67
3292.0000	617.656
3292.5000	617.737
3293.0000	617.575
3293.5000	617.637
3294.0000	617.658
3294.5000	617.609
3295.0000	617.612
3295.5000	617.572
3296.0000	617.567
3296.5000	617.534
3297.0000	617.506
3297.5000	617.603
3298.0000	617.663
3298.5000	617.723
3299.0000	617.774
3299.5000	617.691
3300.0000	617.689
3300.5000	617.685
3301.0000	617.73
3301.5000	617.714
3302.0000	617.6
3302.5000	617.537
3303.0000	617.54
3303.5000	617.508
3304.0000	617.522
3304.5000	617.638
3305.0000	617.637
3305.5000	617.754
3306.0000	617.705
3306.5000	617.527
3307.0000	617.49
3307.5000	617.512
3308.0000	617.474
3308.5000	617.545
3309.0000	617.688
3309.5000	617.521
3310.0000	617.615
3310.5000	617.757
3311.0000	617.687
3311.5000	617.779
3312.0000	617.803
3312.5000	617.641
3313.0000	617.641
3313.5000	617.598
3314.0000	617.663
3314.5000	617.617
3315.0000	617.56
3315.5000	617.661
3316.0000	617.572
3316.5000	617.703
3317.0000	617.765
3317.5000	617.652
3318.0000	617.753
3318.5000	617.758
3319.0000	617.615
3319.5000	617.716
3320.0000	617.586
3320.5000	617.54
3321.0000	617.636
3321.5000	617.599
3322.0000	617.692
3322.5000	617.686
3323.0000	617.675
3323.5000	617.74
3324.0000	617.751
3324.5000	617.772
3325.0000	617.765
3325.5000	617.689
3326.0000	617.702
3326.5000	617.661
3327.0000	617.636
3327.5000	617.782
3328.0000	617.756
3328.5000	617.907
3329.0000	617.95
3329.5000	617.916
3330.0000	617.876
3330.5000	617.8
3331.0000	617.786
3331.5000	617.663
3332.0000	617.638
3332.5000	617.597
3333.0000	617.523
3333.5000	617.617
3334.0000	617.688
3334.5000	617.641
3335.0000	617.675
3335.5000	617.532
3336.0000	617.557
3336.5000	617.605
3337.0000	617.521
3337.5000	617.585
3338.0000	617.539
3338.5000	617.617
3339.0000	617.878
3339.5000	617.868
3340.0000	617.784
3340.5000	617.666
3341.0000	617.663
3341.5000	617.791
3342.0000	617.854
3342.5000	617.812
3343.0000	617.715
3343.5000	617.618
3344.0000	617.675
3344.5000	617.824
3345.0000	617.848
3345.5000	617.915
3346.0000	617.945
3346.5000	617.963
3347.0000	618.019
3347.5000	617.96
3348.0000	617.943
3348.5000	618.009
3349.0000	618.002
3349.5000	618.109
3350.0000	617.95
3350.5000	617.858
3351.0000	617.851
3351.5000	617.729
3352.0000	617.872
3352.5000	617.839
3353.0000	617.75
3353.5000	617.78
3354.0000	617.745
3354.5000	617.771
3355.0000	617.678
3355.5000	617.613
3356.0000	617.513
3356.5000	617.49
3357.0000	617.609
3357.5000	617.615
3358.0000	617.808
3358.5000	617.817
3359.0000	617.892
3359.5000	618.003
3360.0000	617.898
3360.5000	617.934
3361.0000	617.848
3361.5000	617.687
3362.0000	617.712
3362.5000	617.553
3363.0000	617.488
3363.5000	617.668
3364.0000	617.558
3364.5000	617.744
3365.0000	617.754
3365.5000	617.7
3366.0000	617.771
3366.5000	617.673
3367.0000	617.695
3367.5000	617.702
3368.0000	617.703
3368.5000	617.729
3369.0000	617.717
3369.5000	617.617
3370.0000	617.661
3370.5000	617.61
3371.0000	617.658
3371.5000	617.628
3372.0000	617.683
3372.5000	617.643
3373.0000	617.649
3373.5000	617.763
3374.0000	617.783
3374.5000	617.917
3375.0000	617.919
3375.5000	617.931
3376.0000	617.829
3376.5000	617.886
3377.0000	617.859
3377.5000	617.86
3378.0000	617.92
3378.5000	617.895
3379.0000	617.901
3379.5000	617.917
3380.0000	617.914
3380.5000	617.802
3381.0000	617.804
3381.5000	617.764
3382.0000	617.794
3382.5000	617.835
3383.0000	618.009
3383.5000	618.003
3384.0000	617.805
3384.5000	617.762
3385.0000	617.579
3385.5000	617.626
3386.0000	617.69
3386.5000	617.739
3387.0000	617.811
3387.5000	617.937
3388.0000	618.019
3388.5000	618.002
3389.0000	617.941
3389.5000	617.76
3390.0000	617.796
3390.5000	617.726
3391.0000	617.729
3391.5000	617.742
3392.0000	617.663
3392.5000	617.71
3393.0000	617.809
3393.5000	617.722
3394.0000	617.742
3394.5000	617.717
3395.0000	617.641
3395.5000	617.749
3396.0000	617.658
3396.5000	617.762
3397.0000	617.85
3397.5000	617.766
3398.0000	617.96
3398.5000	617.988
3399.0000	617.907
3399.5000	617.839
3400.0000	617.748
3400.5000	617.576
3401.0000	617.472
3401.5000	617.538
3402.0000	617.631
3402.5000	617.661
3403.0000	617.724
3403.5000	617.89
3404.0000	617.839
3404.5000	617.862
3405.0000	617.932
3405.5000	617.884
3406.0000	617.836
3406.5000	617.945
3407.0000	617.882
3407.5000	617.953
3408.0000	618.017
3408.5000	618.025
3409.0000	618
3409.5000	617.905
3410.0000	617.793
3410.5000	617.734
3411.0000	617.9
3411.5000	617.844
3412.0000	618.009
3412.5000	617.976
3413.0000	617.818
3413.5000	617.942
3414.0000	617.814
3414.5000	617.824
3415.0000	617.853
3415.5000	617.84
3416.0000	617.818
3416.5000	617.79
3417.0000	617.763
3417.5000	617.639
3418.0000	617.742
3418.5000	617.891
3419.0000	618.03
3419.5000	618.114
3420.0000	618.129
3420.5000	617.978
3421.0000	617.886
3421.5000	617.902
3422.0000	617.918
3422.5000	617.999
3423.0000	618.081
3423.5000	618.013
3424.0000	617.858
3424.5000	617.907
3425.0000	617.739
3425.5000	617.754
3426.0000	617.89
3426.5000	617.751
3427.0000	617.705
3427.5000	617.581
3428.0000	617.5
3428.5000	617.41
3429.0000	617.549
3429.5000	617.601
3430.0000	617.623
3430.5000	617.845
3431.0000	617.819
3431.5000	617.829
3432.0000	617.822
3432.5000	617.85
3433.0000	617.898
3433.5000	617.879
3434.0000	617.8
3434.5000	617.727
3435.0000	617.75
3435.5000	617.791
3436.0000	617.773
3436.5000	617.687
3437.0000	617.7
3437.5000	617.729
3438.0000	617.886
3438.5000	617.968
3439.0000	617.839
3439.5000	617.929
3440.0000	617.775
3440.5000	617.735
3441.0000	617.942
3441.5000	617.823
3442.0000	617.864
3442.5000	618.008
3443.0000	617.845
3443.5000	617.936
3444.0000	617.934
3444.5000	617.764
3445.0000	617.764
3445.5000	617.73
3446.0000	617.759
3446.5000	617.867
3447.0000	617.802
3447.5000	617.692
3448.0000	617.619
3448.5000	617.536
3449.0000	617.562
3449.5000	617.605
3450.0000	617.685
3450.5000	617.747
3451.0000	617.748
3451.5000	617.688
3452.0000	617.791
3452.5000	617.739
3453.0000	617.746
3453.5000	617.799
3454.0000	617.706
3454.5000	617.708
3455.0000	617.794
3455.5000	617.828
3456.0000	617.851
3456.5000	617.78
3457.0000	617.753
3457.5000	617.672
3458.0000	617.613
3458.5000	617.636
3459.0000	617.578
3459.5000	617.689
3460.0000	617.733
3460.5000	617.774
3461.0000	617.793
3461.5000	617.775
3462.0000	617.778
3462.5000	617.774
3463.0000	617.804
3463.5000	617.798
3464.0000	617.704
3464.5000	617.687
3465.0000	617.659
3465.5000	617.6
3466.0000	617.708
3466.5000	617.712
3467.0000	617.71
3467.5000	617.741
3468.0000	617.822
3468.5000	617.896
3469.0000	617.899
3469.5000	617.836
3470.0000	617.801
3470.5000	617.823
3471.0000	617.9
3471.5000	617.939
3472.0000	618.022
3472.5000	618.047
3473.0000	617.8
3473.5000	617.812
3474.0000	617.652
3474.5000	617.696
3475.0000	617.997
3475.5000	617.991
3476.0000	617.906
3476.5000	617.748
3477.0000	617.607
3477.5000	617.555
3478.0000	617.741
3478.5000	617.722
3479.0000	617.757
3479.5000	617.839
3480.0000	617.755
3480.5000	617.829
3481.0000	617.739
3481.5000	617.738
3482.0000	617.645
3482.5000	617.642
3483.0000	617.808
3483.5000	617.721
3484.0000	617.861
3484.5000	617.755
3485.0000	617.756
3485.5000	617.791
3486.0000	617.684
3486.5000	617.859
3487.0000	617.75
3487.5000	617.905
3488.0000	617.995
3488.5000	617.833
3489.0000	617.824
3489.5000	617.65
3490.0000	617.636
3490.5000	617.734
3491.0000	617.845
3491.5000	617.944
3492.0000	617.933
3492.5000	617.952
3493.0000	617.781
3493.5000	617.851
3494.0000	617.815
3494.5000	617.731
3495.0000	617.737
3495.5000	617.687
3496.0000	617.681
3496.5000	617.591
3497.0000	617.539
3497.5000	617.472
3498.0000	617.458
3498.5000	617.545
3499.0000	617.658
3499.5000	617.672
3500.0000	617.662
3500.5000	617.733
3501.0000	617.71
3501.5000	617.789
3502.0000	617.891
3502.5000	617.733
3503.0000	617.823
3503.5000	617.624
3504.0000	617.495
3504.5000	617.666
3505.0000	617.597
3505.5000	617.674
3506.0000	617.743
3506.5000	617.782
3507.0000	617.901
3507.5000	618.035
3508.0000	618.082
3508.5000	618.037
3509.0000	617.815
3509.5000	617.776
3510.0000	617.732
3510.5000	617.712
3511.0000	617.785
3511.5000	617.747
3512.0000	617.683
3512.5000	617.587
3513.0000	617.67
3513.5000	617.6
3514.0000	617.679
3514.5000	617.745
3515.0000	617.725
3515.5000	617.875
3516.0000	617.902
3516.5000	617.914
3517.0000	617.897
3517.5000	617.881
3518.0000	617.887
3518.5000	617.887
3519.0000	617.874
3519.5000	617.776
3520.0000	617.784
3520.5000	617.771
3521.0000	617.787
3521.5000	617.805
3522.0000	617.764
3522.5000	617.793
3523.0000	617.841
3523.5000	617.941
3524.0000	617.828
3524.5000	617.841
3525.0000	617.69
3525.5000	617.499
3526.0000	617.655
3526.5000	617.593
3527.0000	617.651
3527.5000	617.718
3528.0000	617.652
3528.5000	617.651
3529.0000	617.777
3529.5000	617.817
3530.0000	617.803
3530.5000	617.897
3531.0000	617.888
3531.5000	617.839
3532.0000	617.869
3532.5000	617.784
3533.0000	617.62
3533.5000	617.697
3534.0000	617.682
3534.5000	617.713
3535.0000	617.844
3535.5000	617.79
3536.0000	617.727
3536.5000	617.621
3537.0000	617.673
3537.5000	617.721
3538.0000	617.739
3538.5000	617.805
3539.0000	617.798
3539.5000	617.783
3540.0000	617.837
3540.5000	617.846
3541.0000	617.766
3541.5000	617.804
3542.0000	617.961
3542.5000	617.979
3543.0000	617.925
3543.5000	617.848
3544.0000	617.632
3544.5000	617.625
3545.0000	617.795
3545.5000	617.768
3546.0000	617.851
3546.5000	617.981
3547.0000	617.855
3547.5000	617.895
3548.0000	617.945
3548.5000	617.93
3549.0000	617.979
3549.5000	618.019
3550.0000	618.036
3550.5000	617.908
3551.0000	617.757
3551.5000	617.855
3552.0000	617.718
3552.5000	617.744
3553.0000	617.791
3553.5000	617.716
3554.0000	617.786
3554.5000	617.709
3555.0000	617.79
3555.5000	617.775
3556.0000	617.725
3556.5000	617.824
3557.0000	617.852
3557.5000	617.917
3558.0000	617.873
3558.5000	617.871
3559.0000	617.76
3559.5000	617.666
3560.0000	617.823
3560.5000	617.821
3561.0000	617.937
3561.5000	617.992
3562.0000	617.796
3562.5000	617.796
3563.0000	617.862
3563.5000	617.744
3564.0000	617.812
3564.5000	617.812
3565.0000	617.622
3565.5000	617.733
3566.0000	617.813
3566.5000	617.768
3567.0000	617.843
3567.5000	617.866
3568.0000	617.821
3568.5000	617.796
3569.0000	617.764
3569.5000	617.742
3570.0000	617.763
3570.5000	617.812
3571.0000	617.895
3571.5000	617.852
3572.0000	617.987
3572.5000	617.949
3573.0000	617.868
3573.5000	617.835
3574.0000	617.711
3574.5000	617.717
3575.0000	617.756
3575.5000	617.884
3576.0000	617.859
3576.5000	617.878
3577.0000	617.869
3577.5000	617.661
3578.0000	617.752
3578.5000	617.701
3579.0000	617.744
3579.5000	617.833
3580.0000	617.749
3580.5000	617.71
3581.0000	617.72
3581.5000	617.741
3582.0000	617.828
3582.5000	617.935
3583.0000	617.866
3583.5000	618.021
3584.0000	618.019
3584.5000	617.979
3585.0000	617.998
3585.5000	617.805
3586.0000	617.697
3586.5000	617.637
3587.0000	617.654
3587.5000	617.619
3588.0000	617.731
3588.5000	617.779
3589.0000	617.776
3589.5000	617.882
3590.0000	617.884
3590.5000	618.012
3591.0000	618.019
3591.5000	617.995
3592.0000	617.898
3592.5000	617.745
3593.0000	617.834
3593.5000	617.853
3594.0000	617.839
3594.5000	617.902
3595.0000	617.777
3595.5000	617.777
3596.0000	617.741
3596.5000	617.72
3597.0000	617.742
3597.5000	617.696
3598.0000	617.832
3598.5000	617.919
3599.0000	617.982
3599.5000	618.057
3600.0000	618.005
3600.5000	617.857
3601.0000	617.74
3601.5000	617.693
3602.0000	617.6
3602.5000	617.663
3603.0000	617.594
3603.5000	617.566
3604.0000	617.505
3604.5000	617.501
3605.0000	617.568
3605.5000	617.471
3606.0000	617.516
3606.5000	617.541
3607.0000	617.553
3607.5000	617.578
3608.0000	617.613
3608.5000	617.568
3609.0000	617.488
3609.5000	617.463
3610.0000	617.491
3610.5000	617.626
3611.0000	617.722
3611.5000	617.799
3612.0000	617.733
3612.5000	617.655
3613.0000	617.587
3613.5000	617.49
3614.0000	617.459
3614.5000	617.478
3615.0000	617.503
3615.5000	617.629
3616.0000	617.753
3616.5000	617.56
3617.0000	617.539
3617.5000	617.627
3618.0000	617.511
3618.5000	617.611
3619.0000	617.594
3619.5000	617.537
3620.0000	617.506
3620.5000	617.466
3621.0000	617.591
3621.5000	617.508
3622.0000	617.577
3622.5000	617.65
3623.0000	617.6
3623.5000	617.602
3624.0000	617.639
3624.5000	617.649
3625.0000	617.629
3625.5000	617.689
3626.0000	617.638
3626.5000	617.604
3627.0000	617.7
3627.5000	617.67
3628.0000	617.767
3628.5000	617.814
3629.0000	617.668
3629.5000	617.622
3630.0000	617.591
3630.5000	617.582
3631.0000	617.598
3631.5000	617.645
3632.0000	617.445
3632.5000	617.382
3633.0000	617.386
3633.5000	617.4
3634.0000	617.552
3634.5000	617.563
3635.0000	617.558
3635.5000	617.57
3636.0000	617.604
3636.5000	617.609
3637.0000	617.563
3637.5000	617.539
3638.0000	617.467
3638.5000	617.523
3639.0000	617.581
3639.5000	617.531
3640.0000	617.626
3640.5000	617.609
3641.0000	617.692
3641.5000	617.743
3642.0000	617.698
3642.5000	617.639
3643.0000	617.56
3643.5000	617.488
3644.0000	617.426
3644.5000	617.476
3645.0000	617.506
3645.5000	617.621
3646.0000	617.573
3646.5000	617.538
3647.0000	617.519
3647.5000	617.438
3648.0000	617.505
3648.5000	617.512
3649.0000	617.544
3649.5000	617.539
3650.0000	617.541
3650.5000	617.575
3651.0000	617.477
3651.5000	617.58
3652.0000	617.702
3652.5000	617.827
3653.0000	617.943
3653.5000	617.879
3654.0000	617.771
3654.5000	617.63
3655.0000	617.51
3655.5000	617.499
3656.0000	617.544
3656.5000	617.529
3657.0000	617.535
3657.5000	617.528
3658.0000	617.609
3658.5000	617.543
3659.0000	617.566
3659.5000	617.587
3660.0000	617.419
3660.5000	617.463
3661.0000	617.352
3661.5000	617.333
3662.0000	617.491
3662.5000	617.464
3663.0000	617.688
3663.5000	617.686
3664.0000	617.527
3664.5000	617.517
3665.0000	617.472
3665.5000	617.441
3666.0000	617.541
3666.5000	617.602
3667.0000	617.576
3667.5000	617.591
3668.0000	617.505
3668.5000	617.528
3669.0000	617.501
3669.5000	617.515
3670.0000	617.607
3670.5000	617.585
3671.0000	617.644
3671.5000	617.656
3672.0000	617.592
3672.5000	617.555
3673.0000	617.534
3673.5000	617.595
3674.0000	617.598
3674.5000	617.68
3675.0000	617.653
3675.5000	617.466
3676.0000	617.564
3676.5000	617.451
3677.0000	617.354
3677.5000	617.575
3678.0000	617.429
3678.5000	617.607
3679.0000	617.682
3679.5000	617.586
3680.0000	617.688
3680.5000	617.662
3681.0000	617.706
3681.5000	617.705
3682.0000	617.731
3682.5000	617.651
3683.0000	617.534
3683.5000	617.511
3684.0000	617.356
3684.5000	617.323
3685.0000	617.402
3685.5000	617.288
3686.0000	617.398
3686.5000	617.341
3687.0000	617.346
3687.5000	617.518
3688.0000	617.472
3688.5000	617.547
3689.0000	617.661
3689.5000	617.477
3690.0000	617.575
3690.5000	617.56
3691.0000	617.4
3691.5000	617.406
3692.0000	617.377
3692.5000	617.338
3693.0000	617.451
3693.5000	617.652
3694.0000	617.567
3694.5000	617.658
3695.0000	617.6
3695.5000	617.567
3696.0000	617.554
3696.5000	617.555
3697.0000	617.56
3697.5000	617.394
3698.0000	617.439
3698.5000	617.452
3699.0000	617.356
3699.5000	617.6
3700.0000	617.542
3700.5000	617.413
3701.0000	617.583
3701.5000	617.63
3702.0000	617.574
3702.5000	617.544
3703.0000	617.501
3703.5000	617.251
3704.0000	617.353
3704.5000	617.457
3705.0000	617.421
3705.5000	617.49
3706.0000	617.457
3706.5000	617.416
3707.0000	617.363
3707.5000	617.332
3708.0000	617.339
3708.5000	617.371
3709.0000	617.546
3709.5000	617.683
3710.0000	617.789
3710.5000	617.825
3711.0000	617.644
3711.5000	617.426
3712.0000	617.386
3712.5000	617.375
3713.0000	617.382
3713.5000	617.56
3714.0000	617.434
3714.5000	617.378
3715.0000	617.338
3715.5000	617.264
3716.0000	617.427
3716.5000	617.433
3717.0000	617.472
3717.5000	617.395
3718.0000	617.244
3718.5000	617.189
3719.0000	617.166
3719.5000	617.213
3720.0000	617.267
3720.5000	617.404
3721.0000	617.454
3721.5000	617.428
3722.0000	617.416
3722.5000	617.331
3723.0000	617.448
3723.5000	617.482
3724.0000	617.509
3724.5000	617.463
3725.0000	617.405
3725.5000	617.37
3726.0000	617.344
3726.5000	617.518
3727.0000	617.459
3727.5000	617.456
3728.0000	617.462
3728.5000	617.425
3729.0000	617.432
3729.5000	617.532
3730.0000	617.619
3730.5000	617.579
3731.0000	617.599
3731.5000	617.517
3732.0000	617.351
3732.5000	617.339
3733.0000	617.342
3733.5000	617.331
3734.0000	617.419
3734.5000	617.337
3735.0000	617.317
3735.5000	617.337
3736.0000	617.323
3736.5000	617.431
3737.0000	617.456
3737.5000	617.41
3738.0000	617.461
3738.5000	617.473
3739.0000	617.352
3739.5000	617.434
3740.0000	617.33
3740.5000	617.361
3741.0000	617.479
3741.5000	617.466
3742.0000	617.643
3742.5000	617.557
3743.0000	617.514
3743.5000	617.397
3744.0000	617.263
3744.5000	617.207
3745.0000	617.234
3745.5000	617.294
3746.0000	617.287
3746.5000	617.378
3747.0000	617.357
3747.5000	617.331
3748.0000	617.242
3748.5000	617.102
3749.0000	617.061
3749.5000	617.107
3750.0000	617.22
3750.5000	617.397
3751.0000	617.579
3751.5000	617.532
3752.0000	617.466
3752.5000	617.39
3753.0000	617.214
3753.5000	617.275
3754.0000	617.324
3754.5000	617.359
3755.0000	617.449
3755.5000	617.5
3756.0000	617.465
3756.5000	617.458
3757.0000	617.394
3757.5000	617.333
3758.0000	617.376
3758.5000	617.363
3759.0000	617.319
3759.5000	617.37
3760.0000	617.439
3760.5000	617.378
3761.0000	617.435
3761.5000	617.381
3762.0000	617.456
3762.5000	617.361
3763.0000	617.37
3763.5000	617.385
3764.0000	617.319
3764.5000	617.368
3765.0000	617.264
3765.5000	617.238
3766.0000	617.102
3766.5000	617.146
3767.0000	617.293
3767.5000	617.35
3768.0000	617.377
3768.5000	617.391
3769.0000	617.374
3769.5000	617.302
3770.0000	617.257
3770.5000	617.306
3771.0000	617.171
3771.5000	617.125
3772.0000	617.194
3772.5000	617.108
3773.0000	617.276
3773.5000	617.382
3774.0000	617.542
3774.5000	617.547
3775.0000	617.438
3775.5000	617.328
3776.0000	617.217
3776.5000	617.328
3777.0000	617.384
3777.5000	617.49
3778.0000	617.481
3778.5000	617.407
3779.0000	617.393
3779.5000	617.39
3780.0000	617.268
3780.5000	617.31
3781.0000	617.237
3781.5000	617.178
3782.0000	617.197
3782.5000	617.202
3783.0000	617.159
3783.5000	617.148
3784.0000	617.241
3784.5000	617.153
3785.0000	617.254
3785.5000	617.317
3786.0000	617.237
3786.5000	617.31
3787.0000	617.302
3787.5000	617.262
3788.0000	617.27
3788.5000	617.228
3789.0000	617.184
3789.5000	617.112
3790.0000	617.146
3790.5000	617.126
3791.0000	617.199
3791.5000	617.298
3792.0000	617.191
3792.5000	617.153
3793.0000	617.11
3793.5000	617.085
3794.0000	617.237
3794.5000	617.284
3795.0000	617.363
3795.5000	617.286
3796.0000	617.292
3796.5000	617.32
3797.0000	617.273
3797.5000	617.38
3798.0000	617.392
3798.5000	617.391
3799.0000	617.286
3799.5000	617.215
3800.0000	617.083
3800.5000	617.148
3801.0000	617.238
3801.5000	617.284
3802.0000	617.401
3802.5000	617.276
3803.0000	617.261
3803.5000	617.218
3804.0000	617.236
3804.5000	617.196
3805.0000	617.229
3805.5000	617.365
3806.0000	617.257
3806.5000	617.323
3807.0000	617.412
3807.5000	617.33
3808.0000	617.335
3808.5000	617.304
3809.0000	617.205
3809.5000	617.173
3810.0000	617.237
3810.5000	617.137
3811.0000	617.189
3811.5000	617.27
3812.0000	617.18
3812.5000	617.297
3813.0000	617.162
3813.5000	616.987
3814.0000	617.072
3814.5000	617.018
3815.0000	616.988
3815.5000	617.119
3816.0000	617.067
3816.5000	617.206
3817.0000	617.181
3817.5000	617.095
3818.0000	616.99
3818.5000	616.843
3819.0000	616.941
3819.5000	616.871
3820.0000	616.909
3820.5000	616.99
3821.0000	616.938
3821.5000	617.046
3822.0000	617.073
3822.5000	617.015
3823.0000	617.066
3823.5000	617.049
3824.0000	617.011
3824.5000	617.053
3825.0000	616.982
3825.5000	617.039
3826.0000	617.137
3826.5000	617.057
3827.0000	617.139
3827.5000	617.145
3828.0000	616.995
3828.5000	617.11
3829.0000	617.062
3829.5000	617.048
3830.0000	617.219
3830.5000	617.286
3831.0000	617.382
3831.5000	617.337
3832.0000	617.306
3832.5000	617.12
3833.0000	617.072
3833.5000	617.022
3834.0000	616.975
3834.5000	617.003
3835.0000	617.077
3835.5000	617.145
3836.0000	617.24
3836.5000	617.298
3837.0000	617.157
3837.5000	617.152
3838.0000	617.048
3838.5000	617.059
3839.0000	617.096
3839.5000	616.987
3840.0000	617.086
3840.5000	617.088
3841.0000	617.098
3841.5000	617.209
3842.0000	617.02
3842.5000	616.966
3843.0000	616.895
3843.5000	616.856
3844.0000	616.894
3844.5000	616.955
3845.0000	617.028
3845.5000	616.945
3846.0000	617.06
3846.5000	617.06
3847.0000	616.979
3847.5000	617.143
3848.0000	617.161
3848.5000	617.122
3849.0000	617.215
3849.5000	617.185
3850.0000	617.17
3850.5000	617.267
3851.0000	617.243
3851.5000	617.183
3852.0000	617.048
3852.5000	616.93
3853.0000	616.937
3853.5000	616.92
3854.0000	616.95
3854.5000	616.918
3855.0000	616.887
3855.5000	616.937
3856.0000	616.932
3856.5000	616.875
3857.0000	616.772
3857.5000	616.832
3858.0000	616.989
3858.5000	617.146
3859.0000	617.354
3859.5000	617.313
3860.0000	617.142
3860.5000	617.038
3861.0000	617.037
3861.5000	616.989
3862.0000	617.09
3862.5000	617.1
3863.0000	616.998
3863.5000	617.106
3864.0000	617.085
3864.5000	616.934
3865.0000	616.853
3865.5000	616.775
3866.0000	616.678
3866.5000	616.776
3867.0000	616.886
3867.5000	616.898
3868.0000	616.936
3868.5000	616.967
3869.0000	616.891
3869.5000	616.826
3870.0000	616.848
3870.5000	616.88
3871.0000	616.937
3871.5000	617.022
3872.0000	616.946
3872.5000	616.96
3873.0000	617.016
3873.5000	616.951
3874.0000	617.017
3874.5000	617.05
3875.0000	616.937
3875.5000	616.978
3876.0000	616.999
3876.5000	617.014
3877.0000	617.008
3877.5000	616.945
3878.0000	616.99
3878.5000	616.83
3879.0000	616.815
3879.5000	616.806
3880.0000	616.763
3880.5000	616.787
3881.0000	616.916
3881.5000	616.928
3882.0000	616.951
3882.5000	617.078
3883.0000	617.05
3883.5000	616.947
3884.0000	616.883
3884.5000	616.845
3885.0000	616.851
3885.5000	617.116
3886.0000	617.09
3886.5000	617.084
3887.0000	617.128
3887.5000	617.064
3888.0000	617.02
3888.5000	617.083
3889.0000	617.004
3889.5000	616.828
3890.0000	616.865
3890.5000	616.812
3891.0000	616.836
3891.5000	616.827
3892.0000	616.9
3892.5000	616.813
3893.0000	616.644
3893.5000	616.791
3894.0000	616.772
3894.5000	616.811
3895.0000	616.899
3895.5000	616.993
3896.0000	617.021
3896.5000	617.076
3897.0000	617.098
3897.5000	617.004
3898.0000	616.947
3898.5000	616.926
3899.0000	616.94
3899.5000	616.928
3900.0000	616.98
3900.5000	616.884
3901.0000	616.938
3901.5000	616.967
3902.0000	616.884
3902.5000	616.997
3903.0000	616.921
3903.5000	616.737
3904.0000	616.863
3904.5000	616.81
3905.0000	616.78
3905.5000	616.899
3906.0000	616.781
3906.5000	616.781
3907.0000	616.8
3907.5000	616.92
3908.0000	616.948
3908.5000	617.032
3909.0000	617.016
3909.5000	616.987
3910.0000	616.928
3910.5000	616.867
3911.0000	616.911
3911.5000	616.788
3912.0000	616.791
3912.5000	616.677
3913.0000	616.66
3913.5000	616.753
3914.0000	616.838
3914.5000	616.863
3915.0000	616.817
3915.5000	616.693
3916.0000	616.637
3916.5000	616.563
3917.0000	616.65
3917.5000	616.781
3918.0000	616.703
3918.5000	616.949
3919.0000	616.91
3919.5000	616.801
3920.0000	617.029
3920.5000	616.886
3921.0000	616.879
3921.5000	616.983
3922.0000	616.918
3922.5000	616.942
3923.0000	616.964
3923.5000	616.809
3924.0000	616.764
3924.5000	616.805
3925.0000	616.826
3925.5000	616.862
3926.0000	616.838
3926.5000	616.769
3927.0000	616.699
3927.5000	616.636
3928.0000	616.586
3928.5000	616.521
3929.0000	616.386
3929.5000	616.445
3930.0000	616.573
3930.5000	616.657
3931.0000	616.774
3931.5000	616.853
3932.0000	616.793
3932.5000	616.763
3933.0000	616.794
3933.5000	616.699
3934.0000	616.781
3934.5000	616.871
3935.0000	617.037
3935.5000	616.991
3936.0000	616.904
3936.5000	616.793
3937.0000	616.522
3937.5000	616.675
3938.0000	616.675
3938.5000	616.739
3939.0000	616.85
3939.5000	616.725
3940.0000	616.592
3940.5000	616.544
3941.0000	616.495
3941.5000	616.571
3942.0000	616.682
3942.5000	616.705
3943.0000	616.701
3943.5000	616.603
3944.0000	616.544
3944.5000	616.552
3945.0000	616.564
3945.5000	616.662
3946.0000	616.683
3946.5000	616.695
3947.0000	616.596
3947.5000	616.559
3948.0000	616.521
3948.5000	616.481
3949.0000	616.601
3949.5000	616.655
3950.0000	616.711
3950.5000	616.727
3951.0000	616.696
3951.5000	616.689
3952.0000	616.691
3952.5000	616.727
3953.0000	616.771
3953.5000	616.676
3954.0000	616.682
3954.5000	616.627
3955.0000	616.556
3955.5000	616.574
3956.0000	616.601
3956.5000	616.709
3957.0000	616.781
3957.5000	616.766
3958.0000	616.762
3958.5000	616.655
3959.0000	616.495
3959.5000	616.491
3960.0000	616.442
3960.5000	616.499
3961.0000	616.5
3961.5000	616.479
3962.0000	616.595
3962.5000	616.507
3963.0000	616.602
3963.5000	616.691
3964.0000	616.586
3964.5000	616.677
3965.0000	616.785
3965.5000	616.804
3966.0000	616.845
3966.5000	616.782
3967.0000	616.684
3967.5000	616.692
3968.0000	616.584
3968.5000	616.558
3969.0000	616.628
3969.5000	616.507
3970.0000	616.579
3970.5000	616.675
3971.0000	616.56
3971.5000	616.479
3972.0000	616.421
3972.5000	616.421
3973.0000	616.415
3973.5000	616.438
3974.0000	616.53
3974.5000	616.421
3975.0000	616.408
3975.5000	616.435
3976.0000	616.356
3976.5000	616.395
3977.0000	616.476
3977.5000	616.545
3978.0000	616.537
3978.5000	616.495
3979.0000	616.559
3979.5000	616.548
3980.0000	616.509
3980.5000	616.489
3981.0000	616.402
3981.5000	616.411
3982.0000	616.411
3982.5000	616.394
3983.0000	616.397
3983.5000	616.403
3984.0000	616.536
3984.5000	616.554
3985.0000	616.585
3985.5000	616.513
3986.0000	616.424
3986.5000	616.551
3987.0000	616.4
3987.5000	616.413
3988.0000	616.351
3988.5000	616.271
3989.0000	616.39
3989.5000	616.464
3990.0000	616.552
3990.5000	616.483
3991.0000	616.574
3991.5000	616.612
3992.0000	616.571
3992.5000	616.547
3993.0000	616.359
3993.5000	616.352
3994.0000	616.395
3994.5000	616.546
3995.0000	616.652
3995.5000	616.588
3996.0000	616.521
3996.5000	616.421
3997.0000	616.345
3997.5000	616.29
3998.0000	616.236
3998.5000	616.264
3999.0000	616.336
3999.5000	616.385
4000.0000	616.58
4000.5000	616.531
4001.0000	616.412
4001.5000	616.324
4002.0000	616.365
4002.5000	616.266
4003.0000	616.278
4003.5000	616.287
4004.0000	616.125
4004.5000	616.263
4005.0000	616.387
4005.5000	616.393
4006.0000	616.351
4006.5000	616.451
4007.0000	616.302
4007.5000	616.32
4008.0000	616.324
4008.5000	616.185
4009.0000	616.315
4009.5000	616.237
4010.0000	616.247
4010.5000	616.313
4011.0000	616.277
4011.5000	616.324
4012.0000	616.366
4012.5000	616.284
4013.0000	616.322
4013.5000	616.428
4014.0000	616.352
4014.5000	616.385
4015.0000	616.364
4015.5000	616.302
4016.0000	616.292
4016.5000	616.302
4017.0000	616.165
4017.5000	616.157
4018.0000	616.197
4018.5000	616.174
4019.0000	616.136
4019.5000	616.129
4020.0000	616.135
4020.5000	616.07
4021.0000	616.219
4021.5000	616.265
4022.0000	616.28
4022.5000	616.264
4023.0000	616.206
4023.5000	616.166
4024.0000	616.137
4024.5000	616.189
4025.0000	616.213
4025.5000	616.161
4026.0000	616.162
4026.5000	616.215
4027.0000	616.22
4027.5000	616.265
4028.0000	616.205
4028.5000	616.184
4029.0000	616.165
4029.5000	616.092
4030.0000	616.183
4030.5000	616.272
4031.0000	616.283
4031.5000	616.437
4032.0000	616.512
4032.5000	616.516
4033.0000	616.446
4033.5000	616.369
4034.0000	616.36
4034.5000	616.252
4035.0000	616.29
4035.5000	616.284
4036.0000	616.191
4036.5000	616.148
4037.0000	616.156
4037.5000	616.149
4038.0000	616.085
4038.5000	616.093
4039.0000	616.106
4039.5000	616.136
4040.0000	616.078
4040.5000	616.055
4041.0000	616.071
4041.5000	616.006
4042.0000	616.137
4042.5000	616.088
4043.0000	616.034
4043.5000	616.099
4044.0000	616.052
4044.5000	616.142
4045.0000	616.099
4045.5000	616.004
4046.0000	615.966
4046.5000	615.869
4047.0000	615.94
4047.5000	616.022
4048.0000	616.097
4048.5000	616.162
4049.0000	616.263
4049.5000	616.185
4050.0000	616.177
4050.5000	616.213
4051.0000	616.156
4051.5000	616.324
4052.0000	616.33
4052.5000	616.318
4053.0000	616.204
4053.5000	616.057
4054.0000	615.922
4054.5000	615.952
4055.0000	615.899
4055.5000	615.924
4056.0000	616.094
4056.5000	616.016
4057.0000	616.108
4057.5000	616.184
4058.0000	616.057
4058.5000	615.992
4059.0000	616.026
4059.5000	616.038
4060.0000	616.057
4060.5000	616.223
4061.0000	616.184
4061.5000	616.112
4062.0000	616.08
4062.5000	615.878
4063.0000	615.903
4063.5000	615.904
4064.0000	616.043
4064.5000	616.166
4065.0000	616.192
