TITLE	
DATA TYPE	
ORIGIN	JASCO
OWNER	
DATE	22/04/19
TIME	12:22:58
SPECTROMETER/DATA SYSTEM	
RESOLUTION	
DELTAX	0.5
XUNITS	SEC
YUNITS	INTENSITY
FIRSTX	0.0000
LASTX	2330.5000
NPOINTS	4662
FIRSTY	425.88574
MAXY	530.11139
MINY	-104.19141
XYDATA
0.0000	425.886
0.5000	425.942
1.0000	425.926
1.5000	425.904
2.0000	425.885
2.5000	425.897
3.0000	425.838
3.5000	425.862
4.0000	425.853
4.5000	425.794
5.0000	425.804
5.5000	425.885
6.0000	425.789
6.5000	425.789
7.0000	425.757
7.5000	425.592
8.0000	425.599
8.5000	425.691
9.0000	425.608
9.5000	425.669
10.0000	425.759
10.5000	425.675
11.0000	425.745
11.5000	425.642
12.0000	425.468
12.5000	425.405
13.0000	425.325
13.5000	425.319
14.0000	425.39
14.5000	425.333
15.0000	425.362
15.5000	425.311
16.0000	425.209
16.5000	425.277
17.0000	425.276
17.5000	425.219
18.0000	425.23
18.5000	425.186
19.0000	425.238
19.5000	425.208
20.0000	425.196
20.5000	425.157
21.0000	424.997
21.5000	425.044
22.0000	425.019
22.5000	425.036
23.0000	425.146
23.5000	425.148
24.0000	425.161
24.5000	425.064
25.0000	424.957
25.5000	424.918
26.0000	424.859
26.5000	424.816
27.0000	424.802
27.5000	424.759
28.0000	424.709
28.5000	424.81
29.0000	424.729
29.5000	417.23
30.0000	400.407
30.5000	370.702
31.0000	273.176
31.5000	-104.191
32.0000	-44.9114
32.5000	-33.7428
33.0000	-30.6289
33.5000	-29.2622
34.0000	-28.3033
34.5000	-27.7357
35.0000	-27.2338
35.5000	-26.8076
36.0000	-26.7015
36.5000	-26.3917
37.0000	-26.2235
37.5000	-26.1024
38.0000	-25.9173
38.5000	-25.7251
39.0000	-25.6679
39.5000	-25.5702
40.0000	-25.3624
40.5000	-25.3875
41.0000	-25.2847
41.5000	-25.1206
42.0000	-25.0881
42.5000	-24.8741
43.0000	-24.1942
43.5000	380.74
44.0000	292.408
44.5000	280.026
45.0000	274.355
45.5000	242.251
46.0000	244.002
46.5000	243.789
47.0000	243.758
47.5000	243.846
48.0000	243.936
48.5000	244.101
49.0000	244.24
49.5000	244.334
50.0000	244.455
50.5000	244.563
51.0000	244.762
51.5000	244.902
52.0000	245.084
52.5000	245.287
53.0000	245.439
53.5000	245.703
54.0000	245.918
54.5000	246.101
55.0000	246.29
55.5000	246.477
56.0000	246.634
56.5000	246.816
57.0000	247.033
57.5000	247.185
58.0000	247.399
58.5000	247.587
59.0000	247.784
59.5000	247.94
60.0000	248.215
60.5000	248.424
61.0000	248.63
61.5000	248.814
62.0000	248.921
62.5000	249.101
63.0000	249.255
63.5000	249.511
64.0000	249.678
64.5000	249.82
65.0000	249.961
65.5000	250.108
66.0000	250.275
66.5000	250.459
67.0000	250.68
67.5000	250.817
68.0000	250.99
68.5000	251.169
69.0000	251.258
69.5000	251.4
70.0000	251.57
70.5000	251.742
71.0000	251.82
71.5000	251.905
72.0000	251.94
72.5000	251.992
73.0000	252.167
73.5000	252.342
74.0000	252.579
74.5000	252.75
75.0000	252.95
75.5000	253.188
76.0000	253.379
76.5000	253.596
77.0000	253.812
77.5000	254.046
78.0000	254.219
78.5000	254.383
79.0000	254.625
79.5000	254.771
80.0000	254.985
80.5000	255.196
81.0000	255.317
81.5000	255.541
82.0000	255.76
82.5000	255.951
83.0000	256.164
83.5000	256.314
84.0000	256.448
84.5000	256.639
85.0000	256.808
85.5000	256.999
86.0000	257.152
86.5000	257.302
87.0000	257.501
87.5000	257.618
88.0000	257.824
88.5000	258.046
89.0000	258.195
89.5000	258.416
90.0000	258.583
90.5000	258.739
91.0000	258.922
91.5000	259.072
92.0000	259.27
92.5000	259.416
93.0000	259.627
93.5000	259.813
94.0000	259.96
94.5000	260.191
95.0000	260.335
95.5000	260.469
96.0000	260.661
96.5000	260.826
97.0000	260.997
97.5000	261.194
98.0000	261.398
98.5000	261.52
99.0000	261.673
99.5000	261.86
100.0000	261.988
100.5000	262.153
101.0000	262.358
101.5000	262.538
102.0000	262.707
102.5000	262.849
103.0000	262.998
103.5000	263.178
104.0000	263.319
104.5000	263.572
105.0000	263.729
105.5000	263.892
106.0000	264.11
106.5000	264.225
107.0000	264.403
107.5000	264.556
108.0000	264.738
108.5000	264.945
109.0000	265.163
109.5000	265.32
110.0000	265.475
110.5000	265.635
111.0000	265.788
111.5000	265.964
112.0000	266.118
112.5000	266.281
113.0000	266.406
113.5000	266.583
114.0000	266.763
114.5000	266.927
115.0000	267.098
115.5000	267.284
116.0000	267.419
116.5000	267.589
117.0000	267.764
117.5000	267.912
118.0000	268.111
118.5000	268.275
119.0000	268.458
119.5000	268.653
120.0000	268.784
120.5000	268.965
121.0000	269.124
121.5000	269.237
122.0000	269.424
122.5000	269.621
123.0000	269.806
123.5000	270.005
124.0000	270.171
124.5000	270.313
125.0000	270.394
125.5000	270.554
126.0000	270.723
126.5000	270.858
127.0000	271.063
127.5000	271.3
128.0000	271.449
128.5000	271.6
129.0000	271.776
129.5000	271.848
130.0000	272.049
130.5000	272.195
131.0000	272.355
131.5000	272.555
132.0000	272.631
132.5000	272.816
133.0000	273
133.5000	273.104
134.0000	273.295
134.5000	273.438
135.0000	273.562
135.5000	273.712
136.0000	273.916
136.5000	274.103
137.0000	274.274
137.5000	274.433
138.0000	274.586
138.5000	274.732
139.0000	274.883
139.5000	275.05
140.0000	275.209
140.5000	275.347
141.0000	275.469
141.5000	275.603
142.0000	275.699
142.5000	275.84
143.0000	276.035
143.5000	276.205
144.0000	276.334
144.5000	276.506
145.0000	276.654
145.5000	276.809
146.0000	276.968
146.5000	277.121
147.0000	277.273
147.5000	277.401
148.0000	277.576
148.5000	277.749
149.0000	277.895
149.5000	278.073
150.0000	278.201
150.5000	278.333
151.0000	278.487
151.5000	278.627
152.0000	278.746
152.5000	278.878
153.0000	278.984
153.5000	279.171
154.0000	279.362
154.5000	279.493
155.0000	279.694
155.5000	279.765
156.0000	279.9
156.5000	280.036
157.0000	280.201
157.5000	280.423
158.0000	280.555
158.5000	280.788
159.0000	280.928
159.5000	281.071
160.0000	281.291
160.5000	281.4
161.0000	281.527
161.5000	281.663
162.0000	281.793
162.5000	282.043
163.0000	282.247
163.5000	282.418
164.0000	282.591
164.5000	282.714
165.0000	282.798
165.5000	283.025
166.0000	283.232
166.5000	283.336
167.0000	283.547
167.5000	283.607
168.0000	283.71
168.5000	283.875
169.0000	284.026
169.5000	284.155
170.0000	284.332
170.5000	284.459
171.0000	284.633
171.5000	284.836
172.0000	284.975
172.5000	285.135
173.0000	285.247
173.5000	285.361
174.0000	285.499
174.5000	285.625
175.0000	285.846
175.5000	286.007
176.0000	286.127
176.5000	286.351
177.0000	286.377
177.5000	286.536
178.0000	286.723
178.5000	286.813
179.0000	287.047
179.5000	287.173
180.0000	287.289
180.5000	287.423
181.0000	287.501
181.5000	287.659
182.0000	287.82
182.5000	288
183.0000	288.175
183.5000	288.295
184.0000	288.423
184.5000	288.569
185.0000	288.701
185.5000	288.907
186.0000	289.06
186.5000	289.129
187.0000	289.302
187.5000	289.37
188.0000	289.536
188.5000	289.723
189.0000	289.868
189.5000	290.061
190.0000	290.175
190.5000	290.399
191.0000	290.488
191.5000	290.662
192.0000	290.844
192.5000	290.889
193.0000	291.123
193.5000	291.207
194.0000	291.325
194.5000	291.479
195.0000	291.576
195.5000	291.795
196.0000	291.968
196.5000	292.166
197.0000	292.356
197.5000	292.381
198.0000	292.451
198.5000	292.544
199.0000	292.597
199.5000	292.854
200.0000	293.075
200.5000	293.202
201.0000	293.398
201.5000	293.454
202.0000	293.589
202.5000	293.784
203.0000	293.866
203.5000	294.018
204.0000	294.109
204.5000	294.199
205.0000	294.436
205.5000	294.543
206.0000	294.674
206.5000	294.872
207.0000	294.888
207.5000	295.103
208.0000	295.247
208.5000	295.343
209.0000	295.562
209.5000	295.698
210.0000	295.888
210.5000	296.011
211.0000	296.098
211.5000	296.219
212.0000	296.368
212.5000	296.513
213.0000	296.664
213.5000	296.806
214.0000	296.899
214.5000	297.09
215.0000	297.233
215.5000	297.347
216.0000	297.559
216.5000	297.721
217.0000	297.88
217.5000	298.021
218.0000	298.104
218.5000	298.17
219.0000	298.336
219.5000	298.455
220.0000	298.558
220.5000	298.724
221.0000	298.8
221.5000	298.955
222.0000	299.152
222.5000	299.252
223.0000	299.447
223.5000	299.559
224.0000	299.666
224.5000	299.843
225.0000	299.903
225.5000	300.111
226.0000	300.229
226.5000	300.34
227.0000	300.547
227.5000	300.633
228.0000	300.786
228.5000	300.953
229.0000	301.054
229.5000	301.198
230.0000	301.308
230.5000	301.435
231.0000	301.586
231.5000	301.67
232.0000	301.752
232.5000	301.879
233.0000	301.929
233.5000	302.141
234.0000	302.403
234.5000	302.484
235.0000	302.682
235.5000	302.784
236.0000	302.844
236.5000	303.057
237.0000	303.164
237.5000	303.339
238.0000	303.512
238.5000	303.584
239.0000	303.742
239.5000	303.851
240.0000	303.968
240.5000	304.116
241.0000	304.245
241.5000	304.367
242.0000	304.502
242.5000	304.619
243.0000	304.731
243.5000	304.897
244.0000	305.06
244.5000	305.168
245.0000	305.327
245.5000	305.471
246.0000	305.534
246.5000	305.71
247.0000	305.813
247.5000	305.902
248.0000	306.058
248.5000	306.18
249.0000	306.308
249.5000	306.447
250.0000	306.57
250.5000	306.719
251.0000	306.918
251.5000	307.028
252.0000	307.154
252.5000	307.289
253.0000	307.357
253.5000	307.482
254.0000	307.643
254.5000	307.729
255.0000	307.896
255.5000	307.985
256.0000	308.105
256.5000	308.282
257.0000	308.405
257.5000	308.63
258.0000	308.777
258.5000	308.879
259.0000	308.968
259.5000	309.075
260.0000	309.211
260.5000	309.311
261.0000	309.418
261.5000	309.526
262.0000	309.577
262.5000	309.773
263.0000	309.942
263.5000	310.075
264.0000	310.243
264.5000	310.375
265.0000	310.48
265.5000	310.589
266.0000	310.672
266.5000	310.757
267.0000	310.893
267.5000	310.998
268.0000	311.101
268.5000	311.224
269.0000	311.321
269.5000	311.451
270.0000	311.626
270.5000	311.73
271.0000	311.897
271.5000	312.037
272.0000	312.195
272.5000	312.322
273.0000	312.405
273.5000	312.483
274.0000	312.553
274.5000	312.726
275.0000	312.86
275.5000	312.99
276.0000	313.153
276.5000	313.213
277.0000	313.429
277.5000	313.611
278.0000	313.695
278.5000	313.85
279.0000	313.874
279.5000	314.005
280.0000	314.122
280.5000	314.241
281.0000	314.409
281.5000	314.47
282.0000	314.568
282.5000	314.673
283.0000	314.757
283.5000	314.881
284.0000	315.082
284.5000	315.249
285.0000	315.35
285.5000	315.463
286.0000	315.509
286.5000	315.576
287.0000	315.69
287.5000	315.865
288.0000	315.988
288.5000	316.072
289.0000	316.321
289.5000	316.395
290.0000	316.558
290.5000	316.71
291.0000	316.8
291.5000	316.899
292.0000	316.993
292.5000	317.126
293.0000	317.135
293.5000	317.298
294.0000	317.458
294.5000	317.625
295.0000	317.789
295.5000	317.897
296.0000	318.045
296.5000	318.138
297.0000	318.217
297.5000	318.289
298.0000	318.356
298.5000	318.482
299.0000	318.618
299.5000	318.841
300.0000	318.964
300.5000	319.022
301.0000	319.145
301.5000	319.241
302.0000	319.351
302.5000	319.502
303.0000	319.653
303.5000	319.738
304.0000	319.857
304.5000	319.997
305.0000	320.077
305.5000	320.209
306.0000	320.272
306.5000	320.363
307.0000	320.546
307.5000	320.665
308.0000	320.845
308.5000	320.975
309.0000	321.042
309.5000	321.135
310.0000	321.24
310.5000	321.358
311.0000	321.447
311.5000	321.551
312.0000	321.627
312.5000	321.711
313.0000	321.843
313.5000	321.994
314.0000	322.061
314.5000	322.195
315.0000	322.316
315.5000	322.428
316.0000	322.645
316.5000	322.709
317.0000	322.815
317.5000	322.876
318.0000	322.984
318.5000	323.163
319.0000	323.371
319.5000	323.554
320.0000	323.652
320.5000	323.735
321.0000	323.835
321.5000	323.945
322.0000	324.071
322.5000	324.196
323.0000	324.273
323.5000	324.325
324.0000	324.446
324.5000	324.618
325.0000	324.718
325.5000	324.845
326.0000	324.951
326.5000	325.039
327.0000	325.113
327.5000	325.255
328.0000	325.397
328.5000	325.492
329.0000	325.641
329.5000	325.742
330.0000	325.771
330.5000	325.9
331.0000	326.055
331.5000	326.214
332.0000	326.41
332.5000	326.506
333.0000	326.6
333.5000	326.703
334.0000	326.786
334.5000	326.875
335.0000	326.996
335.5000	327.072
336.0000	327.195
336.5000	327.337
337.0000	327.443
337.5000	327.612
338.0000	327.703
338.5000	327.771
339.0000	327.886
339.5000	327.945
340.0000	328.05
340.5000	328.167
341.0000	328.266
341.5000	328.403
342.0000	328.496
342.5000	328.628
343.0000	328.802
343.5000	328.916
344.0000	329.098
344.5000	329.207
345.0000	329.236
345.5000	329.326
346.0000	329.372
346.5000	329.491
347.0000	329.573
347.5000	329.715
348.0000	329.805
348.5000	329.934
349.0000	330.082
349.5000	330.121
350.0000	330.256
350.5000	330.358
351.0000	330.45
351.5000	330.584
352.0000	330.754
352.5000	330.775
353.0000	330.874
353.5000	331.039
354.0000	331.086
354.5000	331.191
355.0000	331.319
355.5000	331.334
356.0000	331.482
356.5000	331.68
357.0000	331.785
357.5000	331.95
358.0000	332.018
358.5000	332.104
359.0000	332.205
359.5000	332.303
360.0000	332.351
360.5000	332.456
361.0000	332.635
361.5000	332.699
362.0000	332.922
362.5000	333.018
363.0000	333.09
363.5000	333.223
364.0000	333.285
364.5000	333.38
365.0000	333.43
365.5000	333.506
366.0000	333.667
366.5000	333.778
367.0000	333.95
367.5000	334.133
368.0000	334.189
368.5000	334.283
369.0000	334.423
369.5000	334.561
370.0000	334.635
370.5000	334.774
371.0000	334.799
371.5000	334.853
372.0000	334.959
372.5000	335.061
373.0000	335.2
373.5000	335.359
374.0000	335.499
374.5000	335.653
375.0000	335.72
375.5000	335.843
376.0000	335.947
376.5000	336.057
377.0000	336.153
377.5000	336.17
378.0000	336.298
378.5000	336.308
379.0000	336.463
379.5000	336.567
380.0000	336.67
380.5000	336.841
381.0000	336.974
381.5000	337.125
382.0000	337.196
382.5000	337.306
383.0000	337.374
383.5000	337.419
384.0000	337.498
384.5000	337.562
385.0000	337.687
385.5000	337.816
386.0000	338.08
386.5000	338.228
387.0000	338.268
387.5000	338.388
388.0000	338.409
388.5000	338.531
389.0000	338.693
389.5000	338.855
390.0000	338.998
390.5000	339.078
391.0000	339.112
391.5000	339.271
392.0000	339.368
392.5000	339.541
393.0000	339.71
393.5000	339.689
394.0000	339.734
394.5000	339.797
395.0000	339.876
395.5000	340.025
396.0000	340.213
396.5000	340.341
397.0000	340.52
397.5000	340.607
398.0000	340.626
398.5000	340.706
399.0000	340.801
399.5000	340.914
400.0000	341.055
400.5000	341.135
401.0000	341.226
401.5000	341.353
402.0000	341.49
402.5000	341.633
403.0000	341.752
403.5000	341.899
404.0000	341.904
404.5000	342.024
405.0000	342.138
405.5000	342.255
406.0000	342.482
406.5000	342.635
407.0000	342.811
407.5000	342.962
408.0000	343.003
408.5000	343.049
409.0000	343.079
409.5000	343.105
410.0000	343.29
410.5000	343.456
411.0000	343.61
411.5000	343.752
412.0000	343.85
412.5000	343.93
413.0000	344.025
413.5000	344.041
414.0000	344.197
414.5000	344.311
415.0000	344.433
415.5000	344.686
416.0000	344.777
416.5000	344.914
417.0000	345.013
417.5000	345.156
418.0000	345.337
418.5000	345.458
419.0000	345.656
419.5000	345.728
420.0000	345.812
420.5000	346
421.0000	346.024
421.5000	346.205
422.0000	346.366
422.5000	346.46
423.0000	346.662
423.5000	346.792
424.0000	346.892
424.5000	347.065
425.0000	347.187
425.5000	347.33
426.0000	347.424
426.5000	347.54
427.0000	347.721
427.5000	347.822
428.0000	348.016
428.5000	348.111
429.0000	348.271
429.5000	348.41
430.0000	348.541
430.5000	348.771
431.0000	348.889
431.5000	349.049
432.0000	349.276
432.5000	349.387
433.0000	349.485
433.5000	349.631
434.0000	349.717
434.5000	349.876
435.0000	350.033
435.5000	350.152
436.0000	350.249
436.5000	350.392
437.0000	350.554
437.5000	350.701
438.0000	350.903
438.5000	351.037
439.0000	351.191
439.5000	351.328
440.0000	351.45
440.5000	351.621
441.0000	351.732
441.5000	351.909
442.0000	352.076
442.5000	352.184
443.0000	352.345
443.5000	352.401
444.0000	352.563
444.5000	352.759
445.0000	352.906
445.5000	353.116
446.0000	353.223
446.5000	353.363
447.0000	353.488
447.5000	353.648
448.0000	353.835
448.5000	353.943
449.0000	354.094
449.5000	354.298
450.0000	354.423
450.5000	354.607
451.0000	354.827
451.5000	354.948
452.0000	355.12
452.5000	355.272
453.0000	355.458
453.5000	355.72
454.0000	355.833
454.5000	356.053
455.0000	356.161
455.5000	356.196
456.0000	356.397
456.5000	356.482
457.0000	356.71
457.5000	356.969
458.0000	357.11
458.5000	357.321
459.0000	357.451
459.5000	357.597
460.0000	357.784
460.5000	357.97
461.0000	358.146
461.5000	358.296
462.0000	358.514
462.5000	358.649
463.0000	358.816
463.5000	358.919
464.0000	359.131
464.5000	359.298
465.0000	359.418
465.5000	359.669
466.0000	359.786
466.5000	359.929
467.0000	360.19
467.5000	360.331
468.0000	360.456
468.5000	360.674
469.0000	360.855
469.5000	361.009
470.0000	361.255
470.5000	361.391
471.0000	361.506
471.5000	361.733
472.0000	361.94
472.5000	362.149
473.0000	362.371
473.5000	362.514
474.0000	362.633
474.5000	362.795
475.0000	362.953
475.5000	363.134
476.0000	363.284
476.5000	363.47
477.0000	363.624
477.5000	363.833
478.0000	364.023
478.5000	364.242
479.0000	364.43
479.5000	364.529
480.0000	364.771
480.5000	364.931
481.0000	365.117
481.5000	365.419
482.0000	365.598
482.5000	365.806
483.0000	366.048
483.5000	366.276
484.0000	366.456
484.5000	366.683
485.0000	366.839
485.5000	366.992
486.0000	367.213
486.5000	367.425
487.0000	367.693
487.5000	367.826
488.0000	368.01
488.5000	368.199
489.0000	368.334
489.5000	368.648
490.0000	368.881
490.5000	369.085
491.0000	369.273
491.5000	369.437
492.0000	369.64
492.5000	369.884
493.0000	370.123
493.5000	370.379
494.0000	370.549
494.5000	370.696
495.0000	370.949
495.5000	371.1
496.0000	371.35
496.5000	371.575
497.0000	371.818
497.5000	372.056
498.0000	372.233
498.5000	372.497
499.0000	372.681
499.5000	372.929
500.0000	373.185
500.5000	373.346
501.0000	373.535
501.5000	373.731
502.0000	373.974
502.5000	374.204
503.0000	374.495
503.5000	374.659
504.0000	374.867
504.5000	375.102
505.0000	375.342
505.5000	375.581
506.0000	375.885
506.5000	376.125
507.0000	376.347
507.5000	376.733
508.0000	376.869
508.5000	377.158
509.0000	377.394
509.5000	377.565
510.0000	377.861
510.5000	378.113
511.0000	378.371
511.5000	378.647
512.0000	378.879
512.5000	379.06
513.0000	379.332
513.5000	379.57
514.0000	379.829
514.5000	380.111
515.0000	380.288
515.5000	380.496
516.0000	380.746
516.5000	380.972
517.0000	381.213
517.5000	381.407
518.0000	381.663
518.5000	381.923
519.0000	382.192
519.5000	382.52
520.0000	382.76
520.5000	382.972
521.0000	383.24
521.5000	383.524
522.0000	383.759
522.5000	384.021
523.0000	384.275
523.5000	384.442
524.0000	384.671
524.5000	384.992
525.0000	385.29
525.5000	385.51
526.0000	385.846
526.5000	385.981
527.0000	386.217
527.5000	386.491
528.0000	386.727
528.5000	387.045
529.0000	387.239
529.5000	387.597
530.0000	387.793
530.5000	388.031
531.0000	388.277
531.5000	388.471
532.0000	388.68
532.5000	388.927
533.0000	389.112
533.5000	389.346
534.0000	389.718
534.5000	389.97
535.0000	390.316
535.5000	390.588
536.0000	390.806
536.5000	391.076
537.0000	391.315
537.5000	391.539
538.0000	391.74
538.5000	392
539.0000	392.26
539.5000	392.542
540.0000	392.874
540.5000	393.162
541.0000	393.456
541.5000	393.694
542.0000	393.894
542.5000	394.167
543.0000	394.32
543.5000	394.555
544.0000	394.807
544.5000	394.949
545.0000	395.233
545.5000	395.43
546.0000	395.612
546.5000	395.839
547.0000	396.055
547.5000	396.264
548.0000	396.635
548.5000	396.891
549.0000	397.094
549.5000	397.396
550.0000	397.565
550.5000	397.759
551.0000	398.02
551.5000	398.193
552.0000	398.387
552.5000	398.612
553.0000	398.812
553.5000	399.017
554.0000	399.222
554.5000	399.439
555.0000	399.671
555.5000	399.874
556.0000	400.07
556.5000	400.311
557.0000	400.565
557.5000	400.784
558.0000	401.02
558.5000	401.146
559.0000	401.211
559.5000	401.487
560.0000	401.612
560.5000	401.907
561.0000	402.187
561.5000	402.401
562.0000	402.641
562.5000	402.807
563.0000	403.055
563.5000	403.218
564.0000	403.394
564.5000	403.608
565.0000	403.769
565.5000	403.958
566.0000	404.14
566.5000	404.333
567.0000	404.48
567.5000	404.577
568.0000	404.827
568.5000	404.939
569.0000	405.138
569.5000	405.405
570.0000	405.572
570.5000	405.799
571.0000	405.974
571.5000	406.085
572.0000	406.289
572.5000	406.484
573.0000	406.678
573.5000	406.897
574.0000	407.033
574.5000	407.195
575.0000	407.329
575.5000	407.44
576.0000	407.573
576.5000	407.67
577.0000	407.873
577.5000	408.03
578.0000	408.237
578.5000	408.443
579.0000	408.533
579.5000	408.793
580.0000	408.874
580.5000	409.023
581.0000	409.156
581.5000	409.183
582.0000	409.388
582.5000	409.508
583.0000	409.717
583.5000	409.938
584.0000	409.988
584.5000	410.191
585.0000	410.329
585.5000	410.518
586.0000	410.759
586.5000	410.866
587.0000	411.022
587.5000	411.209
588.0000	411.353
588.5000	411.488
589.0000	411.649
589.5000	411.668
590.0000	411.853
590.5000	411.955
591.0000	412.048
591.5000	412.299
592.0000	412.366
592.5000	412.628
593.0000	412.815
593.5000	412.938
594.0000	413.053
594.5000	413.184
595.0000	413.288
595.5000	413.353
596.0000	413.451
596.5000	413.541
597.0000	413.73
597.5000	413.898
598.0000	414.135
598.5000	414.139
599.0000	414.236
599.5000	414.282
600.0000	414.342
600.5000	414.565
601.0000	414.614
601.5000	414.78
602.0000	414.989
602.5000	415.178
603.0000	415.329
603.5000	415.429
604.0000	415.49
604.5000	415.464
605.0000	415.469
605.5000	415.573
606.0000	415.651
606.5000	415.86
607.0000	416.052
607.5000	416.22
608.0000	416.291
608.5000	416.367
609.0000	416.512
609.5000	416.569
610.0000	416.711
610.5000	416.833
611.0000	416.926
611.5000	416.989
612.0000	417.11
612.5000	417.17
613.0000	417.311
613.5000	417.519
614.0000	417.54
614.5000	417.606
615.0000	417.695
615.5000	417.706
616.0000	417.913
616.5000	418.059
617.0000	418.138
617.5000	418.276
618.0000	418.351
618.5000	418.5
619.0000	418.606
619.5000	418.78
620.0000	418.841
620.5000	418.932
621.0000	419.013
621.5000	419.065
622.0000	419.179
622.5000	419.256
623.0000	419.364
623.5000	419.441
624.0000	419.519
624.5000	419.617
625.0000	419.687
625.5000	419.853
626.0000	419.969
626.5000	420.026
627.0000	420.2
627.5000	420.213
628.0000	420.3
628.5000	420.429
629.0000	420.403
629.5000	420.509
630.0000	420.64
630.5000	420.77
631.0000	420.977
631.5000	421.074
632.0000	421.134
632.5000	421.181
633.0000	421.261
633.5000	421.345
634.0000	421.462
634.5000	421.549
635.0000	421.492
635.5000	421.648
636.0000	421.721
636.5000	421.807
637.0000	421.951
637.5000	421.934
638.0000	422.051
638.5000	422.126
639.0000	422.139
639.5000	422.269
640.0000	422.344
640.5000	422.445
641.0000	422.476
641.5000	422.607
642.0000	422.626
642.5000	422.771
643.0000	423.018
643.5000	422.998
644.0000	423.085
644.5000	423.023
645.0000	423.075
645.5000	423.203
646.0000	423.32
646.5000	423.451
647.0000	423.621
647.5000	423.629
648.0000	423.641
648.5000	423.774
649.0000	423.775
649.5000	423.867
650.0000	424.046
650.5000	424.091
651.0000	424.254
651.5000	424.284
652.0000	424.293
652.5000	424.407
653.0000	424.371
653.5000	424.496
654.0000	424.65
654.5000	424.7
655.0000	424.76
655.5000	424.928
656.0000	424.932
656.5000	424.993
657.0000	425.099
657.5000	425.151
658.0000	425.237
658.5000	425.361
659.0000	425.453
659.5000	425.435
660.0000	425.489
660.5000	425.499
661.0000	425.564
661.5000	425.676
662.0000	425.776
662.5000	425.866
663.0000	425.988
663.5000	426.146
664.0000	426.124
664.5000	426.15
665.0000	426.161
665.5000	426.13
666.0000	426.319
666.5000	426.457
667.0000	426.501
667.5000	426.562
668.0000	426.551
668.5000	426.585
669.0000	426.652
669.5000	426.747
670.0000	426.752
670.5000	426.862
671.0000	426.904
671.5000	426.993
672.0000	427.145
672.5000	427.222
673.0000	427.323
673.5000	427.459
674.0000	427.587
674.5000	427.611
675.0000	427.68
675.5000	427.677
676.0000	427.716
676.5000	427.708
677.0000	427.821
677.5000	427.862
678.0000	427.969
678.5000	428.103
679.0000	428.209
679.5000	428.29
680.0000	428.312
680.5000	428.437
681.0000	428.468
681.5000	428.489
682.0000	428.586
682.5000	428.523
683.0000	428.517
683.5000	428.617
684.0000	428.637
684.5000	428.733
685.0000	428.836
685.5000	428.898
686.0000	428.869
686.5000	428.934
687.0000	428.986
687.5000	429.054
688.0000	429.255
688.5000	429.364
689.0000	429.401
689.5000	429.373
690.0000	429.417
690.5000	429.466
691.0000	429.516
691.5000	429.668
692.0000	429.693
692.5000	429.714
693.0000	429.788
693.5000	429.892
694.0000	429.981
694.5000	430.049
695.0000	430.178
695.5000	430.121
696.0000	430.101
696.5000	430.141
697.0000	430.166
697.5000	430.251
698.0000	430.35
698.5000	430.432
699.0000	430.474
699.5000	430.606
700.0000	430.692
700.5000	430.813
701.0000	430.848
701.5000	430.845
702.0000	430.939
702.5000	430.911
703.0000	431.021
703.5000	431.069
704.0000	431.117
704.5000	431.214
705.0000	431.27
705.5000	431.302
706.0000	431.287
706.5000	431.344
707.0000	431.376
707.5000	431.47
708.0000	431.584
708.5000	431.628
709.0000	431.661
709.5000	431.695
710.0000	431.717
710.5000	431.772
711.0000	431.86
711.5000	432.003
712.0000	432.095
712.5000	432.138
713.0000	432.202
713.5000	432.235
714.0000	432.23
714.5000	432.395
715.0000	432.52
715.5000	432.518
716.0000	432.528
716.5000	432.49
717.0000	432.499
717.5000	432.594
718.0000	432.71
718.5000	432.733
719.0000	432.786
719.5000	432.887
720.0000	432.941
720.5000	433.088
721.0000	433.179
721.5000	433.178
722.0000	433.341
722.5000	433.289
723.0000	433.253
723.5000	433.318
724.0000	433.211
724.5000	433.322
725.0000	433.307
725.5000	433.313
726.0000	433.468
726.5000	433.569
727.0000	433.609
727.5000	433.714
728.0000	433.754
728.5000	433.715
729.0000	433.836
729.5000	433.827
730.0000	433.798
730.5000	433.878
731.0000	433.93
731.5000	434.053
732.0000	434.119
732.5000	434.123
733.0000	434.14
733.5000	434.162
734.0000	434.26
734.5000	434.298
735.0000	434.433
735.5000	434.45
736.0000	434.446
736.5000	434.508
737.0000	434.531
737.5000	434.544
738.0000	434.663
738.5000	434.761
739.0000	434.793
739.5000	434.9
740.0000	434.918
740.5000	435.005
741.0000	435.05
741.5000	435.17
742.0000	435.203
742.5000	435.142
743.0000	435.191
743.5000	435.149
744.0000	435.204
744.5000	435.291
745.0000	435.331
745.5000	435.438
746.0000	435.515
746.5000	435.623
747.0000	435.701
747.5000	435.687
748.0000	435.703
748.5000	435.675
749.0000	435.748
749.5000	435.818
750.0000	435.896
750.5000	435.966
751.0000	435.892
751.5000	435.911
752.0000	435.829
752.5000	435.78
753.0000	435.921
753.5000	435.963
754.0000	436.124
754.5000	436.259
755.0000	436.303
755.5000	436.367
756.0000	436.405
756.5000	436.484
757.0000	436.52
757.5000	436.624
758.0000	436.706
758.5000	436.647
759.0000	436.686
759.5000	436.693
760.0000	436.737
760.5000	436.881
761.0000	436.902
761.5000	437.008
762.0000	437.054
762.5000	437.029
763.0000	437.129
763.5000	437.03
764.0000	437.067
764.5000	437.17
765.0000	437.16
765.5000	437.283
766.0000	437.276
766.5000	437.298
767.0000	437.331
767.5000	437.399
768.0000	437.514
768.5000	437.649
769.0000	437.778
769.5000	437.822
770.0000	437.803
770.5000	437.857
771.0000	437.876
771.5000	437.957
772.0000	438.055
772.5000	438.055
773.0000	438.081
773.5000	438.117
774.0000	438.166
774.5000	438.161
775.0000	438.125
775.5000	438.209
776.0000	438.222
776.5000	438.202
777.0000	438.337
777.5000	438.336
778.0000	438.377
778.5000	438.501
779.0000	438.541
779.5000	438.561
780.0000	438.588
780.5000	438.662
781.0000	438.74
781.5000	438.762
782.0000	438.9
782.5000	439.031
783.0000	439.099
783.5000	439.173
784.0000	439.108
784.5000	439.064
785.0000	439.119
785.5000	439.192
786.0000	439.276
786.5000	439.382
787.0000	439.37
787.5000	439.377
788.0000	439.413
788.5000	439.429
789.0000	439.443
789.5000	439.467
790.0000	439.506
790.5000	439.451
791.0000	439.536
791.5000	439.62
792.0000	439.704
792.5000	439.833
793.0000	439.907
793.5000	439.898
794.0000	439.862
794.5000	439.923
795.0000	439.962
795.5000	440.01
796.0000	440.212
796.5000	440.199
797.0000	440.286
797.5000	440.371
798.0000	440.338
798.5000	440.38
799.0000	440.391
799.5000	440.416
800.0000	440.459
800.5000	440.502
801.0000	440.585
801.5000	440.628
802.0000	440.647
802.5000	440.744
803.0000	440.676
803.5000	440.777
804.0000	440.869
804.5000	440.952
805.0000	441.059
805.5000	441.053
806.0000	441.181
806.5000	441.183
807.0000	441.174
807.5000	441.243
808.0000	441.195
808.5000	441.293
809.0000	441.396
809.5000	441.498
810.0000	441.518
810.5000	441.516
811.0000	441.52
811.5000	441.554
812.0000	441.7
812.5000	441.693
813.0000	441.816
813.5000	441.881
814.0000	441.773
814.5000	441.894
815.0000	441.942
815.5000	441.962
816.0000	442.071
816.5000	442.086
817.0000	442.185
817.5000	442.21
818.0000	442.332
818.5000	442.442
819.0000	442.487
819.5000	442.599
820.0000	442.598
820.5000	442.621
821.0000	442.569
821.5000	442.628
822.0000	442.673
822.5000	442.779
823.0000	442.908
823.5000	442.785
824.0000	442.891
824.5000	442.886
825.0000	442.899
825.5000	443.078
826.0000	443.082
826.5000	443.146
827.0000	443.191
827.5000	443.251
828.0000	443.286
828.5000	443.265
829.0000	443.348
829.5000	443.337
830.0000	443.41
830.5000	443.538
831.0000	443.599
831.5000	443.755
832.0000	443.787
832.5000	443.901
833.0000	443.87
833.5000	443.869
834.0000	443.971
834.5000	443.913
835.0000	443.966
835.5000	444.032
836.0000	444.084
836.5000	444.18
837.0000	444.282
837.5000	444.311
838.0000	444.362
838.5000	444.418
839.0000	444.461
839.5000	444.588
840.0000	444.68
840.5000	444.759
841.0000	444.909
841.5000	444.927
842.0000	444.945
842.5000	444.966
843.0000	444.937
843.5000	444.943
844.0000	444.985
844.5000	445.065
845.0000	445.184
845.5000	445.239
846.0000	445.158
846.5000	445.241
847.0000	445.261
847.5000	445.326
848.0000	445.531
848.5000	445.473
849.0000	445.483
849.5000	445.568
850.0000	445.594
850.5000	445.767
851.0000	445.79
851.5000	445.833
852.0000	445.958
852.5000	445.966
853.0000	446.058
853.5000	446.204
854.0000	446.279
854.5000	446.318
855.0000	446.422
855.5000	446.403
856.0000	446.374
856.5000	446.412
857.0000	446.415
857.5000	446.486
858.0000	446.515
858.5000	446.605
859.0000	446.734
859.5000	446.776
860.0000	446.896
860.5000	446.979
861.0000	446.911
861.5000	447.013
862.0000	447.06
862.5000	447.068
863.0000	447.209
863.5000	447.154
864.0000	447.269
864.5000	447.226
865.0000	447.23
865.5000	447.322
866.0000	447.275
866.5000	447.482
867.0000	447.599
867.5000	447.694
868.0000	447.771
868.5000	447.84
869.0000	447.895
869.5000	447.903
870.0000	447.979
870.5000	448.022
871.0000	448.107
871.5000	448.201
872.0000	448.211
872.5000	448.288
873.0000	448.265
873.5000	448.325
874.0000	448.403
874.5000	448.37
875.0000	448.457
875.5000	448.548
876.0000	448.623
876.5000	448.622
877.0000	448.669
877.5000	448.694
878.0000	448.762
878.5000	448.899
879.0000	448.946
879.5000	449.023
880.0000	449.095
880.5000	449.199
881.0000	449.287
881.5000	449.316
882.0000	449.45
882.5000	449.504
883.0000	449.538
883.5000	449.579
884.0000	449.593
884.5000	449.702
885.0000	449.93
885.5000	450.172
886.0000	450.205
886.5000	450.17
887.0000	449.986
887.5000	449.884
888.0000	449.903
888.5000	450
889.0000	450.125
889.5000	450.178
890.0000	450.303
890.5000	450.354
891.0000	450.482
891.5000	450.559
892.0000	450.565
892.5000	450.62
893.0000	450.638
893.5000	450.662
894.0000	450.63
894.5000	450.665
895.0000	450.728
895.5000	450.796
896.0000	450.92
896.5000	450.966
897.0000	451.026
897.5000	451.066
898.0000	451.179
898.5000	451.272
899.0000	451.272
899.5000	451.351
900.0000	451.363
900.5000	451.435
901.0000	451.577
901.5000	451.699
902.0000	451.823
902.5000	451.968
903.0000	452.001
903.5000	451.968
904.0000	452.007
904.5000	452.074
905.0000	452.157
905.5000	452.299
906.0000	452.372
906.5000	452.314
907.0000	452.391
907.5000	452.416
908.0000	452.439
908.5000	452.503
909.0000	452.523
909.5000	452.574
910.0000	452.577
910.5000	452.597
911.0000	452.664
911.5000	452.738
912.0000	452.862
912.5000	452.933
913.0000	453.044
913.5000	453.094
914.0000	453.139
914.5000	453.343
915.0000	453.356
915.5000	453.486
916.0000	453.568
916.5000	453.563
917.0000	453.619
917.5000	453.585
918.0000	453.649
918.5000	453.696
919.0000	453.78
919.5000	453.86
920.0000	453.891
920.5000	453.913
921.0000	453.97
921.5000	454.031
922.0000	454.083
922.5000	454.085
923.0000	454.198
923.5000	454.278
924.0000	454.378
924.5000	454.494
925.0000	454.531
925.5000	454.53
926.0000	454.585
926.5000	454.693
927.0000	454.663
927.5000	454.781
928.0000	454.893
928.5000	454.979
929.0000	455.046
929.5000	455.008
930.0000	455.023
930.5000	455.018
931.0000	455.105
931.5000	455.198
932.0000	455.188
932.5000	455.28
933.0000	455.427
933.5000	455.52
934.0000	455.665
934.5000	455.694
935.0000	455.715
935.5000	455.737
936.0000	455.855
936.5000	455.913
937.0000	455.834
937.5000	455.942
938.0000	455.885
938.5000	455.959
939.0000	456.108
939.5000	456.196
940.0000	456.28
940.5000	456.298
941.0000	456.341
941.5000	456.351
942.0000	456.443
942.5000	456.552
943.0000	456.594
943.5000	456.67
944.0000	456.671
944.5000	456.728
945.0000	456.835
945.5000	456.886
946.0000	456.989
946.5000	457.025
947.0000	456.967
947.5000	457.013
948.0000	457.02
948.5000	457.1
949.0000	457.303
949.5000	457.364
950.0000	457.435
950.5000	457.408
951.0000	457.389
951.5000	457.407
952.0000	457.523
952.5000	457.629
953.0000	457.64
953.5000	457.797
954.0000	457.761
954.5000	457.863
955.0000	458.031
955.5000	458.052
956.0000	458.152
956.5000	458.205
957.0000	458.242
957.5000	458.242
958.0000	458.345
958.5000	458.443
959.0000	458.355
959.5000	458.496
960.0000	458.59
960.5000	458.563
961.0000	458.763
961.5000	458.75
962.0000	458.725
962.5000	458.784
963.0000	458.776
963.5000	458.85
964.0000	458.91
964.5000	458.94
965.0000	459.052
965.5000	459.098
966.0000	459.112
966.5000	459.261
967.0000	459.372
967.5000	459.401
968.0000	459.502
968.5000	459.528
969.0000	459.559
969.5000	459.756
970.0000	459.804
970.5000	459.811
971.0000	459.828
971.5000	459.81
972.0000	459.833
972.5000	459.974
973.0000	460.031
973.5000	460.057
974.0000	460.144
974.5000	460.164
975.0000	460.244
975.5000	460.278
976.0000	460.309
976.5000	460.321
977.0000	460.41
977.5000	460.544
978.0000	460.558
978.5000	460.624
979.0000	460.631
979.5000	460.606
980.0000	460.677
980.5000	460.737
981.0000	460.81
981.5000	460.918
982.0000	461.007
982.5000	461.019
983.0000	461.078
983.5000	461.087
984.0000	461.201
984.5000	461.368
985.0000	461.353
985.5000	461.45
986.0000	461.537
986.5000	461.563
987.0000	461.707
987.5000	461.81
988.0000	461.796
988.5000	461.793
989.0000	461.761
989.5000	461.824
990.0000	461.844
990.5000	461.874
991.0000	462.004
991.5000	461.955
992.0000	462.008
992.5000	462.134
993.0000	462.104
993.5000	462.094
994.0000	462.191
994.5000	462.238
995.0000	462.331
995.5000	462.531
996.0000	462.655
996.5000	462.688
997.0000	462.71
997.5000	462.702
998.0000	462.716
998.5000	462.77
999.0000	462.921
999.5000	463.065
1000.0000	463.083
1000.5000	463.091
1001.0000	463.093
1001.5000	463.038
1002.0000	463.099
1002.5000	463.177
1003.0000	463.237
1003.5000	463.328
1004.0000	463.397
1004.5000	463.454
1005.0000	463.491
1005.5000	463.545
1006.0000	463.564
1006.5000	463.63
1007.0000	463.707
1007.5000	463.805
1008.0000	463.915
1008.5000	463.919
1009.0000	463.926
1009.5000	463.897
1010.0000	463.949
1010.5000	464.203
1011.0000	464.38
1011.5000	464.534
1012.0000	464.503
1012.5000	464.344
1013.0000	464.315
1013.5000	464.299
1014.0000	464.405
1014.5000	464.474
1015.0000	464.532
1015.5000	464.53
1016.0000	464.574
1016.5000	464.729
1017.0000	464.829
1017.5000	464.996
1018.0000	465.071
1018.5000	465.054
1019.0000	464.977
1019.5000	464.924
1020.0000	464.977
1020.5000	465.067
1021.0000	465.164
1021.5000	465.256
1022.0000	465.256
1022.5000	465.34
1023.0000	465.417
1023.5000	465.444
1024.0000	465.446
1024.5000	465.476
1025.0000	465.593
1025.5000	465.632
1026.0000	465.792
1026.5000	465.806
1027.0000	465.892
1027.5000	465.987
1028.0000	465.969
1028.5000	466.049
1029.0000	466.013
1029.5000	466.028
1030.0000	466.116
1030.5000	466.206
1031.0000	466.355
1031.5000	466.424
1032.0000	466.435
1032.5000	466.425
1033.0000	466.351
1033.5000	466.411
1034.0000	466.587
1034.5000	466.637
1035.0000	466.704
1035.5000	466.762
1036.0000	466.789
1036.5000	466.869
1037.0000	466.953
1037.5000	467.015
1038.0000	467.014
1038.5000	467.077
1039.0000	467.12
1039.5000	467.186
1040.0000	467.329
1040.5000	467.43
1041.0000	467.383
1041.5000	467.38
1042.0000	467.394
1042.5000	467.299
1043.0000	467.419
1043.5000	467.53
1044.0000	467.574
1044.5000	467.64
1045.0000	467.783
1045.5000	467.762
1046.0000	467.79
1046.5000	467.841
1047.0000	467.779
1047.5000	467.906
1048.0000	467.912
1048.5000	468.041
1049.0000	468.081
1049.5000	468.138
1050.0000	468.216
1050.5000	468.209
1051.0000	468.318
1051.5000	468.342
1052.0000	468.37
1052.5000	468.435
1053.0000	468.433
1053.5000	468.462
1054.0000	468.588
1054.5000	468.669
1055.0000	468.657
1055.5000	468.747
1056.0000	468.695
1056.5000	468.73
1057.0000	468.918
1057.5000	468.831
1058.0000	468.868
1058.5000	468.948
1059.0000	468.928
1059.5000	469.104
1060.0000	469.227
1060.5000	469.146
1061.0000	469.224
1061.5000	469.367
1062.0000	469.398
1062.5000	469.473
1063.0000	469.558
1063.5000	469.475
1064.0000	469.573
1064.5000	469.766
1065.0000	469.841
1065.5000	469.975
1066.0000	470.054
1066.5000	469.976
1067.0000	469.948
1067.5000	469.96
1068.0000	469.954
1068.5000	470.003
1069.0000	470.112
1069.5000	470.123
1070.0000	470.176
1070.5000	470.286
1071.0000	470.205
1071.5000	470.323
1072.0000	470.419
1072.5000	470.464
1073.0000	470.627
1073.5000	470.678
1074.0000	470.658
1074.5000	470.688
1075.0000	470.715
1075.5000	470.753
1076.0000	470.803
1076.5000	470.856
1077.0000	470.886
1077.5000	470.932
1078.0000	471.076
1078.5000	471.201
1079.0000	471.298
1079.5000	471.244
1080.0000	471.217
1080.5000	471.363
1081.0000	471.421
1081.5000	471.557
1082.0000	471.688
1082.5000	471.691
1083.0000	471.67
1083.5000	471.791
1084.0000	471.697
1084.5000	471.612
1085.0000	471.743
1085.5000	471.62
1086.0000	471.731
1086.5000	471.824
1087.0000	471.778
1087.5000	471.894
1088.0000	472.02
1088.5000	472.068
1089.0000	472.141
1089.5000	472.164
1090.0000	472.144
1090.5000	472.223
1091.0000	472.337
1091.5000	472.504
1092.0000	472.426
1092.5000	472.38
1093.0000	472.448
1093.5000	472.391
1094.0000	472.572
1094.5000	472.666
1095.0000	472.667
1095.5000	472.718
1096.0000	472.791
1096.5000	472.828
1097.0000	472.866
1097.5000	472.935
1098.0000	472.908
1098.5000	473.031
1099.0000	472.977
1099.5000	473.013
1100.0000	473.131
1100.5000	473.14
1101.0000	473.253
1101.5000	473.414
1102.0000	473.381
1102.5000	473.34
1103.0000	473.467
1103.5000	473.417
1104.0000	473.458
1104.5000	473.555
1105.0000	473.521
1105.5000	473.593
1106.0000	473.702
1106.5000	473.73
1107.0000	473.867
1107.5000	473.831
1108.0000	473.8
1108.5000	473.957
1109.0000	473.986
1109.5000	474.154
1110.0000	474.32
1110.5000	474.346
1111.0000	474.375
1111.5000	474.396
1112.0000	474.371
1112.5000	474.354
1113.0000	474.418
1113.5000	474.484
1114.0000	474.519
1114.5000	474.523
1115.0000	474.548
1115.5000	474.637
1116.0000	474.712
1116.5000	474.827
1117.0000	474.93
1117.5000	474.962
1118.0000	474.984
1118.5000	475.063
1119.0000	475.094
1119.5000	475.066
1120.0000	475.152
1120.5000	475.165
1121.0000	475.221
1121.5000	475.344
1122.0000	475.334
1122.5000	475.325
1123.0000	475.32
1123.5000	475.226
1124.0000	475.311
1124.5000	475.423
1125.0000	475.493
1125.5000	475.558
1126.0000	475.676
1126.5000	475.612
1127.0000	475.585
1127.5000	475.775
1128.0000	475.677
1128.5000	475.813
1129.0000	475.837
1129.5000	475.871
1130.0000	476.009
1130.5000	475.966
1131.0000	476.052
1131.5000	476.019
1132.0000	475.982
1132.5000	476.124
1133.0000	476.179
1133.5000	476.227
1134.0000	476.412
1134.5000	476.434
1135.0000	476.517
1135.5000	476.564
1136.0000	476.476
1136.5000	476.522
1137.0000	476.547
1137.5000	476.543
1138.0000	476.606
1138.5000	476.685
1139.0000	476.699
1139.5000	476.749
1140.0000	476.825
1140.5000	476.769
1141.0000	476.782
1141.5000	476.84
1142.0000	476.829
1142.5000	476.908
1143.0000	476.881
1143.5000	476.874
1144.0000	477.013
1144.5000	477.061
1145.0000	477.177
1145.5000	477.284
1146.0000	477.246
1146.5000	477.328
1147.0000	477.39
1147.5000	477.438
1148.0000	477.562
1148.5000	477.57
1149.0000	477.647
1149.5000	477.714
1150.0000	477.701
1150.5000	477.818
1151.0000	477.776
1151.5000	477.76
1152.0000	477.801
1152.5000	477.719
1153.0000	477.787
1153.5000	477.828
1154.0000	477.844
1154.5000	477.905
1155.0000	477.952
1155.5000	478.017
1156.0000	478.076
1156.5000	478.056
1157.0000	478.125
1157.5000	478.143
1158.0000	478.203
1158.5000	478.362
1159.0000	478.355
1159.5000	478.356
1160.0000	478.328
1160.5000	478.306
1161.0000	478.363
1161.5000	478.413
1162.0000	478.49
1162.5000	478.543
1163.0000	478.578
1163.5000	478.64
1164.0000	478.675
1164.5000	478.654
1165.0000	478.719
1165.5000	478.805
1166.0000	478.959
1166.5000	479.075
1167.0000	479.126
1167.5000	479.145
1168.0000	479.108
1168.5000	479.096
1169.0000	479.176
1169.5000	479.194
1170.0000	479.179
1170.5000	479.155
1171.0000	479.162
1171.5000	479.18
1172.0000	479.214
1172.5000	479.405
1173.0000	479.495
1173.5000	479.482
1174.0000	479.52
1174.5000	479.548
1175.0000	479.465
1175.5000	479.646
1176.0000	479.688
1176.5000	479.647
1177.0000	479.679
1177.5000	479.648
1178.0000	479.752
1178.5000	479.793
1179.0000	479.814
1179.5000	479.679
1180.0000	479.676
1180.5000	479.845
1181.0000	479.85
1181.5000	479.903
1182.0000	479.923
1182.5000	479.889
1183.0000	479.999
1183.5000	480.216
1184.0000	480.219
1184.5000	480.193
1185.0000	480.312
1185.5000	480.243
1186.0000	480.276
1186.5000	480.297
1187.0000	480.204
1187.5000	480.285
1188.0000	480.391
1188.5000	480.501
1189.0000	480.635
1189.5000	480.684
1190.0000	480.694
1190.5000	480.704
1191.0000	480.685
1191.5000	480.755
1192.0000	480.809
1192.5000	480.817
1193.0000	480.827
1193.5000	480.881
1194.0000	480.811
1194.5000	480.823
1195.0000	480.893
1195.5000	480.822
1196.0000	480.901
1196.5000	480.989
1197.0000	481.009
1197.5000	481.018
1198.0000	481.021
1198.5000	481.122
1199.0000	481.155
1199.5000	481.252
1200.0000	481.317
1200.5000	481.36
1201.0000	481.472
1201.5000	481.509
1202.0000	481.568
1202.5000	481.62
1203.0000	481.465
1203.5000	481.528
1204.0000	481.536
1204.5000	481.495
1205.0000	481.602
1205.5000	481.575
1206.0000	481.701
1206.5000	481.65
1207.0000	481.748
1207.5000	481.807
1208.0000	481.627
1208.5000	481.726
1209.0000	481.726
1209.5000	481.741
1210.0000	481.873
1210.5000	481.834
1211.0000	481.896
1211.5000	481.992
1212.0000	482.038
1212.5000	482.127
1213.0000	482.163
1213.5000	482.087
1214.0000	482.1
1214.5000	482.085
1215.0000	482.047
1215.5000	482.023
1216.0000	482.09
1216.5000	482.241
1217.0000	482.289
1217.5000	482.334
1218.0000	482.364
1218.5000	482.255
1219.0000	482.268
1219.5000	482.292
1220.0000	482.288
1220.5000	482.357
1221.0000	482.458
1221.5000	482.598
1222.0000	482.629
1222.5000	482.665
1223.0000	482.624
1223.5000	482.648
1224.0000	482.724
1224.5000	482.704
1225.0000	482.823
1225.5000	482.854
1226.0000	482.875
1226.5000	482.958
1227.0000	482.907
1227.5000	482.862
1228.0000	482.907
1228.5000	482.919
1229.0000	483.033
1229.5000	483.104
1230.0000	483.192
1230.5000	483.317
1231.0000	483.237
1231.5000	483.276
1232.0000	483.157
1232.5000	483.067
1233.0000	483.133
1233.5000	483.124
1234.0000	483.205
1234.5000	483.228
1235.0000	483.199
1235.5000	483.28
1236.0000	483.32
1236.5000	483.417
1237.0000	483.522
1237.5000	483.49
1238.0000	483.465
1238.5000	483.445
1239.0000	483.41
1239.5000	483.452
1240.0000	483.536
1240.5000	483.596
1241.0000	483.627
1241.5000	483.698
1242.0000	483.662
1242.5000	483.624
1243.0000	483.647
1243.5000	483.659
1244.0000	483.691
1244.5000	483.761
1245.0000	483.841
1245.5000	483.851
1246.0000	483.938
1246.5000	483.904
1247.0000	483.904
1247.5000	483.957
1248.0000	483.924
1248.5000	483.991
1249.0000	484.058
1249.5000	484.038
1250.0000	484.043
1250.5000	484.063
1251.0000	484.049
1251.5000	484.09
1252.0000	484.119
1252.5000	484.123
1253.0000	484.252
1253.5000	484.278
1254.0000	484.277
1254.5000	484.409
1255.0000	484.337
1255.5000	484.372
1256.0000	484.416
1256.5000	484.419
1257.0000	484.481
1257.5000	484.499
1258.0000	484.541
1258.5000	484.522
1259.0000	484.488
1259.5000	484.509
1260.0000	484.534
1260.5000	484.538
1261.0000	484.627
1261.5000	484.694
1262.0000	484.7
1262.5000	484.723
1263.0000	484.787
1263.5000	484.731
1264.0000	484.767
1264.5000	484.716
1265.0000	484.598
1265.5000	484.596
1266.0000	484.657
1266.5000	484.797
1267.0000	484.865
1267.5000	484.967
1268.0000	484.912
1268.5000	484.96
1269.0000	485.034
1269.5000	485.061
1270.0000	485.05
1270.5000	484.954
1271.0000	484.941
1271.5000	484.857
1272.0000	484.971
1272.5000	485.179
1273.0000	485.173
1273.5000	485.294
1274.0000	485.327
1274.5000	485.23
1275.0000	485.267
1275.5000	485.313
1276.0000	485.397
1276.5000	485.419
1277.0000	485.44
1277.5000	485.464
1278.0000	485.39
1278.5000	485.379
1279.0000	485.382
1279.5000	485.428
1280.0000	485.423
1280.5000	485.496
1281.0000	485.59
1281.5000	485.505
1282.0000	485.617
1282.5000	485.594
1283.0000	485.55
1283.5000	485.647
1284.0000	485.702
1284.5000	485.661
1285.0000	485.796
1285.5000	485.819
1286.0000	485.804
1286.5000	485.911
1287.0000	485.801
1287.5000	485.888
1288.0000	485.876
1288.5000	485.813
1289.0000	485.757
1289.5000	485.655
1290.0000	485.713
1290.5000	485.788
1291.0000	485.942
1291.5000	486.117
1292.0000	486.167
1292.5000	486.24
1293.0000	486.271
1293.5000	486.112
1294.0000	486.045
1294.5000	486.071
1295.0000	486.124
1295.5000	486.092
1296.0000	486.133
1296.5000	486.236
1297.0000	486.143
1297.5000	486.235
1298.0000	486.326
1298.5000	486.253
1299.0000	486.317
1299.5000	486.382
1300.0000	486.353
1300.5000	486.329
1301.0000	486.362
1301.5000	486.412
1302.0000	486.454
1302.5000	486.547
1303.0000	486.573
1303.5000	486.517
1304.0000	486.418
1304.5000	486.453
1305.0000	486.514
1305.5000	486.591
1306.0000	486.763
1306.5000	486.74
1307.0000	486.741
1307.5000	486.76
1308.0000	486.803
1308.5000	486.828
1309.0000	486.759
1309.5000	486.72
1310.0000	486.735
1310.5000	486.685
1311.0000	486.747
1311.5000	486.834
1312.0000	486.829
1312.5000	486.934
1313.0000	486.967
1313.5000	486.923
1314.0000	486.964
1314.5000	487.041
1315.0000	487.019
1315.5000	487.042
1316.0000	486.953
1316.5000	486.824
1317.0000	486.894
1317.5000	486.961
1318.0000	487.095
1318.5000	487.184
1319.0000	487.181
1319.5000	487.183
1320.0000	487.029
1320.5000	487.214
1321.0000	487.287
1321.5000	487.285
1322.0000	487.354
1322.5000	487.08
1323.0000	487.084
1323.5000	487.126
1324.0000	487.219
1324.5000	487.374
1325.0000	487.385
1325.5000	487.355
1326.0000	487.247
1326.5000	487.159
1327.0000	487.174
1327.5000	487.306
1328.0000	487.331
1328.5000	487.443
1329.0000	487.46
1329.5000	487.34
1330.0000	487.353
1330.5000	487.347
1331.0000	487.407
1331.5000	487.538
1332.0000	487.65
1332.5000	487.692
1333.0000	487.627
1333.5000	487.538
1334.0000	487.496
1334.5000	487.526
1335.0000	487.575
1335.5000	487.568
1336.0000	487.713
1336.5000	487.598
1337.0000	487.632
1337.5000	487.843
1338.0000	487.857
1338.5000	487.946
1339.0000	487.974
1339.5000	487.803
1340.0000	487.823
1340.5000	487.873
1341.0000	487.812
1341.5000	487.935
1342.0000	487.853
1342.5000	487.838
1343.0000	487.863
1343.5000	487.849
1344.0000	487.959
1344.5000	488.046
1345.0000	488.146
1345.5000	488.144
1346.0000	488.167
1346.5000	488.073
1347.0000	488.058
1347.5000	488.087
1348.0000	487.997
1348.5000	488.12
1349.0000	488.191
1349.5000	488.169
1350.0000	488.219
1350.5000	488.199
1351.0000	488.056
1351.5000	488.048
1352.0000	487.977
1352.5000	487.97
1353.0000	488.106
1353.5000	488.196
1354.0000	488.303
1354.5000	488.328
1355.0000	488.307
1355.5000	488.284
1356.0000	488.244
1356.5000	488.248
1357.0000	488.232
1357.5000	488.24
1358.0000	488.207
1358.5000	488.239
1359.0000	488.249
1359.5000	488.254
1360.0000	488.379
1360.5000	488.391
1361.0000	488.446
1361.5000	488.468
1362.0000	488.355
1362.5000	488.359
1363.0000	488.298
1363.5000	488.319
1364.0000	488.453
1364.5000	488.511
1365.0000	488.48
1365.5000	488.537
1366.0000	488.59
1366.5000	488.518
1367.0000	488.56
1367.5000	488.657
1368.0000	488.624
1368.5000	488.6
1369.0000	488.685
1369.5000	488.598
1370.0000	488.608
1370.5000	488.726
1371.0000	488.813
1371.5000	488.771
1372.0000	488.786
1372.5000	488.752
1373.0000	488.72
1373.5000	488.788
1374.0000	488.771
1374.5000	488.833
1375.0000	488.864
1375.5000	488.96
1376.0000	488.991
1376.5000	489.043
1377.0000	488.995
1377.5000	489.076
1378.0000	489.059
1378.5000	489.018
1379.0000	488.998
1379.5000	488.795
1380.0000	488.831
1380.5000	488.851
1381.0000	488.869
1381.5000	488.983
1382.0000	489.031
1382.5000	489.115
1383.0000	489.253
1383.5000	489.191
1384.0000	489.149
1384.5000	489.151
1385.0000	489.187
1385.5000	489.249
1386.0000	489.278
1386.5000	489.31
1387.0000	489.247
1387.5000	489.263
1388.0000	489.375
1388.5000	489.234
1389.0000	489.298
1389.5000	489.43
1390.0000	489.345
1390.5000	489.574
1391.0000	489.572
1391.5000	489.43
1392.0000	489.445
1392.5000	489.339
1393.0000	489.208
1393.5000	489.313
1394.0000	489.302
1394.5000	489.225
1395.0000	489.345
1395.5000	489.257
1396.0000	489.356
1396.5000	489.484
1397.0000	489.501
1397.5000	489.607
1398.0000	489.653
1398.5000	489.626
1399.0000	489.653
1399.5000	489.697
1400.0000	489.679
1400.5000	489.658
1401.0000	489.662
1401.5000	489.564
1402.0000	489.547
1402.5000	489.578
1403.0000	489.617
1403.5000	489.717
1404.0000	489.701
1404.5000	489.701
1405.0000	489.679
1405.5000	489.739
1406.0000	489.771
1406.5000	489.837
1407.0000	489.792
1407.5000	489.767
1408.0000	489.811
1408.5000	489.825
1409.0000	489.89
1409.5000	489.891
1410.0000	489.876
1410.5000	489.92
1411.0000	489.88
1411.5000	489.795
1412.0000	489.929
1412.5000	489.911
1413.0000	490.035
1413.5000	490.098
1414.0000	489.935
1414.5000	489.943
1415.0000	489.952
1415.5000	489.972
1416.0000	490.133
1416.5000	490.146
1417.0000	490.067
1417.5000	490.153
1418.0000	490.098
1418.5000	490.076
1419.0000	490.06
1419.5000	489.982
1420.0000	489.943
1420.5000	489.931
1421.0000	489.995
1421.5000	489.994
1422.0000	490.123
1422.5000	490.186
1423.0000	490.272
1423.5000	490.339
1424.0000	490.348
1424.5000	490.34
1425.0000	490.284
1425.5000	490.29
1426.0000	490.242
1426.5000	490.259
1427.0000	490.234
1427.5000	490.186
1428.0000	490.145
1428.5000	490.122
1429.0000	490.135
1429.5000	490.197
1430.0000	490.255
1430.5000	490.33
1431.0000	490.434
1431.5000	490.45
1432.0000	490.431
1432.5000	490.52
1433.0000	490.597
1433.5000	490.661
1434.0000	490.674
1434.5000	490.59
1435.0000	490.444
1435.5000	490.355
1436.0000	490.412
1436.5000	490.407
1437.0000	490.472
1437.5000	490.551
1438.0000	490.514
1438.5000	490.529
1439.0000	490.576
1439.5000	490.519
1440.0000	490.628
1440.5000	490.697
1441.0000	490.618
1441.5000	490.717
1442.0000	490.64
1442.5000	490.575
1443.0000	490.612
1443.5000	490.577
1444.0000	490.657
1444.5000	490.726
1445.0000	490.781
1445.5000	490.736
1446.0000	490.715
1446.5000	490.615
1447.0000	490.607
1447.5000	490.664
1448.0000	490.611
1448.5000	490.708
1449.0000	490.801
1449.5000	490.876
1450.0000	490.928
1450.5000	491.018
1451.0000	491.007
1451.5000	490.986
1452.0000	491.087
1452.5000	491.093
1453.0000	491.134
1453.5000	491.196
1454.0000	491.12
1454.5000	491.06
1455.0000	490.946
1455.5000	490.966
1456.0000	491.014
1456.5000	491.084
1457.0000	491.103
1457.5000	491.041
1458.0000	491.03
1458.5000	491.003
1459.0000	491.081
1459.5000	491.087
1460.0000	491.106
1460.5000	491.06
1461.0000	491.108
1461.5000	491.087
1462.0000	491.071
1462.5000	491.238
1463.0000	491.209
1463.5000	491.333
1464.0000	491.403
1464.5000	491.334
1465.0000	491.404
1465.5000	491.268
1466.0000	491.253
1466.5000	491.3
1467.0000	491.25
1467.5000	491.366
1468.0000	491.346
1468.5000	491.292
1469.0000	491.324
1469.5000	491.302
1470.0000	491.3
1470.5000	491.415
1471.0000	491.391
1471.5000	491.393
1472.0000	491.432
1472.5000	491.357
1473.0000	491.341
1473.5000	491.309
1474.0000	491.333
1474.5000	491.326
1475.0000	491.421
1475.5000	491.572
1476.0000	491.586
1476.5000	491.676
1477.0000	491.671
1477.5000	491.581
1478.0000	491.55
1478.5000	491.512
1479.0000	491.437
1479.5000	491.468
1480.0000	491.454
1480.5000	491.489
1481.0000	491.507
1481.5000	491.542
1482.0000	491.649
1482.5000	491.593
1483.0000	491.629
1483.5000	491.573
1484.0000	491.59
1484.5000	491.55
1485.0000	491.572
1485.5000	491.678
1486.0000	491.641
1486.5000	491.783
1487.0000	491.807
1487.5000	491.728
1488.0000	491.725
1488.5000	491.795
1489.0000	491.772
1489.5000	491.848
1490.0000	491.863
1490.5000	491.711
1491.0000	491.75
1491.5000	491.609
1492.0000	491.537
1492.5000	491.609
1493.0000	491.725
1493.5000	491.879
1494.0000	492.003
1494.5000	492.045
1495.0000	491.979
1495.5000	491.895
1496.0000	491.794
1496.5000	491.84
1497.0000	491.825
1497.5000	491.91
1498.0000	492.074
1498.5000	491.995
1499.0000	491.944
1499.5000	491.996
1500.0000	491.918
1500.5000	491.927
1501.0000	491.949
1501.5000	491.92
1502.0000	491.973
1502.5000	492.009
1503.0000	492.102
1503.5000	492.103
1504.0000	492.059
1504.5000	492.076
1505.0000	491.974
1505.5000	491.964
1506.0000	491.933
1506.5000	491.852
1507.0000	491.932
1507.5000	491.955
1508.0000	492.064
1508.5000	492.208
1509.0000	492.157
1509.5000	492.078
1510.0000	491.933
1510.5000	491.782
1511.0000	491.881
1511.5000	491.951
1512.0000	491.962
1512.5000	492.015
1513.0000	491.982
1513.5000	491.943
1514.0000	492.115
1514.5000	492.112
1515.0000	492.003
1515.5000	492.044
1516.0000	491.985
1516.5000	492.017
1517.0000	492.111
1517.5000	492.125
1518.0000	492.103
1518.5000	492.032
1519.0000	492.077
1519.5000	492.12
1520.0000	492.134
1520.5000	492.21
1521.0000	492.233
1521.5000	492.1
1522.0000	492.078
1522.5000	492.115
1523.0000	492.074
1523.5000	492.114
1524.0000	492.167
1524.5000	492.098
1525.0000	492.144
1525.5000	492.221
1526.0000	492.203
1526.5000	492.197
1527.0000	492.191
1527.5000	492.139
1528.0000	492.137
1528.5000	492.174
1529.0000	492.118
1529.5000	492.182
1530.0000	492.134
1530.5000	492.088
1531.0000	492.02
1531.5000	492
1532.0000	492.181
1532.5000	492.281
1533.0000	492.305
1533.5000	492.254
1534.0000	492.12
1534.5000	492.098
1535.0000	492.102
1535.5000	492.106
1536.0000	492.151
1536.5000	492.163
1537.0000	492.228
1537.5000	492.267
1538.0000	492.179
1538.5000	492.144
1539.0000	492.106
1539.5000	492.156
1540.0000	492.244
1540.5000	492.255
1541.0000	492.359
1541.5000	492.293
1542.0000	492.277
1542.5000	492.211
1543.0000	492.103
1543.5000	492.044
1544.0000	491.975
1544.5000	491.972
1545.0000	491.959
1545.5000	492.163
1546.0000	492.213
1546.5000	492.31
1547.0000	492.334
1547.5000	492.222
1548.0000	492.25
1548.5000	492.232
1549.0000	492.246
1549.5000	492.231
1550.0000	492.241
1550.5000	492.297
1551.0000	492.226
1551.5000	492.284
1552.0000	492.248
1552.5000	492.194
1553.0000	492.316
1553.5000	492.293
1554.0000	492.355
1554.5000	492.325
1555.0000	492.262
1555.5000	492.236
1556.0000	492.207
1556.5000	492.265
1557.0000	492.232
1557.5000	492.314
1558.0000	492.319
1558.5000	492.281
1559.0000	492.314
1559.5000	492.239
1560.0000	492.197
1560.5000	492.25
1561.0000	492.294
1561.5000	492.357
1562.0000	492.384
1562.5000	492.324
1563.0000	492.378
1563.5000	492.33
1564.0000	492.323
1564.5000	492.457
1565.0000	492.419
1565.5000	492.444
1566.0000	492.495
1566.5000	492.335
1567.0000	492.287
1567.5000	492.286
1568.0000	492.346
1568.5000	492.393
1569.0000	492.458
1569.5000	492.494
1570.0000	492.33
1570.5000	492.371
1571.0000	492.396
1571.5000	492.369
1572.0000	492.471
1572.5000	492.433
1573.0000	492.478
1573.5000	492.427
1574.0000	492.418
1574.5000	492.316
1575.0000	492.208
1575.5000	492.266
1576.0000	492.254
1576.5000	492.373
1577.0000	492.377
1577.5000	492.404
1578.0000	492.349
1578.5000	492.321
1579.0000	492.312
1579.5000	492.26
1580.0000	492.351
1580.5000	492.335
1581.0000	492.407
1581.5000	492.451
1582.0000	492.406
1582.5000	492.564
1583.0000	492.571
1583.5000	492.515
1584.0000	492.678
1584.5000	492.586
1585.0000	492.484
1585.5000	492.502
1586.0000	492.415
1586.5000	492.453
1587.0000	492.593
1587.5000	492.687
1588.0000	492.739
1588.5000	492.696
1589.0000	492.675
1589.5000	492.717
1590.0000	492.687
1590.5000	492.725
1591.0000	492.706
1591.5000	492.647
1592.0000	492.689
1592.5000	492.755
1593.0000	492.763
1593.5000	492.77
1594.0000	492.767
1594.5000	492.669
1595.0000	492.671
1595.5000	492.684
1596.0000	492.582
1596.5000	492.715
1597.0000	492.773
1597.5000	492.738
1598.0000	492.791
1598.5000	492.759
1599.0000	492.736
1599.5000	492.74
1600.0000	492.854
1600.5000	492.841
1601.0000	492.825
1601.5000	492.914
1602.0000	492.85
1602.5000	492.773
1603.0000	492.855
1603.5000	492.879
1604.0000	492.87
1604.5000	492.984
1605.0000	492.957
1605.5000	493.03
1606.0000	493.031
1606.5000	493.004
1607.0000	493.027
1607.5000	492.941
1608.0000	492.957
1608.5000	493.052
1609.0000	493.027
1609.5000	493.124
1610.0000	493.159
1610.5000	493.099
1611.0000	493.17
1611.5000	493.117
1612.0000	493.173
1612.5000	493.316
1613.0000	493.455
1613.5000	493.553
1614.0000	493.547
1614.5000	493.528
1615.0000	493.523
1615.5000	493.538
1616.0000	493.568
1616.5000	493.574
1617.0000	493.519
1617.5000	493.496
1618.0000	493.506
1618.5000	493.5
1619.0000	493.51
1619.5000	493.486
1620.0000	493.53
1620.5000	493.601
1621.0000	493.648
1621.5000	493.731
1622.0000	493.71
1622.5000	493.663
1623.0000	493.762
1623.5000	493.756
1624.0000	493.819
1624.5000	493.886
1625.0000	493.782
1625.5000	493.861
1626.0000	493.884
1626.5000	493.891
1627.0000	493.943
1627.5000	493.858
1628.0000	493.869
1628.5000	493.845
1629.0000	493.832
1629.5000	493.861
1630.0000	493.82
1630.5000	493.868
1631.0000	493.89
1631.5000	493.924
1632.0000	493.965
1632.5000	493.936
1633.0000	493.993
1633.5000	494.056
1634.0000	494.11
1634.5000	494.164
1635.0000	494.192
1635.5000	494.207
1636.0000	494.163
1636.5000	494.111
1637.0000	494.012
1637.5000	494.094
1638.0000	494.281
1638.5000	494.385
1639.0000	494.485
1639.5000	494.364
1640.0000	494.314
1640.5000	494.424
1641.0000	494.437
1641.5000	494.448
1642.0000	494.361
1642.5000	494.328
1643.0000	494.325
1643.5000	494.374
1644.0000	494.484
1644.5000	494.439
1645.0000	494.391
1645.5000	494.407
1646.0000	494.416
1646.5000	494.348
1647.0000	494.46
1647.5000	494.432
1648.0000	494.408
1648.5000	494.554
1649.0000	494.535
1649.5000	494.595
1650.0000	494.551
1650.5000	494.582
1651.0000	494.659
1651.5000	494.764
1652.0000	494.833
1652.5000	494.808
1653.0000	494.848
1653.5000	494.783
1654.0000	494.897
1654.5000	494.955
1655.0000	494.882
1655.5000	494.827
1656.0000	494.765
1656.5000	494.656
1657.0000	494.602
1657.5000	494.69
1658.0000	494.723
1658.5000	494.737
1659.0000	494.876
1659.5000	494.89
1660.0000	494.863
1660.5000	494.917
1661.0000	494.847
1661.5000	494.842
1662.0000	494.895
1662.5000	494.932
1663.0000	494.969
1663.5000	495.059
1664.0000	495.059
1664.5000	495.096
1665.0000	495.173
1665.5000	495.176
1666.0000	495.226
1666.5000	495.197
1667.0000	495.167
1667.5000	495.123
1668.0000	495.142
1668.5000	495.162
1669.0000	495.042
1669.5000	495.025
1670.0000	494.91
1670.5000	494.827
1671.0000	495.06
1671.5000	495.052
1672.0000	495.156
1672.5000	495.194
1673.0000	495.095
1673.5000	495.181
1674.0000	495.18
1674.5000	495.255
1675.0000	495.182
1675.5000	495.13
1676.0000	495.215
1676.5000	495.19
1677.0000	495.257
1677.5000	495.322
1678.0000	495.247
1678.5000	495.318
1679.0000	495.383
1679.5000	495.243
1680.0000	495.244
1680.5000	495.212
1681.0000	495.149
1681.5000	495.316
1682.0000	495.386
1682.5000	495.387
1683.0000	495.509
1683.5000	495.501
1684.0000	495.446
1684.5000	495.433
1685.0000	495.421
1685.5000	495.447
1686.0000	495.501
1686.5000	495.62
1687.0000	495.603
1687.5000	495.575
1688.0000	495.599
1688.5000	495.545
1689.0000	495.534
1689.5000	495.537
1690.0000	495.488
1690.5000	495.469
1691.0000	495.576
1691.5000	495.556
1692.0000	495.538
1692.5000	495.603
1693.0000	495.609
1693.5000	495.683
1694.0000	495.723
1694.5000	495.807
1695.0000	495.771
1695.5000	495.721
1696.0000	495.759
1696.5000	495.745
1697.0000	495.645
1697.5000	495.714
1698.0000	495.585
1698.5000	495.519
1699.0000	495.593
1699.5000	495.697
1700.0000	495.804
1700.5000	495.804
1701.0000	495.844
1701.5000	495.742
1702.0000	495.824
1702.5000	495.812
1703.0000	495.864
1703.5000	495.899
1704.0000	495.911
1704.5000	495.923
1705.0000	495.931
1705.5000	495.878
1706.0000	495.834
1706.5000	495.888
1707.0000	495.792
1707.5000	495.87
1708.0000	495.885
1708.5000	495.86
1709.0000	495.895
1709.5000	495.889
1710.0000	495.949
1710.5000	495.936
1711.0000	495.897
1711.5000	495.85
1712.0000	495.788
1712.5000	495.87
1713.0000	496.028
1713.5000	496.071
1714.0000	496.098
1714.5000	496.15
1715.0000	496.263
1715.5000	496.35
1716.0000	496.403
1716.5000	496.462
1717.0000	496.287
1717.5000	496.194
1718.0000	496.19
1718.5000	496.064
1719.0000	496.109
1719.5000	496.15
1720.0000	496.155
1720.5000	496.18
1721.0000	496.276
1721.5000	496.285
1722.0000	496.27
1722.5000	496.35
1723.0000	496.243
1723.5000	496.259
1724.0000	496.297
1724.5000	496.292
1725.0000	496.455
1725.5000	496.488
1726.0000	496.456
1726.5000	496.442
1727.0000	496.38
1727.5000	496.403
1728.0000	496.495
1728.5000	496.448
1729.0000	496.466
1729.5000	496.511
1730.0000	496.464
1730.5000	496.566
1731.0000	496.488
1731.5000	496.456
1732.0000	496.548
1732.5000	496.521
1733.0000	496.618
1733.5000	496.649
1734.0000	496.599
1734.5000	496.653
1735.0000	496.671
1735.5000	496.721
1736.0000	496.741
1736.5000	496.756
1737.0000	496.688
1737.5000	496.674
1738.0000	496.623
1738.5000	496.525
1739.0000	496.685
1739.5000	496.637
1740.0000	496.786
1740.5000	496.839
1741.0000	496.724
1741.5000	496.772
1742.0000	496.638
1742.5000	496.654
1743.0000	496.723
1743.5000	496.712
1744.0000	496.801
1744.5000	496.924
1745.0000	496.849
1745.5000	496.944
1746.0000	496.967
1746.5000	496.897
1747.0000	496.991
1747.5000	496.893
1748.0000	496.833
1748.5000	496.877
1749.0000	496.878
1749.5000	496.914
1750.0000	496.967
1750.5000	496.982
1751.0000	496.981
1751.5000	497.08
1752.0000	497.129
1752.5000	497.137
1753.0000	497.179
1753.5000	497.174
1754.0000	497.229
1754.5000	497.262
1755.0000	497.256
1755.5000	497.275
1756.0000	497.238
1756.5000	497.298
1757.0000	497.196
1757.5000	497.213
1758.0000	497.234
1758.5000	497.137
1759.0000	497.331
1759.5000	497.365
1760.0000	497.396
1760.5000	497.496
1761.0000	497.515
1761.5000	497.619
1762.0000	497.68
1762.5000	497.767
1763.0000	497.812
1763.5000	497.806
1764.0000	497.777
1764.5000	497.774
1765.0000	497.701
1765.5000	497.632
1766.0000	497.695
1766.5000	497.609
1767.0000	497.728
1767.5000	497.66
1768.0000	497.683
1768.5000	497.783
1769.0000	497.743
1769.5000	497.849
1770.0000	497.913
1770.5000	497.885
1771.0000	497.949
1771.5000	498.025
1772.0000	498.048
1772.5000	498.06
1773.0000	498.096
1773.5000	498.102
1774.0000	498.092
1774.5000	498.155
1775.0000	498.053
1775.5000	498.05
1776.0000	498.001
1776.5000	497.978
1777.0000	498.033
1777.5000	498.134
1778.0000	498.185
1778.5000	498.271
1779.0000	498.256
1779.5000	498.122
1780.0000	498.146
1780.5000	498.127
1781.0000	498.285
1781.5000	498.395
1782.0000	498.503
1782.5000	498.484
1783.0000	498.395
1783.5000	498.471
1784.0000	498.426
1784.5000	498.464
1785.0000	498.598
1785.5000	498.592
1786.0000	498.595
1786.5000	498.635
1787.0000	498.62
1787.5000	498.56
1788.0000	498.668
1788.5000	498.822
1789.0000	498.826
1789.5000	498.877
1790.0000	498.939
1790.5000	498.981
1791.0000	498.992
1791.5000	499.016
1792.0000	498.86
1792.5000	498.817
1793.0000	498.818
1793.5000	498.66
1794.0000	498.51
1794.5000	498.399
1795.0000	498.333
1795.5000	498.474
1796.0000	498.635
1796.5000	498.709
1797.0000	498.819
1797.5000	498.871
1798.0000	498.978
1798.5000	499.008
1799.0000	499.085
1799.5000	499.183
1800.0000	499.212
1800.5000	499.191
1801.0000	499.244
1801.5000	499.266
1802.0000	499.408
1802.5000	499.42
1803.0000	499.394
1803.5000	499.383
1804.0000	499.3
1804.5000	499.451
1805.0000	499.499
1805.5000	499.542
1806.0000	499.57
1806.5000	499.52
1807.0000	499.484
1807.5000	499.445
1808.0000	499.527
1808.5000	499.562
1809.0000	499.66
1809.5000	499.791
1810.0000	499.808
1810.5000	499.816
1811.0000	499.771
1811.5000	499.705
1812.0000	499.736
1812.5000	499.837
1813.0000	499.959
1813.5000	500.132
1814.0000	500.127
1814.5000	500.085
1815.0000	500.089
1815.5000	500.01
1816.0000	500.125
1816.5000	500.243
1817.0000	500.274
1817.5000	500.338
1818.0000	500.257
1818.5000	500.296
1819.0000	500.311
1819.5000	500.303
1820.0000	500.365
1820.5000	500.358
1821.0000	500.41
1821.5000	500.554
1822.0000	500.57
1822.5000	500.587
1823.0000	500.592
1823.5000	500.476
1824.0000	500.477
1824.5000	500.519
1825.0000	500.494
1825.5000	500.599
1826.0000	500.588
1826.5000	500.582
1827.0000	500.627
1827.5000	500.672
1828.0000	500.795
1828.5000	500.887
1829.0000	500.99
1829.5000	501.043
1830.0000	501.053
1830.5000	501.081
1831.0000	501.068
1831.5000	501.117
1832.0000	501.218
1832.5000	501.168
1833.0000	501.252
1833.5000	501.218
1834.0000	501.11
1834.5000	501.139
1835.0000	501.123
1835.5000	501.199
1836.0000	501.228
1836.5000	501.3
1837.0000	501.305
1837.5000	501.263
1838.0000	501.36
1838.5000	501.382
1839.0000	501.42
1839.5000	501.46
1840.0000	501.396
1840.5000	501.483
1841.0000	501.536
1841.5000	501.625
1842.0000	501.656
1842.5000	501.699
1843.0000	501.71
1843.5000	501.713
1844.0000	501.9
1844.5000	501.857
1845.0000	501.904
1845.5000	501.973
1846.0000	501.96
1846.5000	502.045
1847.0000	502.092
1847.5000	502.1
1848.0000	502.081
1848.5000	502.124
1849.0000	502.151
1849.5000	502.172
1850.0000	502.225
1850.5000	502.151
1851.0000	502.179
1851.5000	502.165
1852.0000	502.212
1852.5000	502.285
1853.0000	502.348
1853.5000	502.36
1854.0000	502.385
1854.5000	502.414
1855.0000	502.437
1855.5000	502.512
1856.0000	502.545
1856.5000	502.627
1857.0000	502.647
1857.5000	502.735
1858.0000	502.711
1858.5000	502.779
1859.0000	502.889
1859.5000	502.907
1860.0000	502.995
1860.5000	503.036
1861.0000	503.063
1861.5000	503.04
1862.0000	502.974
1862.5000	503.047
1863.0000	503.037
1863.5000	503.105
1864.0000	503.302
1864.5000	503.275
1865.0000	503.303
1865.5000	503.392
1866.0000	503.454
1866.5000	503.458
1867.0000	503.532
1867.5000	503.531
1868.0000	503.571
1868.5000	503.648
1869.0000	503.634
1869.5000	503.635
1870.0000	503.562
1870.5000	503.609
1871.0000	503.635
1871.5000	503.771
1872.0000	503.941
1872.5000	503.991
1873.0000	504.054
1873.5000	504.097
1874.0000	504.074
1874.5000	504.057
1875.0000	504.112
1875.5000	504.135
1876.0000	504.201
1876.5000	504.301
1877.0000	504.467
1877.5000	504.512
1878.0000	504.557
1878.5000	504.627
1879.0000	504.58
1879.5000	504.664
1880.0000	504.781
1880.5000	504.823
1881.0000	504.816
1881.5000	504.94
1882.0000	504.978
1882.5000	505.014
1883.0000	505.176
1883.5000	505.143
1884.0000	505.205
1884.5000	505.259
1885.0000	505.204
1885.5000	505.225
1886.0000	505.291
1886.5000	505.321
1887.0000	505.527
1887.5000	505.671
1888.0000	505.758
1888.5000	505.816
1889.0000	505.772
1889.5000	505.728
1890.0000	505.701
1890.5000	505.801
1891.0000	505.903
1891.5000	506.063
1892.0000	506.176
1892.5000	506.342
1893.0000	506.419
1893.5000	506.461
1894.0000	506.573
1894.5000	506.516
1895.0000	506.561
1895.5000	506.529
1896.0000	506.574
1896.5000	506.745
1897.0000	506.772
1897.5000	506.926
1898.0000	506.95
1898.5000	506.883
1899.0000	507.032
1899.5000	507.143
1900.0000	507.24
1900.5000	507.388
1901.0000	507.572
1901.5000	507.617
1902.0000	507.677
1902.5000	507.815
1903.0000	507.773
1903.5000	507.907
1904.0000	507.94
1904.5000	508.03
1905.0000	508.151
1905.5000	508.237
1906.0000	508.363
1906.5000	508.467
1907.0000	508.505
1907.5000	508.476
1908.0000	508.578
1908.5000	508.625
1909.0000	508.761
1909.5000	508.962
1910.0000	509.052
1910.5000	509.201
1911.0000	509.315
1911.5000	509.36
1912.0000	509.4
1912.5000	509.415
1913.0000	509.363
1913.5000	509.447
1914.0000	509.534
1914.5000	509.616
1915.0000	509.791
1915.5000	509.93
1916.0000	510.157
1916.5000	510.246
1917.0000	510.333
1917.5000	510.388
1918.0000	510.345
1918.5000	510.418
1919.0000	510.45
1919.5000	510.536
1920.0000	510.721
1920.5000	510.836
1921.0000	510.979
1921.5000	511.086
1922.0000	511.126
1922.5000	511.191
1923.0000	511.318
1923.5000	511.402
1924.0000	511.535
1924.5000	511.657
1925.0000	511.691
1925.5000	511.802
1926.0000	511.834
1926.5000	511.854
1927.0000	511.951
1927.5000	511.911
1928.0000	512.005
1928.5000	512.176
1929.0000	512.263
1929.5000	512.516
1930.0000	512.617
1930.5000	512.703
1931.0000	512.801
1931.5000	512.753
1932.0000	512.853
1932.5000	513.034
1933.0000	513.128
1933.5000	513.312
1934.0000	513.4
1934.5000	513.366
1935.0000	513.356
1935.5000	513.384
1936.0000	513.532
1936.5000	513.692
1937.0000	513.908
1937.5000	514.065
1938.0000	514.133
1938.5000	514.217
1939.0000	514.268
1939.5000	514.386
1940.0000	514.375
1940.5000	514.45
1941.0000	514.528
1941.5000	514.539
1942.0000	514.719
1942.5000	514.668
1943.0000	514.698
1943.5000	514.696
1944.0000	514.774
1944.5000	514.929
1945.0000	515.065
1945.5000	515.284
1946.0000	515.196
1946.5000	515.281
1947.0000	515.343
1947.5000	515.335
1948.0000	515.436
1948.5000	515.482
1949.0000	515.535
1949.5000	515.654
1950.0000	515.745
1950.5000	515.864
1951.0000	515.996
1951.5000	515.955
1952.0000	516.095
1952.5000	516.149
1953.0000	516.223
1953.5000	516.378
1954.0000	516.481
1954.5000	516.538
1955.0000	516.604
1955.5000	516.778
1956.0000	516.845
1956.5000	516.831
1957.0000	516.802
1957.5000	516.832
1958.0000	516.707
1958.5000	516.834
1959.0000	517.018
1959.5000	517.097
1960.0000	517.218
1960.5000	517.231
1961.0000	517.27
1961.5000	517.259
1962.0000	517.385
1962.5000	517.476
1963.0000	517.578
1963.5000	517.618
1964.0000	517.717
1964.5000	517.796
1965.0000	517.72
1965.5000	517.776
1966.0000	517.799
1966.5000	518.032
1967.0000	518.11
1967.5000	518.221
1968.0000	518.286
1968.5000	518.216
1969.0000	518.336
1969.5000	518.34
1970.0000	518.455
1970.5000	518.497
1971.0000	518.502
1971.5000	518.683
1972.0000	518.68
1972.5000	518.674
1973.0000	518.804
1973.5000	518.787
1974.0000	518.852
1974.5000	518.97
1975.0000	518.973
1975.5000	518.939
1976.0000	518.951
1976.5000	519.034
1977.0000	519.128
1977.5000	519.301
1978.0000	519.333
1978.5000	519.364
1979.0000	519.364
1979.5000	519.336
1980.0000	519.471
1980.5000	519.46
1981.0000	519.461
1981.5000	519.525
1982.0000	519.467
1982.5000	519.527
1983.0000	519.648
1983.5000	519.705
1984.0000	519.852
1984.5000	519.936
1985.0000	520.024
1985.5000	520.114
1986.0000	520.097
1986.5000	520.1
1987.0000	520.088
1987.5000	520.086
1988.0000	520.277
1988.5000	520.362
1989.0000	520.404
1989.5000	520.435
1990.0000	520.324
1990.5000	520.404
1991.0000	520.512
1991.5000	520.499
1992.0000	520.668
1992.5000	520.63
1993.0000	520.685
1993.5000	520.823
1994.0000	520.769
1994.5000	520.749
1995.0000	520.816
1995.5000	520.874
1996.0000	520.926
1996.5000	521.022
1997.0000	521.023
1997.5000	521.06
1998.0000	521.013
1998.5000	521.008
1999.0000	521.042
1999.5000	521.018
2000.0000	521.127
2000.5000	521.196
2001.0000	521.195
2001.5000	521.161
2002.0000	521.342
2002.5000	521.467
2003.0000	521.526
2003.5000	521.618
2004.0000	521.495
2004.5000	521.47
2005.0000	521.475
2005.5000	521.577
2006.0000	521.63
2006.5000	521.744
2007.0000	521.756
2007.5000	521.8
2008.0000	521.802
2008.5000	521.722
2009.0000	521.702
2009.5000	521.671
2010.0000	521.733
2010.5000	521.857
2011.0000	521.874
2011.5000	521.909
2012.0000	522.034
2012.5000	521.985
2013.0000	522.064
2013.5000	522.071
2014.0000	522.125
2014.5000	522.1
2015.0000	522.171
2015.5000	522.237
2016.0000	522.28
2016.5000	522.332
2017.0000	522.359
2017.5000	522.321
2018.0000	522.19
2018.5000	522.252
2019.0000	522.301
2019.5000	522.4
2020.0000	522.479
2020.5000	522.477
2021.0000	522.475
2021.5000	522.489
2022.0000	522.517
2022.5000	522.581
2023.0000	522.635
2023.5000	522.619
2024.0000	522.68
2024.5000	522.755
2025.0000	522.726
2025.5000	522.837
2026.0000	522.749
2026.5000	522.746
2027.0000	522.774
2027.5000	522.77
2028.0000	522.838
2028.5000	522.866
2029.0000	522.96
2029.5000	523.065
2030.0000	523.068
2030.5000	523.177
2031.0000	523.166
2031.5000	523.031
2032.0000	523.089
2032.5000	522.96
2033.0000	522.92
2033.5000	523.037
2034.0000	523.113
2034.5000	523.217
2035.0000	523.303
2035.5000	523.25
2036.0000	523.227
2036.5000	523.167
2037.0000	523.156
2037.5000	523.196
2038.0000	523.259
2038.5000	523.251
2039.0000	523.31
2039.5000	523.29
2040.0000	523.298
2040.5000	523.369
2041.0000	523.363
2041.5000	523.463
2042.0000	523.442
2042.5000	523.556
2043.0000	523.592
2043.5000	523.614
2044.0000	523.617
2044.5000	523.585
2045.0000	523.617
2045.5000	523.654
2046.0000	523.704
2046.5000	523.66
2047.0000	523.648
2047.5000	523.695
2048.0000	523.703
2048.5000	523.798
2049.0000	523.874
2049.5000	523.778
2050.0000	523.782
2050.5000	523.855
2051.0000	523.826
2051.5000	523.849
2052.0000	523.882
2052.5000	523.835
2053.0000	523.815
2053.5000	523.831
2054.0000	523.905
2054.5000	523.892
2055.0000	523.925
2055.5000	524.082
2056.0000	524.03
2056.5000	524.12
2057.0000	524.156
2057.5000	524.011
2058.0000	524.101
2058.5000	524.095
2059.0000	524.092
2059.5000	524.259
2060.0000	524.219
2060.5000	524.25
2061.0000	524.214
2061.5000	524.168
2062.0000	524.244
2062.5000	524.304
2063.0000	524.425
2063.5000	524.459
2064.0000	524.489
2064.5000	524.486
2065.0000	524.507
2065.5000	524.501
2066.0000	524.456
2066.5000	524.426
2067.0000	524.42
2067.5000	524.439
2068.0000	524.492
2068.5000	524.614
2069.0000	524.792
2069.5000	524.765
2070.0000	524.829
2070.5000	524.755
2071.0000	524.632
2071.5000	524.719
2072.0000	524.65
2072.5000	524.701
2073.0000	524.684
2073.5000	524.725
2074.0000	524.763
2074.5000	524.727
2075.0000	524.74
2075.5000	524.672
2076.0000	524.734
2076.5000	524.783
2077.0000	524.882
2077.5000	524.914
2078.0000	524.839
2078.5000	524.879
2079.0000	524.931
2079.5000	524.99
2080.0000	525.101
2080.5000	525.026
2081.0000	525.003
2081.5000	524.993
2082.0000	524.957
2082.5000	525.007
2083.0000	524.998
2083.5000	525.049
2084.0000	525.107
2084.5000	525.151
2085.0000	525.165
2085.5000	525.11
2086.0000	525.182
2086.5000	525.212
2087.0000	525.184
2087.5000	525.292
2088.0000	525.233
2088.5000	525.171
2089.0000	525.217
2089.5000	525.22
2090.0000	525.186
2090.5000	525.348
2091.0000	525.297
2091.5000	525.259
2092.0000	525.268
2092.5000	525.191
2093.0000	525.251
2093.5000	525.324
2094.0000	525.373
2094.5000	525.404
2095.0000	525.427
2095.5000	525.462
2096.0000	525.514
2096.5000	525.639
2097.0000	525.596
2097.5000	525.631
2098.0000	525.723
2098.5000	525.635
2099.0000	525.744
2099.5000	525.771
2100.0000	525.697
2100.5000	525.809
2101.0000	525.818
2101.5000	525.69
2102.0000	525.672
2102.5000	525.54
2103.0000	525.546
2103.5000	525.733
2104.0000	525.854
2104.5000	525.9
2105.0000	525.937
2105.5000	525.874
2106.0000	525.834
2106.5000	525.863
2107.0000	525.875
2107.5000	525.872
2108.0000	525.846
2108.5000	525.897
2109.0000	525.905
2109.5000	525.934
2110.0000	525.994
2110.5000	525.99
2111.0000	526.006
2111.5000	525.987
2112.0000	526.031
2112.5000	525.998
2113.0000	526.004
2113.5000	526.027
2114.0000	526.005
2114.5000	526.096
2115.0000	526.187
2115.5000	526.246
2116.0000	526.276
2116.5000	526.216
2117.0000	526.178
2117.5000	526.156
2118.0000	526.218
2118.5000	526.224
2119.0000	526.204
2119.5000	526.248
2120.0000	526.213
2120.5000	526.26
2121.0000	526.227
2121.5000	526.314
2122.0000	526.329
2122.5000	526.289
2123.0000	526.415
2123.5000	526.333
2124.0000	526.318
2124.5000	526.446
2125.0000	526.497
2125.5000	526.472
2126.0000	526.576
2126.5000	526.611
2127.0000	526.449
2127.5000	526.56
2128.0000	526.485
2128.5000	526.372
2129.0000	526.463
2129.5000	526.507
2130.0000	526.535
2130.5000	526.591
2131.0000	526.674
2131.5000	526.655
2132.0000	526.704
2132.5000	526.813
2133.0000	526.776
2133.5000	526.825
2134.0000	526.883
2134.5000	526.913
2135.0000	527.019
2135.5000	527.011
2136.0000	527.003
2136.5000	526.927
2137.0000	526.871
2137.5000	526.86
2138.0000	526.842
2138.5000	526.921
2139.0000	526.975
2139.5000	526.929
2140.0000	526.979
2140.5000	526.997
2141.0000	527.007
2141.5000	527.01
2142.0000	526.994
2142.5000	527.047
2143.0000	527.047
2143.5000	527.085
2144.0000	527.066
2144.5000	526.989
2145.0000	527.098
2145.5000	527.234
2146.0000	527.33
2146.5000	527.405
2147.0000	527.326
2147.5000	527.304
2148.0000	527.339
2148.5000	527.291
2149.0000	527.295
2149.5000	527.379
2150.0000	527.302
2150.5000	527.257
2151.0000	527.271
2151.5000	527.114
2152.0000	527.197
2152.5000	527.358
2153.0000	527.386
2153.5000	527.487
2154.0000	527.529
2154.5000	527.511
2155.0000	527.555
2155.5000	527.584
2156.0000	527.528
2156.5000	527.547
2157.0000	527.588
2157.5000	527.523
2158.0000	527.591
2158.5000	527.605
2159.0000	527.613
2159.5000	527.661
2160.0000	527.584
2160.5000	527.647
2161.0000	527.659
2161.5000	527.729
2162.0000	527.772
2162.5000	527.688
2163.0000	527.655
2163.5000	527.701
2164.0000	527.723
2164.5000	527.658
2165.0000	527.757
2165.5000	527.762
2166.0000	527.832
2166.5000	527.96
2167.0000	527.975
2167.5000	527.935
2168.0000	527.902
2168.5000	528.036
2169.0000	527.972
2169.5000	527.968
2170.0000	528.038
2170.5000	527.923
2171.0000	528.039
2171.5000	528.151
2172.0000	528.083
2172.5000	528.18
2173.0000	528.104
2173.5000	528.012
2174.0000	528.02
2174.5000	527.921
2175.0000	527.942
2175.5000	527.974
2176.0000	528.081
2176.5000	528.108
2177.0000	528.11
2177.5000	528.173
2178.0000	528.098
2178.5000	528.149
2179.0000	528.108
2179.5000	528.138
2180.0000	528.212
2180.5000	528.137
2181.0000	528.144
2181.5000	528.096
2182.0000	528.09
2182.5000	528.122
2183.0000	528.211
2183.5000	528.224
2184.0000	528.294
2184.5000	528.374
2185.0000	528.354
2185.5000	528.368
2186.0000	528.414
2186.5000	528.387
2187.0000	528.44
2187.5000	528.439
2188.0000	528.328
2188.5000	528.411
2189.0000	528.375
2189.5000	528.47
2190.0000	528.515
2190.5000	528.487
2191.0000	528.58
2191.5000	528.597
2192.0000	528.618
2192.5000	528.582
2193.0000	528.615
2193.5000	528.561
2194.0000	528.633
2194.5000	528.748
2195.0000	528.691
2195.5000	528.769
2196.0000	528.775
2196.5000	528.693
2197.0000	528.754
2197.5000	528.732
2198.0000	528.72
2198.5000	528.773
2199.0000	528.767
2199.5000	528.793
2200.0000	528.777
2200.5000	528.869
2201.0000	528.866
2201.5000	528.86
2202.0000	528.87
2202.5000	528.84
2203.0000	528.861
2203.5000	528.839
2204.0000	528.878
2204.5000	528.86
2205.0000	528.909
2205.5000	528.991
2206.0000	529.017
2206.5000	529.077
2207.0000	529.065
2207.5000	529.106
2208.0000	529.071
2208.5000	529.037
2209.0000	529.065
2209.5000	529.04
2210.0000	529.013
2210.5000	528.975
2211.0000	528.937
2211.5000	528.91
2212.0000	529.03
2212.5000	529.017
2213.0000	529.045
2213.5000	529.083
2214.0000	529.031
2214.5000	529.043
2215.0000	529.026
2215.5000	529.044
2216.0000	529.108
2216.5000	529.116
2217.0000	529.122
2217.5000	529.147
2218.0000	529.127
2218.5000	529.172
2219.0000	529.275
2219.5000	529.186
2220.0000	529.186
2220.5000	529.265
2221.0000	529.2
2221.5000	529.246
2222.0000	529.145
2222.5000	529.089
2223.0000	529.203
2223.5000	529.329
2224.0000	529.563
2224.5000	529.598
2225.0000	529.485
2225.5000	529.316
2226.0000	529.164
2226.5000	529.165
2227.0000	529.18
2227.5000	529.303
2228.0000	529.314
2228.5000	529.372
2229.0000	529.452
2229.5000	529.414
2230.0000	529.483
2230.5000	529.445
2231.0000	529.396
2231.5000	529.328
2232.0000	529.26
2232.5000	529.345
2233.0000	529.338
2233.5000	529.479
2234.0000	529.508
2234.5000	529.453
2235.0000	529.509
2235.5000	529.465
2236.0000	529.512
2236.5000	529.48
2237.0000	529.482
2237.5000	529.548
2238.0000	529.597
2238.5000	529.751
2239.0000	529.785
2239.5000	529.714
2240.0000	529.703
2240.5000	529.701
2241.0000	529.667
2241.5000	529.72
2242.0000	529.722
2242.5000	529.641
2243.0000	529.759
2243.5000	529.74
2244.0000	529.679
2244.5000	529.672
2245.0000	529.519
2245.5000	529.563
2246.0000	529.759
2246.5000	529.839
2247.0000	530.026
2247.5000	530.102
2248.0000	530.034
2248.5000	530.111
2249.0000	530.03
2249.5000	529.967
2250.0000	529.953
2250.5000	529.914
2251.0000	529.9
2251.5000	529.893
2252.0000	530.034
2252.5000	530.038
2253.0000	529.978
2253.5000	530.019
2254.0000	529.899
2254.5000	529.816
2255.0000	529.845
2255.5000	529.853
2256.0000	529.828
2256.5000	529.799
2257.0000	529.754
2257.5000	529.674
2258.0000	529.685
2258.5000	529.713
2259.0000	529.795
2259.5000	529.867
2260.0000	529.826
2260.5000	529.817
2261.0000	529.813
2261.5000	529.711
2262.0000	529.685
2262.5000	529.731
2263.0000	529.823
2263.5000	529.92
2264.0000	529.963
2264.5000	529.981
2265.0000	529.838
2265.5000	529.683
2266.0000	529.731
2266.5000	529.707
2267.0000	529.713
2267.5000	529.901
2268.0000	529.881
2268.5000	529.891
2269.0000	529.876
2269.5000	529.887
2270.0000	529.864
2270.5000	529.902
2271.0000	529.98
2271.5000	530.003
2272.0000	529.968
2272.5000	529.905
2273.0000	529.936
2273.5000	529.801
2274.0000	529.805
2274.5000	529.744
2275.0000	529.721
2275.5000	529.702
2276.0000	529.811
2276.5000	529.926
2277.0000	529.874
2277.5000	529.922
2278.0000	529.881
2278.5000	529.928
2279.0000	529.964
2279.5000	529.996
2280.0000	529.904
2280.5000	529.841
2281.0000	529.913
2281.5000	529.914
2282.0000	530.069
2282.5000	530.082
2283.0000	529.985
2283.5000	529.984
2284.0000	529.998
2284.5000	529.943
2285.0000	530.006
2285.5000	530.049
2286.0000	529.904
2286.5000	529.91
2287.0000	529.863
2287.5000	529.85
2288.0000	529.903
2288.5000	529.855
2289.0000	529.953
2289.5000	529.897
2290.0000	529.866
2290.5000	530.008
2291.0000	529.953
2291.5000	529.972
2292.0000	530.006
2292.5000	529.986
2293.0000	529.968
2293.5000	529.925
2294.0000	529.81
2294.5000	529.698
2295.0000	529.72
2295.5000	529.85
2296.0000	529.953
2296.5000	529.94
2297.0000	529.919
2297.5000	529.823
2298.0000	529.837
2298.5000	529.884
2299.0000	529.842
2299.5000	529.79
2300.0000	529.814
2300.5000	529.787
2301.0000	529.79
2301.5000	529.881
2302.0000	529.867
2302.5000	529.932
2303.0000	529.974
2303.5000	529.979
2304.0000	530.03
2304.5000	530.109
2305.0000	529.957
2305.5000	529.896
2306.0000	529.749
2306.5000	529.629
2307.0000	529.734
2307.5000	529.737
2308.0000	529.855
2308.5000	529.899
2309.0000	529.904
2309.5000	529.907
2310.0000	529.815
2310.5000	529.78
2311.0000	529.813
2311.5000	529.816
2312.0000	529.817
2312.5000	529.824
2313.0000	529.663
2313.5000	529.635
2314.0000	529.62
2314.5000	529.674
2315.0000	529.766
2315.5000	529.794
2316.0000	529.812
2316.5000	529.821
2317.0000	529.824
2317.5000	529.755
2318.0000	529.847
2318.5000	529.689
2319.0000	529.716
2319.5000	529.828
2320.0000	529.779
2320.5000	529.906
2321.0000	529.921
2321.5000	529.832
2322.0000	529.861
2322.5000	529.815
2323.0000	529.805
2323.5000	529.883
2324.0000	529.849
2324.5000	529.885
2325.0000	529.863
2325.5000	529.839
2326.0000	529.936
2326.5000	529.896
2327.0000	530.002
2327.5000	529.958
2328.0000	529.946
2328.5000	529.945
2329.0000	529.87
2329.5000	529.909
2330.0000	529.664
2330.5000	529.68
