TITLE	
DATA TYPE	
ORIGIN	JASCO
OWNER	
DATE	22/08/25
TIME	17:17:31
SPECTROMETER/DATA SYSTEM	
RESOLUTION	
DELTAX	0.5
XUNITS	SEC
YUNITS	INTENSITY
FIRSTX	0.0000
LASTX	1503.0000
NPOINTS	3007
FIRSTY	486.31091
MAXY	497.72772
MINY	-68.57753
XYDATA
0.0000	486.311
0.5000	486.275
1.0000	486.303
1.5000	486.355
2.0000	486.395
2.5000	486.377
3.0000	486.293
3.5000	486.286
4.0000	486.301
4.5000	486.267
5.0000	486.262
5.5000	486.243
6.0000	486.227
6.5000	486.237
7.0000	486.315
7.5000	486.336
8.0000	486.356
8.5000	486.405
9.0000	486.469
9.5000	486.476
10.0000	486.435
10.5000	486.498
11.0000	486.474
11.5000	486.497
12.0000	486.584
12.5000	486.53
13.0000	486.569
13.5000	486.585
14.0000	486.662
14.5000	486.738
15.0000	486.769
15.5000	486.834
16.0000	486.805
16.5000	486.843
17.0000	486.872
17.5000	486.912
18.0000	486.945
18.5000	480.179
19.0000	464.953
19.5000	431.763
20.0000	259.272
20.5000	-68.5775
21.0000	-39.2145
21.5000	-33.2009
22.0000	-31.1273
22.5000	-29.9014
23.0000	-29.2546
23.5000	-28.7461
24.0000	-28.2288
24.5000	-28.0307
25.0000	-27.8286
25.5000	-7.09694
26.0000	-22.5007
26.5000	-24.6588
27.0000	34.067
27.5000	252.985
28.0000	266.514
28.5000	271.155
29.0000	271.145
29.5000	266.025
30.0000	266.247
30.5000	266.314
31.0000	266.471
31.5000	266.675
32.0000	266.9
32.5000	267.094
33.0000	267.316
33.5000	267.513
34.0000	267.731
34.5000	267.973
35.0000	268.21
35.5000	268.534
36.0000	268.8
36.5000	269.07
37.0000	269.354
37.5000	269.549
38.0000	269.843
38.5000	270.105
39.0000	270.34
39.5000	270.672
40.0000	270.931
40.5000	271.196
41.0000	271.442
41.5000	271.618
42.0000	271.831
42.5000	272.082
43.0000	272.352
43.5000	272.623
44.0000	272.906
44.5000	273.163
45.0000	273.416
45.5000	273.682
46.0000	273.907
46.5000	274.128
47.0000	274.354
47.5000	274.583
48.0000	274.898
48.5000	275.164
49.0000	275.433
49.5000	275.7
50.0000	275.904
50.5000	276.154
51.0000	276.389
51.5000	276.622
52.0000	276.871
52.5000	277.099
53.0000	277.352
53.5000	277.636
54.0000	277.852
54.5000	278.112
55.0000	278.355
55.5000	278.597
56.0000	278.898
56.5000	279.145
57.0000	279.412
57.5000	279.687
58.0000	279.94
58.5000	280.236
59.0000	280.494
59.5000	280.739
60.0000	281.015
60.5000	281.265
61.0000	281.524
61.5000	281.741
62.0000	281.941
62.5000	282.177
63.0000	282.435
63.5000	282.709
64.0000	282.973
64.5000	283.207
65.0000	283.484
65.5000	283.71
66.0000	283.952
66.5000	284.218
67.0000	284.397
67.5000	284.646
68.0000	284.908
68.5000	285.18
69.0000	285.482
69.5000	285.739
70.0000	286.03
70.5000	286.285
71.0000	286.555
71.5000	286.837
72.0000	287.064
72.5000	287.333
73.0000	287.523
73.5000	287.812
74.0000	288.054
74.5000	288.303
75.0000	288.616
75.5000	288.84
76.0000	289.163
76.5000	289.372
77.0000	289.59
77.5000	289.884
78.0000	290.092
78.5000	290.36
79.0000	290.653
79.5000	290.894
80.0000	291.149
80.5000	291.413
81.0000	291.647
81.5000	291.863
82.0000	292.094
82.5000	292.331
83.0000	292.58
83.5000	292.83
84.0000	293.101
84.5000	293.344
85.0000	293.567
85.5000	293.839
86.0000	294.067
86.5000	294.319
87.0000	294.58
87.5000	294.83
88.0000	295.094
88.5000	295.342
89.0000	295.636
89.5000	295.852
90.0000	296.138
90.5000	296.445
91.0000	296.628
91.5000	296.872
92.0000	297.048
92.5000	297.267
93.0000	297.575
93.5000	297.852
94.0000	298.127
94.5000	298.372
95.0000	298.577
95.5000	298.84
96.0000	299.113
96.5000	299.38
97.0000	299.663
97.5000	299.901
98.0000	300.19
98.5000	300.438
99.0000	300.653
99.5000	300.852
100.0000	301.097
100.5000	301.293
101.0000	301.594
101.5000	301.852
102.0000	302.043
102.5000	302.355
103.0000	302.57
103.5000	302.782
104.0000	303.021
104.5000	303.19
105.0000	303.439
105.5000	303.739
106.0000	303.969
106.5000	304.272
107.0000	304.521
107.5000	304.767
108.0000	305.026
108.5000	305.242
109.0000	305.475
109.5000	305.685
110.0000	305.918
110.5000	306.176
111.0000	306.463
111.5000	306.748
112.0000	306.995
112.5000	307.26
113.0000	307.483
113.5000	307.712
114.0000	307.981
114.5000	308.195
115.0000	308.391
115.5000	308.603
116.0000	308.845
116.5000	309.061
117.0000	309.334
117.5000	309.572
118.0000	309.748
118.5000	310.01
119.0000	310.275
119.5000	310.542
120.0000	310.837
120.5000	311.042
121.0000	311.235
121.5000	311.481
122.0000	311.727
122.5000	311.977
123.0000	312.226
123.5000	312.424
124.0000	312.651
124.5000	312.886
125.0000	313.109
125.5000	313.355
126.0000	313.604
126.5000	313.86
127.0000	314.1
127.5000	314.34
128.0000	314.587
128.5000	314.798
129.0000	314.997
129.5000	315.234
130.0000	315.437
130.5000	315.669
131.0000	315.935
131.5000	316.101
132.0000	316.352
132.5000	316.619
133.0000	316.869
133.5000	317.205
134.0000	317.403
134.5000	317.643
135.0000	317.859
135.5000	318.03
136.0000	318.287
136.5000	318.481
137.0000	318.699
137.5000	319.002
138.0000	319.256
138.5000	319.491
139.0000	319.707
139.5000	319.938
140.0000	320.142
140.5000	320.405
141.0000	320.669
141.5000	320.854
142.0000	321.072
142.5000	321.281
143.0000	321.503
143.5000	321.751
144.0000	321.965
144.5000	322.206
145.0000	322.396
145.5000	322.602
146.0000	322.856
146.5000	323.091
147.0000	323.355
147.5000	323.571
148.0000	323.783
148.5000	324.012
149.0000	324.253
149.5000	324.49
150.0000	324.735
150.5000	324.918
151.0000	325.157
151.5000	325.382
152.0000	325.595
152.5000	325.848
153.0000	326.031
153.5000	326.287
154.0000	326.532
154.5000	326.758
155.0000	327.018
155.5000	327.22
156.0000	327.44
156.5000	327.642
157.0000	327.805
157.5000	328.081
158.0000	328.283
158.5000	328.53
159.0000	328.821
159.5000	329.01
160.0000	329.206
160.5000	329.401
161.0000	329.607
161.5000	329.852
162.0000	330.108
162.5000	330.34
163.0000	330.549
163.5000	330.699
164.0000	330.917
164.5000	331.127
165.0000	331.345
165.5000	331.561
166.0000	331.8
166.5000	332.041
167.0000	332.276
167.5000	332.5
168.0000	332.719
168.5000	332.942
169.0000	333.13
169.5000	333.411
170.0000	333.605
170.5000	333.83
171.0000	334.071
171.5000	334.232
172.0000	334.45
172.5000	334.597
173.0000	334.823
173.5000	335.09
174.0000	335.294
174.5000	335.559
175.0000	335.777
175.5000	335.973
176.0000	336.202
176.5000	336.421
177.0000	336.647
177.5000	336.793
178.0000	337.018
178.5000	337.237
179.0000	337.41
179.5000	337.666
180.0000	337.873
180.5000	338.076
181.0000	338.253
181.5000	338.485
182.0000	338.703
182.5000	338.909
183.0000	339.182
183.5000	339.387
184.0000	339.537
184.5000	339.683
185.0000	339.856
185.5000	340.065
186.0000	340.321
186.5000	340.596
187.0000	340.79
187.5000	340.967
188.0000	341.161
188.5000	341.397
189.0000	341.603
189.5000	341.847
190.0000	342.081
190.5000	342.263
191.0000	342.473
191.5000	342.639
192.0000	342.828
192.5000	343.001
193.0000	343.19
193.5000	343.437
194.0000	343.69
194.5000	343.919
195.0000	344.143
195.5000	344.283
196.0000	344.433
196.5000	344.621
197.0000	344.771
197.5000	345.047
198.0000	345.26
198.5000	345.438
199.0000	345.695
199.5000	345.877
200.0000	346.026
200.5000	346.257
201.0000	346.458
201.5000	346.62
202.0000	346.847
202.5000	347.062
203.0000	347.268
203.5000	347.52
204.0000	347.701
204.5000	347.842
205.0000	348.051
205.5000	348.226
206.0000	348.426
206.5000	348.656
207.0000	348.878
207.5000	349.049
208.0000	349.219
208.5000	349.457
209.0000	349.595
209.5000	349.771
210.0000	350.021
210.5000	350.191
211.0000	350.442
211.5000	350.641
212.0000	350.817
212.5000	351.025
213.0000	351.219
213.5000	351.442
214.0000	351.657
214.5000	351.845
215.0000	351.972
215.5000	352.184
216.0000	352.384
216.5000	352.566
217.0000	352.816
217.5000	352.979
218.0000	353.176
218.5000	353.373
219.0000	353.544
219.5000	353.787
220.0000	353.938
220.5000	354.102
221.0000	354.328
221.5000	354.511
222.0000	354.694
222.5000	354.955
223.0000	355.126
223.5000	355.293
224.0000	355.563
224.5000	355.699
225.0000	355.82
225.5000	356.039
226.0000	356.186
226.5000	356.362
227.0000	356.642
227.5000	356.798
228.0000	356.982
228.5000	357.193
229.0000	357.341
229.5000	357.528
230.0000	357.745
230.5000	357.907
231.0000	358.051
231.5000	358.296
232.0000	358.488
232.5000	358.665
233.0000	358.881
233.5000	358.973
234.0000	359.178
234.5000	359.353
235.0000	359.513
235.5000	359.728
236.0000	359.869
236.5000	360.102
237.0000	360.298
237.5000	360.516
238.0000	360.734
238.5000	360.854
239.0000	361.043
239.5000	361.197
240.0000	361.351
240.5000	361.6
241.0000	361.795
241.5000	361.974
242.0000	362.14
242.5000	362.313
243.0000	362.408
243.5000	362.557
244.0000	362.724
244.5000	362.922
245.0000	363.18
245.5000	363.397
246.0000	363.558
246.5000	363.68
247.0000	363.886
247.5000	364.072
248.0000	364.244
248.5000	364.461
249.0000	364.609
249.5000	364.786
250.0000	364.986
250.5000	365.149
251.0000	365.316
251.5000	365.478
252.0000	365.697
252.5000	365.873
253.0000	366.111
253.5000	366.265
254.0000	366.354
254.5000	366.541
255.0000	366.63
255.5000	366.815
256.0000	367.072
256.5000	367.267
257.0000	367.496
257.5000	367.735
258.0000	367.875
258.5000	368
259.0000	368.105
259.5000	368.295
260.0000	368.508
260.5000	368.713
261.0000	368.93
261.5000	368.981
262.0000	369.05
262.5000	369.218
263.0000	369.387
263.5000	369.585
264.0000	369.81
264.5000	369.924
265.0000	370.083
265.5000	370.271
266.0000	370.471
266.5000	370.682
267.0000	370.871
267.5000	371.061
268.0000	371.222
268.5000	371.361
269.0000	371.512
269.5000	371.647
270.0000	371.853
270.5000	372.05
271.0000	372.222
271.5000	372.386
272.0000	372.5
272.5000	372.664
273.0000	372.859
273.5000	372.987
274.0000	373.129
274.5000	373.341
275.0000	373.471
275.5000	373.678
276.0000	373.851
276.5000	373.953
277.0000	374.152
277.5000	374.315
278.0000	374.457
278.5000	374.642
279.0000	374.763
279.5000	374.925
280.0000	375.041
280.5000	375.199
281.0000	375.367
281.5000	375.526
282.0000	375.752
282.5000	375.929
283.0000	376.123
283.5000	376.315
284.0000	376.506
284.5000	376.689
285.0000	376.782
285.5000	376.911
286.0000	377.043
286.5000	377.135
287.0000	377.342
287.5000	377.52
288.0000	377.685
288.5000	377.888
289.0000	378.022
289.5000	378.079
290.0000	378.263
290.5000	378.398
291.0000	378.567
291.5000	378.798
292.0000	378.894
292.5000	379.013
293.0000	379.197
293.5000	379.38
294.0000	379.597
294.5000	379.787
295.0000	379.917
295.5000	380.046
296.0000	380.211
296.5000	380.346
297.0000	380.505
297.5000	380.645
298.0000	380.748
298.5000	380.933
299.0000	381.1
299.5000	381.304
300.0000	381.489
300.5000	381.563
301.0000	381.691
301.5000	381.776
302.0000	381.856
302.5000	382.037
303.0000	382.172
303.5000	382.366
304.0000	382.636
304.5000	382.797
305.0000	382.927
305.5000	383.087
306.0000	383.194
306.5000	383.366
307.0000	383.543
307.5000	383.7
308.0000	383.821
308.5000	383.983
309.0000	384.141
309.5000	384.274
310.0000	384.443
310.5000	384.581
311.0000	384.792
311.5000	384.92
312.0000	385.045
312.5000	385.183
313.0000	385.335
313.5000	385.491
314.0000	385.673
314.5000	385.83
315.0000	385.884
315.5000	386.048
316.0000	386.2
316.5000	386.356
317.0000	386.495
317.5000	386.675
318.0000	386.784
318.5000	386.948
319.0000	387.207
319.5000	387.289
320.0000	387.475
320.5000	387.556
321.0000	387.595
321.5000	387.75
322.0000	387.869
322.5000	388.017
323.0000	388.222
323.5000	388.395
324.0000	388.559
324.5000	388.746
325.0000	388.914
325.5000	389.126
326.0000	389.233
326.5000	389.36
327.0000	389.525
327.5000	389.561
328.0000	389.701
328.5000	389.91
329.0000	390.026
329.5000	390.128
330.0000	390.228
330.5000	390.319
331.0000	390.403
331.5000	390.628
332.0000	390.837
332.5000	390.997
333.0000	391.166
333.5000	391.313
334.0000	391.44
334.5000	391.509
335.0000	391.615
335.5000	391.785
336.0000	391.936
336.5000	392.094
337.0000	392.212
337.5000	392.276
338.0000	392.371
338.5000	392.502
339.0000	392.715
339.5000	392.897
340.0000	393.036
340.5000	393.229
341.0000	393.365
341.5000	393.441
342.0000	393.621
342.5000	393.739
343.0000	393.9
343.5000	394.097
344.0000	394.192
344.5000	394.277
345.0000	394.418
345.5000	394.504
346.0000	394.679
346.5000	394.923
347.0000	395.035
347.5000	395.163
348.0000	395.209
348.5000	395.288
349.0000	395.356
349.5000	395.511
350.0000	395.767
350.5000	395.91
351.0000	396.069
351.5000	396.234
352.0000	396.295
352.5000	396.449
353.0000	396.593
353.5000	396.72
354.0000	396.923
354.5000	397.07
355.0000	397.161
355.5000	397.286
356.0000	397.359
356.5000	397.493
357.0000	397.649
357.5000	397.864
358.0000	398.014
358.5000	398.094
359.0000	398.281
359.5000	398.289
360.0000	398.452
360.5000	398.642
361.0000	398.734
361.5000	398.864
362.0000	398.992
362.5000	399.037
363.0000	399.181
363.5000	399.349
364.0000	399.432
364.5000	399.566
365.0000	399.69
365.5000	399.803
366.0000	399.958
366.5000	400.16
367.0000	400.277
367.5000	400.395
368.0000	400.473
368.5000	400.604
369.0000	400.734
369.5000	400.87
370.0000	401.069
370.5000	401.141
371.0000	401.213
371.5000	401.355
372.0000	401.427
372.5000	401.525
373.0000	401.699
373.5000	401.867
374.0000	402.02
374.5000	402.154
375.0000	402.252
375.5000	402.328
376.0000	402.411
376.5000	402.513
377.0000	402.706
377.5000	402.833
378.0000	402.94
378.5000	403.089
379.0000	403.188
379.5000	403.337
380.0000	403.525
380.5000	403.635
381.0000	403.706
381.5000	403.819
382.0000	403.907
382.5000	404.012
383.0000	404.206
383.5000	404.316
384.0000	404.484
384.5000	404.658
385.0000	404.715
385.5000	404.764
386.0000	404.865
386.5000	405.027
387.0000	405.201
387.5000	405.391
388.0000	405.486
388.5000	405.571
389.0000	405.663
389.5000	405.779
390.0000	405.923
390.5000	406.041
391.0000	406.187
391.5000	406.207
392.0000	406.308
392.5000	406.434
393.0000	406.514
393.5000	406.754
394.0000	406.898
394.5000	407.007
395.0000	407.136
395.5000	407.243
396.0000	407.343
396.5000	407.473
397.0000	407.585
397.5000	407.751
398.0000	407.892
398.5000	407.997
399.0000	408.131
399.5000	408.203
400.0000	408.269
400.5000	408.416
401.0000	408.565
401.5000	408.677
402.0000	408.854
402.5000	408.95
403.0000	409.034
403.5000	409.117
404.0000	409.213
404.5000	409.342
405.0000	409.496
405.5000	409.627
406.0000	409.733
406.5000	409.829
407.0000	409.923
407.5000	409.992
408.0000	410.112
408.5000	410.261
409.0000	410.367
409.5000	410.582
410.0000	410.664
410.5000	410.737
411.0000	410.848
411.5000	410.92
412.0000	411.048
412.5000	411.176
413.0000	411.312
413.5000	411.396
414.0000	411.535
414.5000	411.621
415.0000	411.701
415.5000	411.873
416.0000	411.991
416.5000	412.096
417.0000	412.196
417.5000	412.266
418.0000	412.384
418.5000	412.553
419.0000	412.658
419.5000	412.734
420.0000	412.8
420.5000	412.895
421.0000	412.986
421.5000	413.125
422.0000	413.265
422.5000	413.351
423.0000	413.545
423.5000	413.672
424.0000	413.814
424.5000	413.929
425.0000	413.94
425.5000	414.081
426.0000	414.106
426.5000	414.24
427.0000	414.398
427.5000	414.457
428.0000	414.629
428.5000	414.708
429.0000	414.806
429.5000	414.879
430.0000	415.011
430.5000	415.164
431.0000	415.268
431.5000	415.401
432.0000	415.469
432.5000	415.549
433.0000	415.685
433.5000	415.837
434.0000	416.021
434.5000	416.091
435.0000	416.243
435.5000	416.349
436.0000	416.397
436.5000	416.496
437.0000	416.618
437.5000	416.741
438.0000	416.844
438.5000	416.973
439.0000	417.018
439.5000	417.081
440.0000	417.166
440.5000	417.213
441.0000	417.313
441.5000	417.412
442.0000	417.48
442.5000	417.63
443.0000	417.739
443.5000	417.876
444.0000	418.059
444.5000	418.231
445.0000	418.277
445.5000	418.384
446.0000	418.464
446.5000	418.513
447.0000	418.705
447.5000	418.774
448.0000	418.852
448.5000	419.012
449.0000	419.124
449.5000	419.27
450.0000	419.46
450.5000	419.559
451.0000	419.58
451.5000	419.701
452.0000	419.797
452.5000	419.902
453.0000	420.069
453.5000	420.189
454.0000	420.265
454.5000	420.355
455.0000	420.379
455.5000	420.429
456.0000	420.527
456.5000	420.61
457.0000	420.767
457.5000	420.86
458.0000	420.915
458.5000	421.029
459.0000	421.137
459.5000	421.23
460.0000	421.387
460.5000	421.533
461.0000	421.67
461.5000	421.743
462.0000	421.842
462.5000	421.936
463.0000	422.032
463.5000	422.224
464.0000	422.316
464.5000	422.296
465.0000	422.36
465.5000	422.423
466.0000	422.507
466.5000	422.689
467.0000	422.805
467.5000	422.979
468.0000	423.098
468.5000	423.208
469.0000	423.301
469.5000	423.267
470.0000	423.399
470.5000	423.441
471.0000	423.552
471.5000	423.694
472.0000	423.817
472.5000	423.927
473.0000	424.08
473.5000	424.243
474.0000	424.309
474.5000	424.444
475.0000	424.497
475.5000	424.57
476.0000	424.696
476.5000	424.843
477.0000	424.944
477.5000	425.002
478.0000	424.996
478.5000	425.085
479.0000	425.205
479.5000	425.337
480.0000	425.499
480.5000	425.572
481.0000	425.61
481.5000	425.723
482.0000	425.816
482.5000	425.888
483.0000	425.956
483.5000	426.066
484.0000	426.122
484.5000	426.165
485.0000	426.258
485.5000	426.306
486.0000	426.417
486.5000	426.627
487.0000	426.813
487.5000	426.902
488.0000	426.992
488.5000	427.027
489.0000	427.116
489.5000	427.248
490.0000	427.378
490.5000	427.491
491.0000	427.612
491.5000	427.686
492.0000	427.703
492.5000	427.82
493.0000	427.859
493.5000	427.964
494.0000	428.167
494.5000	428.181
495.0000	428.24
495.5000	428.281
496.0000	428.368
496.5000	428.48
497.0000	428.587
497.5000	428.733
498.0000	428.801
498.5000	428.868
499.0000	428.973
499.5000	429.048
500.0000	429.127
500.5000	429.24
501.0000	429.326
501.5000	429.409
502.0000	429.491
502.5000	429.538
503.0000	429.597
503.5000	429.681
504.0000	429.763
504.5000	429.879
505.0000	429.944
505.5000	429.981
506.0000	430.07
506.5000	430.215
507.0000	430.38
507.5000	430.487
508.0000	430.512
508.5000	430.599
509.0000	430.683
509.5000	430.832
510.0000	431.031
510.5000	431.087
511.0000	431.169
511.5000	431.237
512.0000	431.206
512.5000	431.292
513.0000	431.397
513.5000	431.497
514.0000	431.679
514.5000	431.777
515.0000	431.866
515.5000	431.907
516.0000	431.953
516.5000	432.101
517.0000	432.158
517.5000	432.246
518.0000	432.399
518.5000	432.455
519.0000	432.542
519.5000	432.674
520.0000	432.711
520.5000	432.786
521.0000	432.887
521.5000	432.922
522.0000	433.056
522.5000	433.168
523.0000	433.268
523.5000	433.395
524.0000	433.396
524.5000	433.416
525.0000	433.477
525.5000	433.564
526.0000	433.631
526.5000	433.653
527.0000	433.758
527.5000	433.819
528.0000	433.905
528.5000	434.065
529.0000	434.092
529.5000	434.173
530.0000	434.313
530.5000	434.422
531.0000	434.542
531.5000	434.629
532.0000	434.682
532.5000	434.692
533.0000	434.752
533.5000	434.888
534.0000	434.964
534.5000	435.087
535.0000	435.252
535.5000	435.27
536.0000	435.363
536.5000	435.437
537.0000	435.431
537.5000	435.581
538.0000	435.659
538.5000	435.793
539.0000	435.896
539.5000	435.939
540.0000	436.084
540.5000	436.13
541.0000	436.207
541.5000	436.308
542.0000	436.324
542.5000	436.4
543.0000	436.5
543.5000	436.539
544.0000	436.607
544.5000	436.697
545.0000	436.771
545.5000	436.949
546.0000	437.069
546.5000	437.223
547.0000	437.318
547.5000	437.288
548.0000	437.36
548.5000	437.377
549.0000	437.389
549.5000	437.442
550.0000	437.511
550.5000	437.582
551.0000	437.746
551.5000	437.88
552.0000	437.983
552.5000	438.065
553.0000	438.104
553.5000	438.209
554.0000	438.224
554.5000	438.281
555.0000	438.355
555.5000	438.411
556.0000	438.553
556.5000	438.651
557.0000	438.702
557.5000	438.809
558.0000	438.885
558.5000	438.971
559.0000	439.062
559.5000	439.066
560.0000	439.108
560.5000	439.161
561.0000	439.257
561.5000	439.403
562.0000	439.457
562.5000	439.524
563.0000	439.629
563.5000	439.654
564.0000	439.728
564.5000	439.829
565.0000	439.834
565.5000	439.927
566.0000	440.073
566.5000	440.139
567.0000	440.257
567.5000	440.374
568.0000	440.428
568.5000	440.541
569.0000	440.627
569.5000	440.635
570.0000	440.695
570.5000	440.761
571.0000	440.825
571.5000	440.889
572.0000	440.966
572.5000	441.022
573.0000	441.051
573.5000	441.087
574.0000	441.214
574.5000	441.38
575.0000	441.549
575.5000	441.664
576.0000	441.66
576.5000	441.672
577.0000	441.692
577.5000	441.805
578.0000	441.925
578.5000	441.986
579.0000	442.072
579.5000	442.146
580.0000	442.165
580.5000	442.193
581.0000	442.213
581.5000	442.229
582.0000	442.355
582.5000	442.49
583.0000	442.623
583.5000	442.731
584.0000	442.781
584.5000	442.802
585.0000	442.905
585.5000	442.924
586.0000	442.945
586.5000	442.989
587.0000	442.992
587.5000	443.127
588.0000	443.234
588.5000	443.417
589.0000	443.589
589.5000	443.641
590.0000	443.715
590.5000	443.736
591.0000	443.75
591.5000	443.807
592.0000	443.922
592.5000	443.98
593.0000	443.979
593.5000	444.07
594.0000	444.06
594.5000	444.142
595.0000	444.234
595.5000	444.33
596.0000	444.467
596.5000	444.513
597.0000	444.66
597.5000	444.679
598.0000	444.752
598.5000	444.829
599.0000	444.848
599.5000	444.921
600.0000	444.968
600.5000	444.981
601.0000	445.018
601.5000	445.166
602.0000	445.22
602.5000	445.35
603.0000	445.485
603.5000	445.51
604.0000	445.6
604.5000	445.647
605.0000	445.663
605.5000	445.694
606.0000	445.796
606.5000	445.82
607.0000	445.862
607.5000	446.007
608.0000	445.979
608.5000	446.063
609.0000	446.078
609.5000	446.121
610.0000	446.273
610.5000	446.373
611.0000	446.491
611.5000	446.539
612.0000	446.514
612.5000	446.539
613.0000	446.639
613.5000	446.698
614.0000	446.853
614.5000	446.923
615.0000	447.013
615.5000	447.105
616.0000	447.11
616.5000	447.257
617.0000	447.282
617.5000	447.404
618.0000	447.507
618.5000	447.512
619.0000	447.604
619.5000	447.559
620.0000	447.65
620.5000	447.727
621.0000	447.732
621.5000	447.791
622.0000	447.858
622.5000	447.938
623.0000	448.021
623.5000	448.147
624.0000	448.187
624.5000	448.215
625.0000	448.263
625.5000	448.306
626.0000	448.378
626.5000	448.506
627.0000	448.538
627.5000	448.545
628.0000	448.609
628.5000	448.552
629.0000	448.719
629.5000	448.81
630.0000	448.789
630.5000	448.871
631.0000	448.81
631.5000	448.894
632.0000	449.019
632.5000	449.154
633.0000	449.307
633.5000	449.369
634.0000	449.471
634.5000	449.521
635.0000	449.566
635.5000	449.622
636.0000	449.621
636.5000	449.713
637.0000	449.757
637.5000	449.783
638.0000	449.93
638.5000	449.929
639.0000	449.976
639.5000	450.062
640.0000	450.035
640.5000	450.161
641.0000	450.257
641.5000	450.32
642.0000	450.379
642.5000	450.426
643.0000	450.526
643.5000	450.594
644.0000	450.698
644.5000	450.682
645.0000	450.726
645.5000	450.872
646.0000	450.943
646.5000	451.059
647.0000	451.106
647.5000	451.137
648.0000	451.184
648.5000	451.221
649.0000	451.31
649.5000	451.383
650.0000	451.497
650.5000	451.599
651.0000	451.691
651.5000	451.749
652.0000	451.721
652.5000	451.755
653.0000	451.802
653.5000	451.85
654.0000	452.025
654.5000	452.123
655.0000	452.187
655.5000	452.231
656.0000	452.197
656.5000	452.26
657.0000	452.374
657.5000	452.436
658.0000	452.52
658.5000	452.585
659.0000	452.542
659.5000	452.628
660.0000	452.684
660.5000	452.679
661.0000	452.74
661.5000	452.78
662.0000	452.895
662.5000	452.976
663.0000	453.054
663.5000	453.083
664.0000	453.115
664.5000	453.154
665.0000	453.218
665.5000	453.304
666.0000	453.348
666.5000	453.428
667.0000	453.555
667.5000	453.589
668.0000	453.604
668.5000	453.688
669.0000	453.682
669.5000	453.747
670.0000	453.94
670.5000	453.981
671.0000	454.011
671.5000	454.074
672.0000	454.097
672.5000	454.181
673.0000	454.297
673.5000	454.404
674.0000	454.505
674.5000	454.63
675.0000	454.702
675.5000	454.73
676.0000	454.739
676.5000	454.75
677.0000	454.847
677.5000	454.931
678.0000	454.969
678.5000	455.074
679.0000	455.155
679.5000	455.258
680.0000	455.263
680.5000	455.273
681.0000	455.275
681.5000	455.259
682.0000	455.372
682.5000	455.504
683.0000	455.615
683.5000	455.737
684.0000	455.804
684.5000	455.779
685.0000	455.797
685.5000	455.841
686.0000	455.923
686.5000	455.991
687.0000	456.024
687.5000	456.042
688.0000	456.061
688.5000	456.056
689.0000	456.153
689.5000	456.255
690.0000	456.383
690.5000	456.549
691.0000	456.593
691.5000	456.658
692.0000	456.683
692.5000	456.723
693.0000	456.745
693.5000	456.824
694.0000	456.874
694.5000	456.906
695.0000	456.999
695.5000	457.037
696.0000	457.085
696.5000	457.196
697.0000	457.203
697.5000	457.191
698.0000	457.257
698.5000	457.269
699.0000	457.411
699.5000	457.501
700.0000	457.558
700.5000	457.587
701.0000	457.651
701.5000	457.763
702.0000	457.807
702.5000	457.907
703.0000	457.861
703.5000	457.902
704.0000	457.957
704.5000	458.014
705.0000	458.188
705.5000	458.235
706.0000	458.218
706.5000	458.271
707.0000	458.226
707.5000	458.241
708.0000	458.413
708.5000	458.45
709.0000	458.554
709.5000	458.609
710.0000	458.687
710.5000	458.778
711.0000	458.811
711.5000	458.936
712.0000	458.95
712.5000	458.959
713.0000	459.003
713.5000	459.031
714.0000	459.085
714.5000	459.219
715.0000	459.267
715.5000	459.409
716.0000	459.409
716.5000	459.403
717.0000	459.515
717.5000	459.548
718.0000	459.657
718.5000	459.76
719.0000	459.842
719.5000	459.807
720.0000	459.84
720.5000	459.826
721.0000	459.881
721.5000	459.995
722.0000	460.119
722.5000	460.209
723.0000	460.302
723.5000	460.366
724.0000	460.359
724.5000	460.469
725.0000	460.463
725.5000	460.489
726.0000	460.629
726.5000	460.72
727.0000	460.758
727.5000	460.835
728.0000	460.82
728.5000	460.82
729.0000	460.903
729.5000	460.953
730.0000	461.013
730.5000	461.049
731.0000	461.072
731.5000	461.086
732.0000	461.178
732.5000	461.287
733.0000	461.365
733.5000	461.444
734.0000	461.538
734.5000	461.525
735.0000	461.605
735.5000	461.628
736.0000	461.593
736.5000	461.682
737.0000	461.74
737.5000	461.854
738.0000	461.992
738.5000	462.021
739.0000	462.044
739.5000	462.08
740.0000	462.051
740.5000	462.111
741.0000	462.242
741.5000	462.371
742.0000	462.474
742.5000	462.555
743.0000	462.518
743.5000	462.501
744.0000	462.578
744.5000	462.663
745.0000	462.817
745.5000	462.901
746.0000	463.002
746.5000	463.039
747.0000	463.047
747.5000	463.148
748.0000	463.156
748.5000	463.208
749.0000	463.269
749.5000	463.291
750.0000	463.41
750.5000	463.421
751.0000	463.515
751.5000	463.547
752.0000	463.584
752.5000	463.704
753.0000	463.684
753.5000	463.747
754.0000	463.694
754.5000	463.754
755.0000	463.874
755.5000	463.884
756.0000	464.04
756.5000	464.042
757.0000	463.964
757.5000	464.091
758.0000	464.052
758.5000	464.164
759.0000	464.308
759.5000	464.341
760.0000	464.479
760.5000	464.513
761.0000	464.559
761.5000	464.55
762.0000	464.527
762.5000	464.583
763.0000	464.604
763.5000	464.664
764.0000	464.686
764.5000	464.716
765.0000	464.831
765.5000	464.972
766.0000	465.142
766.5000	465.195
767.0000	465.146
767.5000	465.079
768.0000	465.071
768.5000	465.13
769.0000	465.265
769.5000	465.376
770.0000	465.484
770.5000	465.544
771.0000	465.554
771.5000	465.58
772.0000	465.551
772.5000	465.571
773.0000	465.61
773.5000	465.673
774.0000	465.709
774.5000	465.727
775.0000	465.813
775.5000	465.919
776.0000	465.955
776.5000	466.071
777.0000	466.089
777.5000	466.087
778.0000	466.167
778.5000	466.196
779.0000	466.269
779.5000	466.292
780.0000	466.325
780.5000	466.334
781.0000	466.41
781.5000	466.445
782.0000	466.505
782.5000	466.589
783.0000	466.633
783.5000	466.769
784.0000	466.784
784.5000	466.878
785.0000	466.88
785.5000	466.896
786.0000	466.942
786.5000	466.947
787.0000	467.057
787.5000	467.045
788.0000	467.095
788.5000	467.11
789.0000	467.09
789.5000	467.18
790.0000	467.241
790.5000	467.286
791.0000	467.319
791.5000	467.32
792.0000	467.332
792.5000	467.34
793.0000	467.403
793.5000	467.452
794.0000	467.553
794.5000	467.642
795.0000	467.668
795.5000	467.72
796.0000	467.764
796.5000	467.821
797.0000	467.85
797.5000	467.917
798.0000	467.939
798.5000	467.931
799.0000	467.968
799.5000	467.999
800.0000	468.046
800.5000	468.12
801.0000	468.178
801.5000	468.208
802.0000	468.303
802.5000	468.424
803.0000	468.505
803.5000	468.515
804.0000	468.534
804.5000	468.51
805.0000	468.559
805.5000	468.644
806.0000	468.602
806.5000	468.638
807.0000	468.623
807.5000	468.613
808.0000	468.702
808.5000	468.716
809.0000	468.763
809.5000	468.892
810.0000	468.936
810.5000	468.922
811.0000	469.022
811.5000	469.018
812.0000	469.032
812.5000	469.189
813.0000	469.224
813.5000	469.279
814.0000	469.351
814.5000	469.377
815.0000	469.431
815.5000	469.512
816.0000	469.562
816.5000	469.612
817.0000	469.619
817.5000	469.62
818.0000	469.69
818.5000	469.701
819.0000	469.828
819.5000	469.906
820.0000	469.92
820.5000	470.004
821.0000	469.929
821.5000	469.951
822.0000	470.068
822.5000	470.104
823.0000	470.204
823.5000	470.233
824.0000	470.184
824.5000	470.235
825.0000	470.255
825.5000	470.362
826.0000	470.445
826.5000	470.488
827.0000	470.5
827.5000	470.495
828.0000	470.483
828.5000	470.465
829.0000	470.59
829.5000	470.617
830.0000	470.662
830.5000	470.762
831.0000	470.742
831.5000	470.792
832.0000	470.87
832.5000	470.869
833.0000	470.951
833.5000	471.026
834.0000	471.115
834.5000	471.197
835.0000	471.21
835.5000	471.242
836.0000	471.217
836.5000	471.186
837.0000	471.29
837.5000	471.326
838.0000	471.452
838.5000	471.517
839.0000	471.551
839.5000	471.543
840.0000	471.461
840.5000	471.505
841.0000	471.487
841.5000	471.546
842.0000	471.645
842.5000	471.694
843.0000	471.764
843.5000	471.846
844.0000	471.876
844.5000	471.954
845.0000	471.947
845.5000	471.893
846.0000	471.967
846.5000	471.933
847.0000	472.023
847.5000	472.158
848.0000	472.192
848.5000	472.261
849.0000	472.265
849.5000	472.28
850.0000	472.318
850.5000	472.329
851.0000	472.329
851.5000	472.399
852.0000	472.427
852.5000	472.487
853.0000	472.615
853.5000	472.662
854.0000	472.668
854.5000	472.734
855.0000	472.738
855.5000	472.724
856.0000	472.769
856.5000	472.737
857.0000	472.791
857.5000	472.93
858.0000	472.95
858.5000	473.043
859.0000	473.062
859.5000	472.978
860.0000	473.111
860.5000	473.156
861.0000	473.226
861.5000	473.296
862.0000	473.289
862.5000	473.382
863.0000	473.399
863.5000	473.425
864.0000	473.483
864.5000	473.494
865.0000	473.574
865.5000	473.623
866.0000	473.75
866.5000	473.801
867.0000	473.781
867.5000	473.908
868.0000	473.911
868.5000	473.892
869.0000	473.965
869.5000	473.921
870.0000	473.923
870.5000	474.024
871.0000	474.085
871.5000	474.14
872.0000	474.154
872.5000	474.167
873.0000	474.244
873.5000	474.234
874.0000	474.278
874.5000	474.27
875.0000	474.253
875.5000	474.325
876.0000	474.404
876.5000	474.542
877.0000	474.628
877.5000	474.722
878.0000	474.828
878.5000	474.88
879.0000	474.844
879.5000	474.914
880.0000	474.866
880.5000	474.877
881.0000	475.061
881.5000	475.143
882.0000	475.234
882.5000	475.295
883.0000	475.247
883.5000	475.241
884.0000	475.215
884.5000	475.251
885.0000	475.252
885.5000	475.271
886.0000	475.387
886.5000	475.37
887.0000	475.482
887.5000	475.529
888.0000	475.574
888.5000	475.598
889.0000	475.639
889.5000	475.689
890.0000	475.677
890.5000	475.804
891.0000	475.815
891.5000	475.846
892.0000	475.919
892.5000	475.951
893.0000	476.051
893.5000	476.081
894.0000	476.104
894.5000	476.201
895.0000	476.151
895.5000	476.308
896.0000	476.322
896.5000	476.361
897.0000	476.437
897.5000	476.404
898.0000	476.481
898.5000	476.429
899.0000	476.502
899.5000	476.447
900.0000	476.515
900.5000	476.653
901.0000	476.728
901.5000	476.817
902.0000	476.818
902.5000	476.845
903.0000	476.865
903.5000	476.9
904.0000	476.945
904.5000	476.894
905.0000	476.934
905.5000	477.016
906.0000	477.015
906.5000	477.1
907.0000	477.051
907.5000	477.109
908.0000	477.139
908.5000	477.179
909.0000	477.344
909.5000	477.339
910.0000	477.414
910.5000	477.45
911.0000	477.417
911.5000	477.557
912.0000	477.673
912.5000	477.741
913.0000	477.751
913.5000	477.713
914.0000	477.741
914.5000	477.784
915.0000	477.83
915.5000	477.858
916.0000	477.896
916.5000	477.943
917.0000	478.02
917.5000	478.033
918.0000	478.025
918.5000	478.047
919.0000	478.076
919.5000	478.127
920.0000	478.18
920.5000	478.218
921.0000	478.231
921.5000	478.344
922.0000	478.373
922.5000	478.401
923.0000	478.45
923.5000	478.381
924.0000	478.388
924.5000	478.389
925.0000	478.444
925.5000	478.479
926.0000	478.518
926.5000	478.585
927.0000	478.61
927.5000	478.684
928.0000	478.738
928.5000	478.78
929.0000	478.811
929.5000	478.923
930.0000	478.954
930.5000	479.028
931.0000	479.073
931.5000	479.005
932.0000	478.97
932.5000	478.924
933.0000	478.946
933.5000	479.015
934.0000	479.059
934.5000	479.166
935.0000	479.155
935.5000	479.16
936.0000	479.237
936.5000	479.231
937.0000	479.314
937.5000	479.417
938.0000	479.467
938.5000	479.463
939.0000	479.449
939.5000	479.415
940.0000	479.44
940.5000	479.482
941.0000	479.586
941.5000	479.663
942.0000	479.649
942.5000	479.636
943.0000	479.636
943.5000	479.666
944.0000	479.653
944.5000	479.782
945.0000	479.818
945.5000	479.785
946.0000	479.897
946.5000	479.923
947.0000	479.902
947.5000	479.974
948.0000	479.991
948.5000	480.011
949.0000	480.123
949.5000	480.144
950.0000	480.14
950.5000	480.146
951.0000	480.156
951.5000	480.197
952.0000	480.289
952.5000	480.286
953.0000	480.238
953.5000	480.245
954.0000	480.289
954.5000	480.319
955.0000	480.427
955.5000	480.464
956.0000	480.508
956.5000	480.546
957.0000	480.527
957.5000	480.553
958.0000	480.532
958.5000	480.57
959.0000	480.603
959.5000	480.588
960.0000	480.639
960.5000	480.647
961.0000	480.745
961.5000	480.864
962.0000	480.847
962.5000	481.009
963.0000	480.963
963.5000	480.959
964.0000	481.049
964.5000	480.996
965.0000	481.083
965.5000	481.16
966.0000	481.212
966.5000	481.275
967.0000	481.267
967.5000	481.29
968.0000	481.265
968.5000	481.246
969.0000	481.31
969.5000	481.291
970.0000	481.345
970.5000	481.432
971.0000	481.518
971.5000	481.554
972.0000	481.591
972.5000	481.524
973.0000	481.541
973.5000	481.604
974.0000	481.656
974.5000	481.763
975.0000	481.743
975.5000	481.784
976.0000	481.773
976.5000	481.84
977.0000	481.892
977.5000	481.92
978.0000	482.019
978.5000	481.99
979.0000	482.064
979.5000	482.095
980.0000	482.078
980.5000	482.118
981.0000	482.121
981.5000	482.107
982.0000	482.172
982.5000	482.111
983.0000	482.111
983.5000	482.142
984.0000	482.107
984.5000	482.218
985.0000	482.264
985.5000	482.315
986.0000	482.399
986.5000	482.35
987.0000	482.348
987.5000	482.396
988.0000	482.411
988.5000	482.58
989.0000	482.653
989.5000	482.677
990.0000	482.706
990.5000	482.709
991.0000	482.697
991.5000	482.667
992.0000	482.685
992.5000	482.697
993.0000	482.705
993.5000	482.782
994.0000	482.836
994.5000	482.856
995.0000	482.907
995.5000	482.938
996.0000	482.93
996.5000	482.975
997.0000	483.033
997.5000	483.087
998.0000	483.128
998.5000	483.161
999.0000	483.116
999.5000	483.097
1000.0000	483.164
1000.5000	483.123
1001.0000	483.24
1001.5000	483.287
1002.0000	483.276
1002.5000	483.369
1003.0000	483.331
1003.5000	483.332
1004.0000	483.343
1004.5000	483.354
1005.0000	483.462
1005.5000	483.499
1006.0000	483.52
1006.5000	483.598
1007.0000	483.577
1007.5000	483.636
1008.0000	483.708
1008.5000	483.706
1009.0000	483.726
1009.5000	483.718
1010.0000	483.698
1010.5000	483.715
1011.0000	483.687
1011.5000	483.699
1012.0000	483.789
1012.5000	483.833
1013.0000	483.86
1013.5000	483.962
1014.0000	483.989
1014.5000	483.924
1015.0000	483.981
1015.5000	483.899
1016.0000	483.872
1016.5000	483.974
1017.0000	484.039
1017.5000	484.152
1018.0000	484.133
1018.5000	484.168
1019.0000	484.244
1019.5000	484.301
1020.0000	484.397
1020.5000	484.401
1021.0000	484.378
1021.5000	484.361
1022.0000	484.424
1022.5000	484.491
1023.0000	484.526
1023.5000	484.52
1024.0000	484.523
1024.5000	484.527
1025.0000	484.456
1025.5000	484.513
1026.0000	484.496
1026.5000	484.527
1027.0000	484.607
1027.5000	484.678
1028.0000	484.748
1028.5000	484.769
1029.0000	484.835
1029.5000	484.816
1030.0000	484.792
1030.5000	484.836
1031.0000	484.863
1031.5000	484.876
1032.0000	484.963
1032.5000	484.992
1033.0000	485.041
1033.5000	485.077
1034.0000	485.062
1034.5000	485.043
1035.0000	485.082
1035.5000	485.081
1036.0000	485.104
1036.5000	485.157
1037.0000	485.173
1037.5000	485.206
1038.0000	485.263
1038.5000	485.305
1039.0000	485.315
1039.5000	485.39
1040.0000	485.411
1040.5000	485.452
1041.0000	485.455
1041.5000	485.498
1042.0000	485.558
1042.5000	485.512
1043.0000	485.568
1043.5000	485.642
1044.0000	485.693
1044.5000	485.749
1045.0000	485.768
1045.5000	485.722
1046.0000	485.64
1046.5000	485.655
1047.0000	485.623
1047.5000	485.656
1048.0000	485.772
1048.5000	485.831
1049.0000	485.995
1049.5000	486.014
1050.0000	486.011
1050.5000	486.091
1051.0000	486.095
1051.5000	486.14
1052.0000	486.202
1052.5000	486.201
1053.0000	486.259
1053.5000	486.287
1054.0000	486.266
1054.5000	486.238
1055.0000	486.137
1055.5000	486.127
1056.0000	486.192
1056.5000	486.266
1057.0000	486.351
1057.5000	486.457
1058.0000	486.504
1058.5000	486.551
1059.0000	486.56
1059.5000	486.559
1060.0000	486.613
1060.5000	486.645
1061.0000	486.661
1061.5000	486.689
1062.0000	486.657
1062.5000	486.662
1063.0000	486.743
1063.5000	486.733
1064.0000	486.774
1064.5000	486.762
1065.0000	486.779
1065.5000	486.824
1066.0000	486.843
1066.5000	486.851
1067.0000	486.818
1067.5000	486.832
1068.0000	486.897
1068.5000	486.968
1069.0000	487.032
1069.5000	487.068
1070.0000	487.043
1070.5000	487.077
1071.0000	487.116
1071.5000	487.113
1072.0000	487.186
1072.5000	487.203
1073.0000	487.216
1073.5000	487.17
1074.0000	487.183
1074.5000	487.162
1075.0000	487.171
1075.5000	487.331
1076.0000	487.322
1076.5000	487.437
1077.0000	487.469
1077.5000	487.377
1078.0000	487.418
1078.5000	487.385
1079.0000	487.414
1079.5000	487.539
1080.0000	487.554
1080.5000	487.566
1081.0000	487.578
1081.5000	487.532
1082.0000	487.613
1082.5000	487.694
1083.0000	487.751
1083.5000	487.861
1084.0000	487.895
1084.5000	487.863
1085.0000	487.927
1085.5000	487.9
1086.0000	487.89
1086.5000	487.987
1087.0000	487.93
1087.5000	488.02
1088.0000	488.017
1088.5000	488.058
1089.0000	488.109
1089.5000	488.116
1090.0000	488.137
1090.5000	488.019
1091.0000	488.077
1091.5000	488.109
1092.0000	488.156
1092.5000	488.268
1093.0000	488.259
1093.5000	488.24
1094.0000	488.289
1094.5000	488.284
1095.0000	488.31
1095.5000	488.293
1096.0000	488.297
1096.5000	488.358
1097.0000	488.425
1097.5000	488.512
1098.0000	488.54
1098.5000	488.55
1099.0000	488.508
1099.5000	488.505
1100.0000	488.526
1100.5000	488.585
1101.0000	488.769
1101.5000	488.88
1102.0000	488.886
1102.5000	488.913
1103.0000	488.844
1103.5000	488.741
1104.0000	488.786
1104.5000	488.837
1105.0000	488.778
1105.5000	488.874
1106.0000	488.942
1106.5000	488.913
1107.0000	489.035
1107.5000	489.077
1108.0000	489.029
1108.5000	489.068
1109.0000	489.063
1109.5000	489.168
1110.0000	489.22
1110.5000	489.28
1111.0000	489.279
1111.5000	489.239
1112.0000	489.193
1112.5000	489.202
1113.0000	489.214
1113.5000	489.25
1114.0000	489.288
1114.5000	489.29
1115.0000	489.305
1115.5000	489.221
1116.0000	489.286
1116.5000	489.336
1117.0000	489.355
1117.5000	489.335
1118.0000	489.28
1118.5000	489.242
1119.0000	489.286
1119.5000	489.361
1120.0000	489.427
1120.5000	489.463
1121.0000	489.534
1121.5000	489.642
1122.0000	489.675
1122.5000	489.638
1123.0000	489.559
1123.5000	489.495
1124.0000	489.524
1124.5000	489.61
1125.0000	489.748
1125.5000	489.817
1126.0000	489.802
1126.5000	489.813
1127.0000	489.829
1127.5000	489.824
1128.0000	489.799
1128.5000	489.825
1129.0000	489.795
1129.5000	489.791
1130.0000	489.874
1130.5000	489.911
1131.0000	489.982
1131.5000	490.027
1132.0000	490.043
1132.5000	490.022
1133.0000	490.029
1133.5000	490.113
1134.0000	490.146
1134.5000	490.205
1135.0000	490.173
1135.5000	490.082
1136.0000	490.166
1136.5000	490.15
1137.0000	490.168
1137.5000	490.281
1138.0000	490.219
1138.5000	490.221
1139.0000	490.291
1139.5000	490.259
1140.0000	490.294
1140.5000	490.309
1141.0000	490.316
1141.5000	490.313
1142.0000	490.322
1142.5000	490.356
1143.0000	490.346
1143.5000	490.407
1144.0000	490.407
1144.5000	490.431
1145.0000	490.467
1145.5000	490.541
1146.0000	490.56
1146.5000	490.606
1147.0000	490.63
1147.5000	490.547
1148.0000	490.549
1148.5000	490.621
1149.0000	490.64
1149.5000	490.689
1150.0000	490.718
1150.5000	490.646
1151.0000	490.569
1151.5000	490.65
1152.0000	490.805
1152.5000	490.886
1153.0000	490.982
1153.5000	490.958
1154.0000	490.851
1154.5000	490.827
1155.0000	490.824
1155.5000	490.775
1156.0000	490.867
1156.5000	490.9
1157.0000	490.951
1157.5000	491.037
1158.0000	490.981
1158.5000	490.917
1159.0000	490.915
1159.5000	490.905
1160.0000	490.917
1160.5000	490.977
1161.0000	490.957
1161.5000	491.075
1162.0000	491.155
1162.5000	491.185
1163.0000	491.307
1163.5000	491.159
1164.0000	491.194
1164.5000	491.233
1165.0000	491.153
1165.5000	491.225
1166.0000	491.214
1166.5000	491.236
1167.0000	491.287
1167.5000	491.302
1168.0000	491.328
1168.5000	491.402
1169.0000	491.521
1169.5000	491.536
1170.0000	491.602
1170.5000	491.544
1171.0000	491.436
1171.5000	491.456
1172.0000	491.423
1172.5000	491.44
1173.0000	491.463
1173.5000	491.424
1174.0000	491.422
1174.5000	491.404
1175.0000	491.473
1175.5000	491.625
1176.0000	491.583
1176.5000	491.64
1177.0000	491.626
1177.5000	491.548
1178.0000	491.622
1178.5000	491.609
1179.0000	491.641
1179.5000	491.709
1180.0000	491.716
1180.5000	491.802
1181.0000	491.792
1181.5000	491.787
1182.0000	491.82
1182.5000	491.738
1183.0000	491.772
1183.5000	491.86
1184.0000	491.862
1184.5000	492.015
1185.0000	492.043
1185.5000	491.993
1186.0000	492.029
1186.5000	491.98
1187.0000	491.964
1187.5000	491.98
1188.0000	492.034
1188.5000	492.085
1189.0000	492.142
1189.5000	492.191
1190.0000	492.19
1190.5000	492.199
1191.0000	492.223
1191.5000	492.192
1192.0000	492.194
1192.5000	492.232
1193.0000	492.206
1193.5000	492.255
1194.0000	492.273
1194.5000	492.255
1195.0000	492.266
1195.5000	492.289
1196.0000	492.334
1196.5000	492.338
1197.0000	492.394
1197.5000	492.467
1198.0000	492.485
1198.5000	492.491
1199.0000	492.519
1199.5000	492.435
1200.0000	492.423
1200.5000	492.487
1201.0000	492.451
1201.5000	492.498
1202.0000	492.477
1202.5000	492.437
1203.0000	492.487
1203.5000	492.538
1204.0000	492.53
1204.5000	492.552
1205.0000	492.579
1205.5000	492.637
1206.0000	492.679
1206.5000	492.703
1207.0000	492.723
1207.5000	492.649
1208.0000	492.661
1208.5000	492.708
1209.0000	492.71
1209.5000	492.769
1210.0000	492.824
1210.5000	492.82
1211.0000	492.81
1211.5000	492.79
1212.0000	492.866
1212.5000	492.848
1213.0000	492.841
1213.5000	492.888
1214.0000	492.867
1214.5000	492.901
1215.0000	492.968
1215.5000	492.989
1216.0000	492.943
1216.5000	492.936
1217.0000	492.9
1217.5000	492.911
1218.0000	492.989
1218.5000	493.036
1219.0000	493.125
1219.5000	493.079
1220.0000	493.087
1220.5000	493.112
1221.0000	493.085
1221.5000	493.121
1222.0000	493.135
1222.5000	493.143
1223.0000	493.128
1223.5000	493.24
1224.0000	493.181
1224.5000	493.158
1225.0000	493.185
1225.5000	493.071
1226.0000	493.215
1226.5000	493.249
1227.0000	493.306
1227.5000	493.401
1228.0000	493.293
1228.5000	493.393
1229.0000	493.425
1229.5000	493.396
1230.0000	493.444
1230.5000	493.41
1231.0000	493.377
1231.5000	493.372
1232.0000	493.453
1232.5000	493.5
1233.0000	493.564
1233.5000	493.567
1234.0000	493.563
1234.5000	493.574
1235.0000	493.551
1235.5000	493.564
1236.0000	493.624
1236.5000	493.581
1237.0000	493.615
1237.5000	493.691
1238.0000	493.663
1238.5000	493.657
1239.0000	493.675
1239.5000	493.687
1240.0000	493.68
1240.5000	493.747
1241.0000	493.734
1241.5000	493.666
1242.0000	493.636
1242.5000	493.702
1243.0000	493.715
1243.5000	493.788
1244.0000	493.826
1244.5000	493.784
1245.0000	493.789
1245.5000	493.825
1246.0000	493.933
1246.5000	493.934
1247.0000	493.991
1247.5000	494.051
1248.0000	494.014
1248.5000	494.021
1249.0000	494.094
1249.5000	494.003
1250.0000	493.955
1250.5000	494.015
1251.0000	493.889
1251.5000	493.963
1252.0000	493.987
1252.5000	494.048
1253.0000	494.152
1253.5000	494.149
1254.0000	494.147
1254.5000	494.133
1255.0000	494.159
1255.5000	494.231
1256.0000	494.311
1256.5000	494.254
1257.0000	494.275
1257.5000	494.242
1258.0000	494.266
1258.5000	494.28
1259.0000	494.251
1259.5000	494.29
1260.0000	494.29
1260.5000	494.307
1261.0000	494.281
1261.5000	494.334
1262.0000	494.319
1262.5000	494.36
1263.0000	494.357
1263.5000	494.352
1264.0000	494.35
1264.5000	494.343
1265.0000	494.426
1265.5000	494.336
1266.0000	494.415
1266.5000	494.443
1267.0000	494.445
1267.5000	494.499
1268.0000	494.381
1268.5000	494.422
1269.0000	494.427
1269.5000	494.479
1270.0000	494.591
1270.5000	494.573
1271.0000	494.543
1271.5000	494.544
1272.0000	494.526
1272.5000	494.518
1273.0000	494.636
1273.5000	494.639
1274.0000	494.656
1274.5000	494.641
1275.0000	494.609
1275.5000	494.675
1276.0000	494.648
1276.5000	494.711
1277.0000	494.705
1277.5000	494.589
1278.0000	494.663
1278.5000	494.695
1279.0000	494.696
1279.5000	494.753
1280.0000	494.695
1280.5000	494.712
1281.0000	494.791
1281.5000	494.902
1282.0000	494.982
1282.5000	494.978
1283.0000	494.893
1283.5000	494.875
1284.0000	494.814
1284.5000	494.79
1285.0000	494.868
1285.5000	494.796
1286.0000	494.802
1286.5000	494.801
1287.0000	494.814
1287.5000	494.842
1288.0000	494.882
1288.5000	494.916
1289.0000	494.935
1289.5000	494.957
1290.0000	494.997
1290.5000	494.96
1291.0000	494.888
1291.5000	494.874
1292.0000	494.925
1292.5000	494.998
1293.0000	495.048
1293.5000	495.098
1294.0000	495.062
1294.5000	495.031
1295.0000	495.058
1295.5000	495.067
1296.0000	495.092
1296.5000	495.143
1297.0000	495.147
1297.5000	495.1
1298.0000	495.036
1298.5000	494.984
1299.0000	494.967
1299.5000	495.075
1300.0000	495.112
1300.5000	495.16
1301.0000	495.159
1301.5000	495.108
1302.0000	495.15
1302.5000	495.116
1303.0000	495.176
1303.5000	495.157
1304.0000	495.195
1304.5000	495.257
1305.0000	495.266
1305.5000	495.373
1306.0000	495.348
1306.5000	495.348
1307.0000	495.357
1307.5000	495.31
1308.0000	495.336
1308.5000	495.341
1309.0000	495.28
1309.5000	495.307
1310.0000	495.345
1310.5000	495.338
1311.0000	495.463
1311.5000	495.415
1312.0000	495.389
1312.5000	495.411
1313.0000	495.338
1313.5000	495.386
1314.0000	495.386
1314.5000	495.407
1315.0000	495.408
1315.5000	495.399
1316.0000	495.422
1316.5000	495.346
1317.0000	495.356
1317.5000	495.402
1318.0000	495.435
1318.5000	495.551
1319.0000	495.534
1319.5000	495.566
1320.0000	495.615
1320.5000	495.637
1321.0000	495.665
1321.5000	495.657
1322.0000	495.601
1322.5000	495.527
1323.0000	495.621
1323.5000	495.59
1324.0000	495.602
1324.5000	495.629
1325.0000	495.552
1325.5000	495.576
1326.0000	495.593
1326.5000	495.66
1327.0000	495.678
1327.5000	495.684
1328.0000	495.633
1328.5000	495.589
1329.0000	495.526
1329.5000	495.571
1330.0000	495.684
1330.5000	495.731
1331.0000	495.813
1331.5000	495.767
1332.0000	495.717
1332.5000	495.675
1333.0000	495.734
1333.5000	495.808
1334.0000	495.878
1334.5000	495.904
1335.0000	495.876
1335.5000	495.826
1336.0000	495.782
1336.5000	495.915
1337.0000	495.992
1337.5000	496.039
1338.0000	496.058
1338.5000	496.01
1339.0000	495.958
1339.5000	495.901
1340.0000	495.865
1340.5000	495.871
1341.0000	495.798
1341.5000	495.871
1342.0000	495.939
1342.5000	495.965
1343.0000	495.988
1343.5000	496.03
1344.0000	496.029
1344.5000	496.066
1345.0000	496.187
1345.5000	496.224
1346.0000	496.199
1346.5000	496.147
1347.0000	496.17
1347.5000	496.164
1348.0000	496.22
1348.5000	496.233
1349.0000	496.247
1349.5000	496.213
1350.0000	496.284
1350.5000	496.275
1351.0000	496.179
1351.5000	496.184
1352.0000	496.12
1352.5000	496.171
1353.0000	496.195
1353.5000	496.188
1354.0000	496.176
1354.5000	496.109
1355.0000	496.231
1355.5000	496.293
1356.0000	496.317
1356.5000	496.341
1357.0000	496.3
1357.5000	496.255
1358.0000	496.236
1358.5000	496.255
1359.0000	496.249
1359.5000	496.247
1360.0000	496.311
1360.5000	496.373
1361.0000	496.373
1361.5000	496.43
1362.0000	496.382
1362.5000	496.3
1363.0000	496.301
1363.5000	496.256
1364.0000	496.344
1364.5000	496.359
1365.0000	496.327
1365.5000	496.385
1366.0000	496.337
1366.5000	496.355
1367.0000	496.401
1367.5000	496.338
1368.0000	496.345
1368.5000	496.432
1369.0000	496.389
1369.5000	496.544
1370.0000	496.559
1370.5000	496.499
1371.0000	496.55
1371.5000	496.473
1372.0000	496.491
1372.5000	496.564
1373.0000	496.579
1373.5000	496.616
1374.0000	496.62
1374.5000	496.568
1375.0000	496.551
1375.5000	496.546
1376.0000	496.53
1376.5000	496.54
1377.0000	496.569
1377.5000	496.581
1378.0000	496.588
1378.5000	496.621
1379.0000	496.661
1379.5000	496.731
1380.0000	496.694
1380.5000	496.693
1381.0000	496.712
1381.5000	496.575
1382.0000	496.603
1382.5000	496.639
1383.0000	496.595
1383.5000	496.637
1384.0000	496.741
1384.5000	496.684
1385.0000	496.681
1385.5000	496.645
1386.0000	496.585
1386.5000	496.62
1387.0000	496.757
1387.5000	496.735
1388.0000	496.742
1388.5000	496.747
1389.0000	496.614
1389.5000	496.738
1390.0000	496.721
1390.5000	496.755
1391.0000	496.799
1391.5000	496.782
1392.0000	496.857
1392.5000	496.831
1393.0000	496.85
1393.5000	496.791
1394.0000	496.831
1394.5000	496.811
1395.0000	496.847
1395.5000	496.909
1396.0000	496.816
1396.5000	496.894
1397.0000	496.868
1397.5000	496.927
1398.0000	496.957
1398.5000	496.945
1399.0000	497.028
1399.5000	496.976
1400.0000	497.059
1400.5000	496.996
1401.0000	496.916
1401.5000	496.919
1402.0000	496.819
1402.5000	496.917
1403.0000	496.93
1403.5000	496.96
1404.0000	497.04
1404.5000	497.001
1405.0000	497.016
1405.5000	496.976
1406.0000	496.972
1406.5000	496.978
1407.0000	497.012
1407.5000	497.082
1408.0000	497.055
1408.5000	497.061
1409.0000	496.995
1409.5000	496.95
1410.0000	496.886
1410.5000	496.839
1411.0000	496.878
1411.5000	496.912
1412.0000	496.931
1412.5000	496.962
1413.0000	497.003
1413.5000	496.979
1414.0000	496.988
1414.5000	497.031
1415.0000	497.029
1415.5000	497.011
1416.0000	497.045
1416.5000	497.04
1417.0000	497.035
1417.5000	497.116
1418.0000	497.12
1418.5000	497.129
1419.0000	497.122
1419.5000	497.124
1420.0000	497.106
1420.5000	497.134
1421.0000	497.144
1421.5000	497.17
1422.0000	497.153
1422.5000	497.187
1423.0000	497.196
1423.5000	497.139
1424.0000	497.243
1424.5000	497.213
1425.0000	497.232
1425.5000	497.206
1426.0000	497.152
1426.5000	497.178
1427.0000	497.163
1427.5000	497.226
1428.0000	497.237
1428.5000	497.19
1429.0000	497.157
1429.5000	497.117
1430.0000	497.111
1430.5000	497.078
1431.0000	497.196
1431.5000	497.228
1432.0000	497.228
1432.5000	497.249
1433.0000	497.138
1433.5000	497.127
1434.0000	497.106
1434.5000	497.121
1435.0000	497.125
1435.5000	497.063
1436.0000	497.202
1436.5000	497.287
1437.0000	497.343
1437.5000	497.428
1438.0000	497.366
1438.5000	497.351
1439.0000	497.318
1439.5000	497.334
1440.0000	497.367
1440.5000	497.37
1441.0000	497.332
1441.5000	497.35
1442.0000	497.291
1442.5000	497.362
1443.0000	497.414
1443.5000	497.368
1444.0000	497.38
1444.5000	497.284
1445.0000	497.286
1445.5000	497.236
1446.0000	497.207
1446.5000	497.178
1447.0000	497.14
1447.5000	497.305
1448.0000	497.312
1448.5000	497.336
1449.0000	497.351
1449.5000	497.28
1450.0000	497.305
1450.5000	497.283
1451.0000	497.313
1451.5000	497.289
1452.0000	497.272
1452.5000	497.328
1453.0000	497.38
1453.5000	497.37
1454.0000	497.46
1454.5000	497.44
1455.0000	497.37
1455.5000	497.385
1456.0000	497.374
1456.5000	497.377
1457.0000	497.419
1457.5000	497.445
1458.0000	497.4
1458.5000	497.471
1459.0000	497.435
1459.5000	497.38
1460.0000	497.368
1460.5000	497.269
1461.0000	497.332
1461.5000	497.336
1462.0000	497.412
1462.5000	497.384
1463.0000	497.413
1463.5000	497.441
1464.0000	497.4
1464.5000	497.413
1465.0000	497.322
1465.5000	497.312
1466.0000	497.352
1466.5000	497.407
1467.0000	497.389
1467.5000	497.39
1468.0000	497.412
1468.5000	497.406
1469.0000	497.487
1469.5000	497.579
1470.0000	497.522
1470.5000	497.547
1471.0000	497.552
1471.5000	497.451
1472.0000	497.462
1472.5000	497.472
1473.0000	497.462
1473.5000	497.495
1474.0000	497.508
1474.5000	497.481
1475.0000	497.554
1475.5000	497.666
1476.0000	497.705
1476.5000	497.713
1477.0000	497.619
1477.5000	497.549
1478.0000	497.475
1478.5000	497.448
1479.0000	497.416
1479.5000	497.414
1480.0000	497.494
1480.5000	497.522
1481.0000	497.559
1481.5000	497.564
1482.0000	497.464
1482.5000	497.475
1483.0000	497.519
1483.5000	497.548
1484.0000	497.614
1484.5000	497.608
1485.0000	497.614
1485.5000	497.65
1486.0000	497.664
1486.5000	497.597
1487.0000	497.518
1487.5000	497.411
1488.0000	497.414
1488.5000	497.436
1489.0000	497.537
1489.5000	497.633
1490.0000	497.609
1490.5000	497.672
1491.0000	497.656
1491.5000	497.655
1492.0000	497.728
1492.5000	497.72
1493.0000	497.657
1493.5000	497.595
1494.0000	497.555
1494.5000	497.573
1495.0000	497.664
1495.5000	497.67
1496.0000	497.61
1496.5000	497.549
1497.0000	497.453
1497.5000	497.442
1498.0000	497.509
1498.5000	497.535
1499.0000	497.59
1499.5000	497.642
1500.0000	497.64
1500.5000	497.611
1501.0000	497.649
1501.5000	497.618
1502.0000	497.602
1502.5000	497.582
1503.0000	497.611
