TITLE	
DATA TYPE	
ORIGIN	JASCO
OWNER	
DATE	22/08/25
TIME	17:52:31
SPECTROMETER/DATA SYSTEM	
RESOLUTION	
DELTAX	0.5
XUNITS	SEC
YUNITS	INTENSITY
FIRSTX	0.0000
LASTX	2000.0000
NPOINTS	4001
FIRSTY	492.30386
MAXY	494.16226
MINY	-88.20838
XYDATA
0.0000	492.304
0.5000	492.272
1.0000	492.187
1.5000	492.294
2.0000	492.214
2.5000	492.188
3.0000	492.215
3.5000	492.242
4.0000	492.289
4.5000	492.332
5.0000	492.472
5.5000	492.452
6.0000	492.521
6.5000	492.582
7.0000	492.62
7.5000	492.693
8.0000	492.772
8.5000	492.793
9.0000	492.747
9.5000	492.718
10.0000	492.68
10.5000	492.699
11.0000	492.736
11.5000	492.81
12.0000	492.775
12.5000	492.77
13.0000	492.822
13.5000	492.785
14.0000	492.941
14.5000	492.993
15.0000	493.016
15.5000	493.044
16.0000	493.006
16.5000	493.07
17.0000	493.051
17.5000	493.076
18.0000	493.057
18.5000	493.03
19.0000	493.074
19.5000	493.1
20.0000	493.125
20.5000	493.162
21.0000	493.214
21.5000	493.163
22.0000	493.177
22.5000	493.175
23.0000	493.151
23.5000	493.22
24.0000	493.32
24.5000	493.34
25.0000	493.368
25.5000	493.425
26.0000	493.445
26.5000	493.442
27.0000	493.431
27.5000	493.372
28.0000	493.294
28.5000	493.273
29.0000	493.323
29.5000	493.372
30.0000	493.436
30.5000	493.52
31.0000	493.488
31.5000	493.549
32.0000	493.532
32.5000	493.571
33.0000	493.628
33.5000	493.57
34.0000	493.627
34.5000	493.633
35.0000	493.653
35.5000	493.722
36.0000	493.739
36.5000	493.72
37.0000	493.69
37.5000	493.707
38.0000	493.678
38.5000	493.66
39.0000	493.691
39.5000	493.727
40.0000	493.778
40.5000	493.852
41.0000	493.846
41.5000	493.804
42.0000	493.871
42.5000	493.892
43.0000	493.9
43.5000	493.924
44.0000	493.858
44.5000	493.83
45.0000	493.918
45.5000	493.949
46.0000	493.95
46.5000	493.968
47.0000	494.008
47.5000	493.998
48.0000	494.028
48.5000	494.052
49.0000	493.975
49.5000	494.078
50.0000	494.087
50.5000	494.116
51.0000	494.162
51.5000	494.061
52.0000	494.06
52.5000	493.996
53.0000	493.951
53.5000	493.956
54.0000	493.919
54.5000	493.946
55.0000	493.918
55.5000	493.898
56.0000	493.9
56.5000	493.862
57.0000	493.891
57.5000	493.904
58.0000	493.954
58.5000	493.969
59.0000	493.983
59.5000	494.018
60.0000	494.052
60.5000	494.045
61.0000	494.043
61.5000	494.04
62.0000	493.933
62.5000	493.909
63.0000	493.898
63.5000	493.876
64.0000	493.902
64.5000	493.918
65.0000	493.813
65.5000	482.389
66.0000	463.13
66.5000	411.013
67.0000	-88.2084
67.5000	-52.7373
68.0000	-36.5924
68.5000	-32.8492
69.0000	-31.2739
69.5000	-30.2833
70.0000	-29.6564
70.5000	-29.0824
71.0000	-28.6399
71.5000	-28.1565
72.0000	-27.8307
72.5000	-27.6448
73.0000	-27.5213
73.5000	-27.359
74.0000	-27.3697
74.5000	-27.2368
75.0000	-27.0788
75.5000	-26.9499
76.0000	317.744
76.5000	287.184
77.0000	280.469
77.5000	277.354
78.0000	254.483
78.5000	254.965
79.0000	254.941
79.5000	255.098
80.0000	255.276
80.5000	255.509
81.0000	255.722
81.5000	255.851
82.0000	256.089
82.5000	256.337
83.0000	256.573
83.5000	256.849
84.0000	257.13
84.5000	257.375
85.0000	257.65
85.5000	257.907
86.0000	258.158
86.5000	258.462
87.0000	258.688
87.5000	258.967
88.0000	259.219
88.5000	259.454
89.0000	259.743
89.5000	259.949
90.0000	260.195
90.5000	260.44
91.0000	260.687
91.5000	260.946
92.0000	261.165
92.5000	261.404
93.0000	261.65
93.5000	261.947
94.0000	262.203
94.5000	262.478
95.0000	262.736
95.5000	262.987
96.0000	263.246
96.5000	263.483
97.0000	263.727
97.5000	263.962
98.0000	264.228
98.5000	264.465
99.0000	264.73
99.5000	264.986
100.0000	265.272
100.5000	265.53
101.0000	265.776
101.5000	266.071
102.0000	266.321
102.5000	266.569
103.0000	266.846
103.5000	267.083
104.0000	267.303
104.5000	267.53
105.0000	267.781
105.5000	268.018
106.0000	268.267
106.5000	268.572
107.0000	268.832
107.5000	269.109
108.0000	269.413
108.5000	269.667
109.0000	269.919
109.5000	270.154
110.0000	270.389
110.5000	270.666
111.0000	270.921
111.5000	271.182
112.0000	271.466
112.5000	271.729
113.0000	271.994
113.5000	272.271
114.0000	272.501
114.5000	272.75
115.0000	272.989
115.5000	273.261
116.0000	273.566
116.5000	273.807
117.0000	274.069
117.5000	274.309
118.0000	274.521
118.5000	274.762
119.0000	275.023
119.5000	275.279
120.0000	275.552
120.5000	275.811
121.0000	276.106
121.5000	276.338
122.0000	276.576
122.5000	276.894
123.0000	277.133
123.5000	277.396
124.0000	277.652
124.5000	277.886
125.0000	278.133
125.5000	278.401
126.0000	278.675
126.5000	278.931
127.0000	279.204
127.5000	279.449
128.0000	279.718
128.5000	279.97
129.0000	280.21
129.5000	280.474
130.0000	280.728
130.5000	280.979
131.0000	281.26
131.5000	281.572
132.0000	281.808
132.5000	282.108
133.0000	282.345
133.5000	282.564
134.0000	282.853
134.5000	283.055
135.0000	283.31
135.5000	283.595
136.0000	283.844
136.5000	284.091
137.0000	284.396
137.5000	284.61
138.0000	284.835
138.5000	285.142
139.0000	285.379
139.5000	285.653
140.0000	285.947
140.5000	286.176
141.0000	286.401
141.5000	286.64
142.0000	286.833
142.5000	287.109
143.0000	287.332
143.5000	287.62
144.0000	287.902
144.5000	288.138
145.0000	288.41
145.5000	288.632
146.0000	288.876
146.5000	289.137
147.0000	289.391
147.5000	289.604
148.0000	289.856
148.5000	290.082
149.0000	290.311
149.5000	290.567
150.0000	290.826
150.5000	291.056
151.0000	291.319
151.5000	291.554
152.0000	291.78
152.5000	292.058
153.0000	292.294
153.5000	292.503
154.0000	292.753
154.5000	292.959
155.0000	293.18
155.5000	293.472
156.0000	293.692
156.5000	293.915
157.0000	294.168
157.5000	294.389
158.0000	294.611
158.5000	294.862
159.0000	295.09
159.5000	295.328
160.0000	295.575
160.5000	295.817
161.0000	296.094
161.5000	296.353
162.0000	296.596
162.5000	296.824
163.0000	297
163.5000	297.241
164.0000	297.498
164.5000	297.756
165.0000	298.04
165.5000	298.265
166.0000	298.494
166.5000	298.717
167.0000	298.889
167.5000	299.152
168.0000	299.4
168.5000	299.673
169.0000	299.964
169.5000	300.225
170.0000	300.455
170.5000	300.642
171.0000	300.91
171.5000	301.121
172.0000	301.388
172.5000	301.642
173.0000	301.869
173.5000	302.076
174.0000	302.305
174.5000	302.541
175.0000	302.793
175.5000	303.016
176.0000	303.219
176.5000	303.467
177.0000	303.74
177.5000	303.971
178.0000	304.239
178.5000	304.412
179.0000	304.596
179.5000	304.861
180.0000	305.073
180.5000	305.367
181.0000	305.606
181.5000	305.904
182.0000	306.173
182.5000	306.409
183.0000	306.621
183.5000	306.803
184.0000	307
184.5000	307.23
185.0000	307.439
185.5000	307.621
186.0000	307.841
186.5000	308.094
187.0000	308.34
187.5000	308.561
188.0000	308.784
188.5000	308.944
189.0000	309.17
189.5000	309.409
190.0000	309.648
190.5000	309.884
191.0000	310.092
191.5000	310.33
192.0000	310.56
192.5000	310.745
193.0000	310.995
193.5000	311.219
194.0000	311.436
194.5000	311.642
195.0000	311.852
195.5000	312.067
196.0000	312.29
196.5000	312.587
197.0000	312.812
197.5000	313.043
198.0000	313.257
198.5000	313.495
199.0000	313.685
199.5000	313.895
200.0000	314.096
200.5000	314.315
201.0000	314.549
201.5000	314.76
202.0000	314.989
202.5000	315.193
203.0000	315.421
203.5000	315.602
204.0000	315.811
204.5000	316.025
205.0000	316.237
205.5000	316.471
206.0000	316.706
206.5000	316.864
207.0000	317.054
207.5000	317.258
208.0000	317.444
208.5000	317.683
209.0000	317.89
209.5000	318.12
210.0000	318.274
210.5000	318.523
211.0000	318.771
211.5000	318.992
212.0000	319.244
212.5000	319.396
213.0000	319.639
213.5000	319.835
214.0000	320.044
214.5000	320.303
215.0000	320.475
215.5000	320.685
216.0000	320.949
216.5000	321.155
217.0000	321.394
217.5000	321.653
218.0000	321.822
218.5000	322.056
219.0000	322.204
219.5000	322.389
220.0000	322.659
220.5000	322.846
221.0000	323.03
221.5000	323.283
222.0000	323.428
222.5000	323.637
223.0000	323.908
223.5000	324.106
224.0000	324.39
224.5000	324.59
225.0000	324.762
225.5000	324.973
226.0000	325.117
226.5000	325.321
227.0000	325.507
227.5000	325.675
228.0000	325.928
228.5000	326.111
229.0000	326.351
229.5000	326.598
230.0000	326.786
230.5000	327.052
231.0000	327.269
231.5000	327.378
232.0000	327.538
232.5000	327.692
233.0000	327.91
233.5000	328.139
234.0000	328.329
234.5000	328.501
235.0000	328.627
235.5000	328.779
236.0000	329.007
236.5000	329.22
237.0000	329.428
237.5000	329.688
238.0000	329.851
238.5000	330.076
239.0000	330.305
239.5000	330.477
240.0000	330.7
240.5000	330.825
241.0000	330.981
241.5000	331.197
242.0000	331.382
242.5000	331.641
243.0000	331.783
243.5000	332.016
244.0000	332.209
244.5000	332.372
245.0000	332.61
245.5000	332.764
246.0000	332.984
246.5000	333.22
247.0000	333.406
247.5000	333.564
248.0000	333.67
248.5000	333.85
249.0000	334.073
249.5000	334.279
250.0000	334.564
250.5000	334.765
251.0000	334.946
251.5000	335.184
252.0000	335.337
252.5000	335.534
253.0000	335.746
253.5000	335.932
254.0000	336.145
254.5000	336.253
255.0000	336.441
255.5000	336.677
256.0000	336.84
256.5000	337.053
257.0000	337.27
257.5000	337.411
258.0000	337.584
258.5000	337.798
259.0000	337.927
259.5000	338.055
260.0000	338.283
260.5000	338.425
261.0000	338.596
261.5000	338.781
262.0000	338.932
262.5000	339.091
263.0000	339.319
263.5000	339.5
264.0000	339.708
264.5000	339.941
265.0000	340.097
265.5000	340.314
266.0000	340.467
266.5000	340.602
267.0000	340.724
267.5000	340.89
268.0000	341.081
268.5000	341.323
269.0000	341.602
269.5000	341.78
270.0000	341.972
270.5000	342.118
271.0000	342.321
271.5000	342.541
272.0000	342.725
272.5000	342.961
273.0000	343.09
273.5000	343.213
274.0000	343.401
274.5000	343.533
275.0000	343.697
275.5000	343.876
276.0000	344.047
276.5000	344.244
277.0000	344.46
277.5000	344.65
278.0000	344.813
278.5000	345.014
279.0000	345.191
279.5000	345.375
280.0000	345.581
280.5000	345.741
281.0000	345.899
281.5000	346.049
282.0000	346.242
282.5000	346.423
283.0000	346.597
283.5000	346.833
284.0000	346.973
284.5000	347.105
285.0000	347.308
285.5000	347.493
286.0000	347.636
286.5000	347.817
287.0000	347.971
287.5000	348.132
288.0000	348.323
288.5000	348.55
289.0000	348.709
289.5000	348.811
290.0000	348.981
290.5000	349.111
291.0000	349.288
291.5000	349.467
292.0000	349.666
292.5000	349.867
293.0000	350.007
293.5000	350.213
294.0000	350.312
294.5000	350.428
295.0000	350.606
295.5000	350.79
296.0000	350.957
296.5000	351.145
297.0000	351.316
297.5000	351.442
298.0000	351.598
298.5000	351.762
299.0000	351.955
299.5000	352.158
300.0000	352.313
300.5000	352.471
301.0000	352.661
301.5000	352.773
302.0000	352.96
302.5000	353.101
303.0000	353.213
303.5000	353.424
304.0000	353.638
304.5000	353.858
305.0000	354.038
305.5000	354.175
306.0000	354.328
306.5000	354.44
307.0000	354.592
307.5000	354.782
308.0000	354.947
308.5000	355.122
309.0000	355.271
309.5000	355.413
310.0000	355.538
310.5000	355.735
311.0000	355.913
311.5000	356.139
312.0000	356.387
312.5000	356.514
313.0000	356.685
313.5000	356.78
314.0000	356.83
314.5000	357.018
315.0000	357.208
315.5000	357.379
316.0000	357.576
316.5000	357.778
317.0000	357.846
317.5000	357.995
318.0000	358.192
318.5000	358.294
319.0000	358.513
319.5000	358.631
320.0000	358.701
320.5000	358.834
321.0000	358.981
321.5000	359.182
322.0000	359.392
322.5000	359.576
323.0000	359.723
323.5000	359.901
324.0000	360.074
324.5000	360.209
325.0000	360.347
325.5000	360.45
326.0000	360.565
326.5000	360.748
327.0000	360.906
327.5000	361.016
328.0000	361.218
328.5000	361.367
329.0000	361.52
329.5000	361.694
330.0000	361.761
330.5000	361.903
331.0000	362.064
331.5000	362.198
332.0000	362.376
332.5000	362.535
333.0000	362.676
333.5000	362.846
334.0000	363.059
334.5000	363.153
335.0000	363.286
335.5000	363.435
336.0000	363.514
336.5000	363.711
337.0000	363.903
337.5000	364.111
338.0000	364.289
338.5000	364.379
339.0000	364.477
339.5000	364.547
340.0000	364.71
340.5000	364.895
341.0000	365.089
341.5000	365.293
342.0000	365.427
342.5000	365.55
343.0000	365.665
343.5000	365.788
344.0000	365.862
344.5000	366.003
345.0000	366.161
345.5000	366.291
346.0000	366.479
346.5000	366.626
347.0000	366.777
347.5000	366.957
348.0000	367.1
348.5000	367.245
349.0000	367.311
349.5000	367.431
350.0000	367.616
350.5000	367.74
351.0000	367.911
351.5000	368.094
352.0000	368.222
352.5000	368.422
353.0000	368.569
353.5000	368.663
354.0000	368.794
354.5000	368.841
355.0000	369.001
355.5000	369.142
356.0000	369.297
356.5000	369.519
357.0000	369.611
357.5000	369.72
358.0000	369.864
358.5000	369.969
359.0000	370.193
359.5000	370.371
360.0000	370.494
360.5000	370.652
361.0000	370.778
361.5000	370.914
362.0000	371.011
362.5000	371.135
363.0000	371.252
363.5000	371.366
364.0000	371.482
364.5000	371.702
365.0000	371.82
365.5000	371.954
366.0000	372.147
366.5000	372.2
367.0000	372.307
367.5000	372.491
368.0000	372.635
368.5000	372.748
369.0000	372.933
369.5000	373.052
370.0000	373.164
370.5000	373.371
371.0000	373.499
371.5000	373.624
372.0000	373.756
372.5000	373.841
373.0000	373.994
373.5000	374.145
374.0000	374.28
374.5000	374.391
375.0000	374.481
375.5000	374.572
376.0000	374.719
376.5000	374.895
377.0000	375.076
377.5000	375.233
378.0000	375.364
378.5000	375.532
379.0000	375.618
379.5000	375.762
380.0000	375.891
380.5000	375.982
381.0000	376.219
381.5000	376.367
382.0000	376.513
382.5000	376.618
383.0000	376.672
383.5000	376.83
384.0000	377.005
384.5000	377.194
385.0000	377.346
385.5000	377.487
386.0000	377.596
386.5000	377.718
387.0000	377.915
387.5000	378.013
388.0000	378.118
388.5000	378.268
389.0000	378.341
389.5000	378.489
390.0000	378.664
390.5000	378.785
391.0000	378.934
391.5000	378.992
392.0000	379.132
392.5000	379.265
393.0000	379.414
393.5000	379.58
394.0000	379.675
394.5000	379.779
395.0000	379.816
395.5000	379.895
396.0000	380.017
396.5000	380.196
397.0000	380.321
397.5000	380.489
398.0000	380.641
398.5000	380.682
399.0000	380.86
399.5000	381.038
400.0000	381.161
400.5000	381.334
401.0000	381.452
401.5000	381.517
402.0000	381.669
402.5000	381.787
403.0000	381.96
403.5000	382.144
404.0000	382.238
404.5000	382.438
405.0000	382.529
405.5000	382.638
406.0000	382.754
406.5000	382.85
407.0000	383
407.5000	383.126
408.0000	383.233
408.5000	383.358
409.0000	383.478
409.5000	383.624
410.0000	383.855
410.5000	383.94
411.0000	384.044
411.5000	384.139
412.0000	384.177
412.5000	384.341
413.0000	384.493
413.5000	384.613
414.0000	384.716
414.5000	384.773
415.0000	384.809
415.5000	384.94
416.0000	385.104
416.5000	385.262
417.0000	385.441
417.5000	385.546
418.0000	385.666
418.5000	385.793
419.0000	385.934
419.5000	386.042
420.0000	386.115
420.5000	386.172
421.0000	386.244
421.5000	386.321
422.0000	386.443
422.5000	386.661
423.0000	386.811
423.5000	386.979
424.0000	387.091
424.5000	387.188
425.0000	387.309
425.5000	387.427
426.0000	387.553
426.5000	387.646
427.0000	387.746
427.5000	387.894
428.0000	388.065
428.5000	388.164
429.0000	388.246
429.5000	388.347
430.0000	388.398
430.5000	388.529
431.0000	388.737
431.5000	388.871
432.0000	389.052
432.5000	389.196
433.0000	389.286
433.5000	389.399
434.0000	389.468
434.5000	389.528
435.0000	389.633
435.5000	389.756
436.0000	389.893
436.5000	390.052
437.0000	390.185
437.5000	390.294
438.0000	390.38
438.5000	390.509
439.0000	390.576
439.5000	390.718
440.0000	390.839
440.5000	390.985
441.0000	391.101
441.5000	391.167
442.0000	391.271
442.5000	391.315
443.0000	391.475
443.5000	391.601
444.0000	391.71
444.5000	391.769
445.0000	391.835
445.5000	391.975
446.0000	392.119
446.5000	392.234
447.0000	392.378
447.5000	392.418
448.0000	392.495
448.5000	392.654
449.0000	392.824
449.5000	392.961
450.0000	393.123
450.5000	393.267
451.0000	393.256
451.5000	393.363
452.0000	393.41
452.5000	393.476
453.0000	393.583
453.5000	393.68
454.0000	393.805
454.5000	393.897
455.0000	394.056
455.5000	394.181
456.0000	394.25
456.5000	394.455
457.0000	394.524
457.5000	394.609
458.0000	394.755
458.5000	394.768
459.0000	394.878
459.5000	395.097
460.0000	395.183
460.5000	395.351
461.0000	395.433
461.5000	395.445
462.0000	395.573
462.5000	395.657
463.0000	395.741
463.5000	395.845
464.0000	395.987
464.5000	396.077
465.0000	396.226
465.5000	396.322
466.0000	396.426
466.5000	396.478
467.0000	396.574
467.5000	396.669
468.0000	396.698
468.5000	396.847
469.0000	396.993
469.5000	397.119
470.0000	397.322
470.5000	397.395
471.0000	397.471
471.5000	397.58
472.0000	397.611
472.5000	397.749
473.0000	397.849
473.5000	397.889
474.0000	397.986
474.5000	398.093
475.0000	398.172
475.5000	398.349
476.0000	398.521
476.5000	398.637
477.0000	398.796
477.5000	398.909
478.0000	398.98
478.5000	399.072
479.0000	399.181
479.5000	399.216
480.0000	399.351
480.5000	399.505
481.0000	399.626
481.5000	399.729
482.0000	399.761
482.5000	399.854
483.0000	399.9
483.5000	400.024
484.0000	400.152
484.5000	400.176
485.0000	400.302
485.5000	400.464
486.0000	400.593
486.5000	400.698
487.0000	400.813
487.5000	400.852
488.0000	400.934
488.5000	401.081
489.0000	401.137
489.5000	401.178
490.0000	401.263
490.5000	401.355
491.0000	401.514
491.5000	401.67
492.0000	401.819
492.5000	401.965
493.0000	402.02
493.5000	402.101
494.0000	402.179
494.5000	402.201
495.0000	402.259
495.5000	402.354
496.0000	402.415
496.5000	402.491
497.0000	402.646
497.5000	402.798
498.0000	402.885
498.5000	402.974
499.0000	403.052
499.5000	403.129
500.0000	403.254
500.5000	403.379
501.0000	403.482
501.5000	403.65
502.0000	403.752
502.5000	403.819
503.0000	403.856
503.5000	403.857
504.0000	403.92
504.5000	404.054
505.0000	404.21
505.5000	404.381
506.0000	404.444
506.5000	404.6
507.0000	404.687
507.5000	404.692
508.0000	404.858
508.5000	404.928
509.0000	405.024
509.5000	405.115
510.0000	405.176
510.5000	405.285
511.0000	405.352
511.5000	405.53
512.0000	405.65
512.5000	405.691
513.0000	405.853
513.5000	405.92
514.0000	406.032
514.5000	406.147
515.0000	406.193
515.5000	406.25
516.0000	406.212
516.5000	406.334
517.0000	406.442
517.5000	406.57
518.0000	406.763
518.5000	406.831
519.0000	406.924
519.5000	407.013
520.0000	407.114
520.5000	407.2
521.0000	407.319
521.5000	407.406
522.0000	407.469
522.5000	407.512
523.0000	407.599
523.5000	407.686
524.0000	407.766
524.5000	407.909
525.0000	407.994
525.5000	408.146
526.0000	408.256
526.5000	408.313
527.0000	408.377
527.5000	408.394
528.0000	408.466
528.5000	408.531
529.0000	408.618
529.5000	408.723
530.0000	408.85
530.5000	408.983
531.0000	409.056
531.5000	409.186
532.0000	409.276
532.5000	409.417
533.0000	409.484
533.5000	409.53
534.0000	409.67
534.5000	409.735
535.0000	409.869
535.5000	409.962
536.0000	409.943
536.5000	410.001
537.0000	410.071
537.5000	410.2
538.0000	410.327
538.5000	410.375
539.0000	410.54
539.5000	410.65
540.0000	410.742
540.5000	410.852
541.0000	410.884
541.5000	410.896
542.0000	411.024
542.5000	411.168
543.0000	411.297
543.5000	411.397
544.0000	411.496
544.5000	411.637
545.0000	411.702
545.5000	411.785
546.0000	411.813
546.5000	411.829
547.0000	411.925
547.5000	412.08
548.0000	412.265
548.5000	412.347
549.0000	412.502
549.5000	412.521
550.0000	412.544
550.5000	412.642
551.0000	412.673
551.5000	412.767
552.0000	412.883
552.5000	412.938
553.0000	413.037
553.5000	413.169
554.0000	413.211
554.5000	413.356
555.0000	413.422
555.5000	413.453
556.0000	413.586
556.5000	413.655
557.0000	413.713
557.5000	413.837
558.0000	413.944
558.5000	414.017
559.0000	414.153
559.5000	414.272
560.0000	414.298
560.5000	414.358
561.0000	414.435
561.5000	414.484
562.0000	414.538
562.5000	414.668
563.0000	414.74
563.5000	414.82
564.0000	414.979
564.5000	415.103
565.0000	415.197
565.5000	415.277
566.0000	415.365
566.5000	415.4
567.0000	415.467
567.5000	415.592
568.0000	415.62
568.5000	415.702
569.0000	415.796
569.5000	415.863
570.0000	416.016
570.5000	416.113
571.0000	416.149
571.5000	416.27
572.0000	416.307
572.5000	416.407
573.0000	416.558
573.5000	416.59
574.0000	416.705
574.5000	416.808
575.0000	416.87
575.5000	416.982
576.0000	417.078
576.5000	417.144
577.0000	417.257
577.5000	417.316
578.0000	417.311
578.5000	417.367
579.0000	417.43
579.5000	417.509
580.0000	417.608
580.5000	417.725
581.0000	417.749
581.5000	417.834
582.0000	417.94
582.5000	417.999
583.0000	418.055
583.5000	418.102
584.0000	418.206
584.5000	418.265
585.0000	418.398
585.5000	418.443
586.0000	418.502
586.5000	418.541
587.0000	418.597
587.5000	418.725
588.0000	418.777
588.5000	418.895
589.0000	419.007
589.5000	419.049
590.0000	419.088
590.5000	419.174
591.0000	419.243
591.5000	419.334
592.0000	419.495
592.5000	419.583
593.0000	419.663
593.5000	419.771
594.0000	419.794
594.5000	419.854
595.0000	419.917
595.5000	419.999
596.0000	420.171
596.5000	420.223
597.0000	420.372
597.5000	420.466
598.0000	420.445
598.5000	420.533
599.0000	420.611
599.5000	420.663
600.0000	420.759
600.5000	420.865
601.0000	420.906
601.5000	421.025
602.0000	421.129
602.5000	421.16
603.0000	421.229
603.5000	421.277
604.0000	421.326
604.5000	421.482
605.0000	421.545
605.5000	421.614
606.0000	421.763
606.5000	421.788
607.0000	421.894
607.5000	422.003
608.0000	422.031
608.5000	422.121
609.0000	422.171
609.5000	422.274
610.0000	422.335
610.5000	422.425
611.0000	422.558
611.5000	422.594
612.0000	422.704
612.5000	422.765
613.0000	422.777
613.5000	422.891
614.0000	422.935
614.5000	422.991
615.0000	423.1
615.5000	423.242
616.0000	423.397
616.5000	423.465
617.0000	423.481
617.5000	423.494
618.0000	423.533
618.5000	423.557
619.0000	423.704
619.5000	423.706
620.0000	423.713
620.5000	423.922
621.0000	423.955
621.5000	424.059
622.0000	424.139
622.5000	424.22
623.0000	424.367
623.5000	424.467
624.0000	424.494
624.5000	424.526
625.0000	424.572
625.5000	424.656
626.0000	424.833
626.5000	424.915
627.0000	424.994
627.5000	425.068
628.0000	425.147
628.5000	425.197
629.0000	425.262
629.5000	425.31
630.0000	425.415
630.5000	425.458
631.0000	425.474
631.5000	425.592
632.0000	425.636
632.5000	425.734
633.0000	425.851
633.5000	425.877
634.0000	425.928
634.5000	426.002
635.0000	426.107
635.5000	426.176
636.0000	426.253
636.5000	426.326
637.0000	426.362
637.5000	426.425
638.0000	426.502
638.5000	426.614
639.0000	426.755
639.5000	426.838
640.0000	426.94
640.5000	427.022
641.0000	427.007
641.5000	427.087
642.0000	427.204
642.5000	427.249
643.0000	427.382
643.5000	427.419
644.0000	427.37
644.5000	427.448
645.0000	427.473
645.5000	427.59
646.0000	427.688
646.5000	427.754
647.0000	427.77
647.5000	427.819
648.0000	427.922
648.5000	427.991
649.0000	428.097
649.5000	428.124
650.0000	428.181
650.5000	428.278
651.0000	428.344
651.5000	428.455
652.0000	428.493
652.5000	428.574
653.0000	428.68
653.5000	428.758
654.0000	428.833
654.5000	428.892
655.0000	428.94
655.5000	428.947
656.0000	429.091
656.5000	429.092
657.0000	429.238
657.5000	429.403
658.0000	429.318
658.5000	429.419
659.0000	429.447
659.5000	429.583
660.0000	429.755
660.5000	429.883
661.0000	429.976
661.5000	429.981
662.0000	430.032
662.5000	429.983
663.0000	429.997
663.5000	430.052
664.0000	430.176
664.5000	430.283
665.0000	430.347
665.5000	430.403
666.0000	430.446
666.5000	430.577
667.0000	430.685
667.5000	430.718
668.0000	430.786
668.5000	430.824
669.0000	430.911
669.5000	430.982
670.0000	431.034
670.5000	431.108
671.0000	431.178
671.5000	431.345
672.0000	431.445
672.5000	431.539
673.0000	431.571
673.5000	431.62
674.0000	431.583
674.5000	431.601
675.0000	431.714
675.5000	431.707
676.0000	431.827
676.5000	431.843
677.0000	431.873
677.5000	431.965
678.0000	432.029
678.5000	432.169
679.0000	432.175
679.5000	432.207
680.0000	432.289
680.5000	432.418
681.0000	432.503
681.5000	432.636
682.0000	432.751
682.5000	432.751
683.0000	432.822
683.5000	432.893
684.0000	432.896
684.5000	432.942
685.0000	433.007
685.5000	433.058
686.0000	433.162
686.5000	433.223
687.0000	433.334
687.5000	433.341
688.0000	433.333
688.5000	433.437
689.0000	433.471
689.5000	433.522
690.0000	433.593
690.5000	433.644
691.0000	433.653
691.5000	433.71
692.0000	433.837
692.5000	433.906
693.0000	434.064
693.5000	434.15
694.0000	434.199
694.5000	434.255
695.0000	434.298
695.5000	434.377
696.0000	434.375
696.5000	434.411
697.0000	434.483
697.5000	434.52
698.0000	434.62
698.5000	434.663
699.0000	434.736
699.5000	434.824
700.0000	434.875
700.5000	434.988
701.0000	435.015
701.5000	435.098
702.0000	435.195
702.5000	435.174
703.0000	435.301
703.5000	435.369
704.0000	435.502
704.5000	435.673
705.0000	435.67
705.5000	435.76
706.0000	435.782
706.5000	435.826
707.0000	435.84
707.5000	435.819
708.0000	435.922
708.5000	435.986
709.0000	436.076
709.5000	436.218
710.0000	436.207
710.5000	436.289
711.0000	436.389
711.5000	436.413
712.0000	436.479
712.5000	436.514
713.0000	436.584
713.5000	436.647
714.0000	436.714
714.5000	436.779
715.0000	436.836
715.5000	436.893
716.0000	436.95
716.5000	437.014
717.0000	437.042
717.5000	437.003
718.0000	437.029
718.5000	437.062
719.0000	437.124
719.5000	437.3
720.0000	437.379
720.5000	437.415
721.0000	437.489
721.5000	437.556
722.0000	437.618
722.5000	437.694
723.0000	437.791
723.5000	437.856
724.0000	437.888
724.5000	437.971
725.0000	437.993
725.5000	438.012
726.0000	438.066
726.5000	438.109
727.0000	438.104
727.5000	438.175
728.0000	438.231
728.5000	438.262
729.0000	438.37
729.5000	438.401
730.0000	438.499
730.5000	438.586
731.0000	438.669
731.5000	438.688
732.0000	438.698
732.5000	438.786
733.0000	438.789
733.5000	438.898
734.0000	438.991
734.5000	438.991
735.0000	439.099
735.5000	439.207
736.0000	439.271
736.5000	439.318
737.0000	439.302
737.5000	439.257
738.0000	439.319
738.5000	439.432
739.0000	439.49
739.5000	439.588
740.0000	439.66
740.5000	439.65
741.0000	439.764
741.5000	439.853
742.0000	439.841
742.5000	439.93
743.0000	439.981
743.5000	440.011
744.0000	440.135
744.5000	440.251
745.0000	440.271
745.5000	440.328
746.0000	440.339
746.5000	440.315
747.0000	440.415
747.5000	440.43
748.0000	440.462
748.5000	440.534
749.0000	440.562
749.5000	440.647
750.0000	440.756
750.5000	440.865
751.0000	440.893
751.5000	440.885
752.0000	440.905
752.5000	440.91
753.0000	441.001
753.5000	441.102
754.0000	441.14
754.5000	441.221
755.0000	441.276
755.5000	441.355
756.0000	441.426
756.5000	441.534
757.0000	441.565
757.5000	441.607
758.0000	441.65
758.5000	441.604
759.0000	441.718
759.5000	441.825
760.0000	441.926
760.5000	441.993
761.0000	442.031
761.5000	442
762.0000	442.056
762.5000	442.141
763.0000	442.225
763.5000	442.307
764.0000	442.354
764.5000	442.351
765.0000	442.438
765.5000	442.523
766.0000	442.53
766.5000	442.682
767.0000	442.681
767.5000	442.737
768.0000	442.846
768.5000	442.911
769.0000	442.964
769.5000	442.999
770.0000	443.064
770.5000	443.081
771.0000	443.16
771.5000	443.22
772.0000	443.226
772.5000	443.226
773.0000	443.214
773.5000	443.301
774.0000	443.389
774.5000	443.436
775.0000	443.477
775.5000	443.425
776.0000	443.454
776.5000	443.487
777.0000	443.63
777.5000	443.75
778.0000	443.855
778.5000	443.994
779.0000	444.009
779.5000	444.1
780.0000	444.122
780.5000	444.143
781.0000	444.177
781.5000	444.166
782.0000	444.194
782.5000	444.187
783.0000	444.198
783.5000	444.244
784.0000	444.326
784.5000	444.426
785.0000	444.537
785.5000	444.627
786.0000	444.742
786.5000	444.745
787.0000	444.784
787.5000	444.786
788.0000	444.745
788.5000	444.856
789.0000	444.891
789.5000	445.012
790.0000	445.042
790.5000	445.065
791.0000	445.088
791.5000	445.14
792.0000	445.232
792.5000	445.254
793.0000	445.324
793.5000	445.381
794.0000	445.367
794.5000	445.425
795.0000	445.456
795.5000	445.441
796.0000	445.515
796.5000	445.581
797.0000	445.593
797.5000	445.641
798.0000	445.72
798.5000	445.759
799.0000	445.858
799.5000	445.969
800.0000	445.982
800.5000	446.067
801.0000	446.147
801.5000	446.16
802.0000	446.235
802.5000	446.269
803.0000	446.335
803.5000	446.325
804.0000	446.373
804.5000	446.419
805.0000	446.455
805.5000	446.589
806.0000	446.661
806.5000	446.71
807.0000	446.723
807.5000	446.742
808.0000	446.806
808.5000	446.873
809.0000	446.921
809.5000	446.977
810.0000	447.036
810.5000	447.098
811.0000	447.216
811.5000	447.233
812.0000	447.302
812.5000	447.327
813.0000	447.356
813.5000	447.437
814.0000	447.46
814.5000	447.536
815.0000	447.6
815.5000	447.657
816.0000	447.704
816.5000	447.793
817.0000	447.828
817.5000	447.799
818.0000	447.825
818.5000	447.885
819.0000	447.933
819.5000	448.102
820.0000	448.162
820.5000	448.147
821.0000	448.198
821.5000	448.282
822.0000	448.294
822.5000	448.4
823.0000	448.461
823.5000	448.431
824.0000	448.507
824.5000	448.552
825.0000	448.613
825.5000	448.598
826.0000	448.642
826.5000	448.625
827.0000	448.6
827.5000	448.669
828.0000	448.648
828.5000	448.715
829.0000	448.819
829.5000	448.919
830.0000	449.044
830.5000	449.051
831.0000	449.081
831.5000	449.069
832.0000	449.212
832.5000	449.352
833.0000	449.318
833.5000	449.418
834.0000	449.376
834.5000	449.371
835.0000	449.563
835.5000	449.596
836.0000	449.627
836.5000	449.651
837.0000	449.583
837.5000	449.626
838.0000	449.705
838.5000	449.797
839.0000	449.883
839.5000	450.004
840.0000	450.007
840.5000	450.071
841.0000	450.157
841.5000	450.194
842.0000	450.275
842.5000	450.257
843.0000	450.259
843.5000	450.247
844.0000	450.253
844.5000	450.357
845.0000	450.439
845.5000	450.514
846.0000	450.562
846.5000	450.566
847.0000	450.668
847.5000	450.672
848.0000	450.694
848.5000	450.703
849.0000	450.657
849.5000	450.68
850.0000	450.746
850.5000	450.831
851.0000	450.896
851.5000	450.981
852.0000	451.096
852.5000	451.142
853.0000	451.124
853.5000	451.176
854.0000	451.183
854.5000	451.284
855.0000	451.411
855.5000	451.421
856.0000	451.459
856.5000	451.463
857.0000	451.515
857.5000	451.616
858.0000	451.639
858.5000	451.643
859.0000	451.677
859.5000	451.749
860.0000	451.792
860.5000	451.823
861.0000	451.799
861.5000	451.835
862.0000	451.951
862.5000	452.019
863.0000	452.067
863.5000	452.084
864.0000	452.162
864.5000	452.239
865.0000	452.283
865.5000	452.306
866.0000	452.255
866.5000	452.327
867.0000	452.388
867.5000	452.492
868.0000	452.533
868.5000	452.595
869.0000	452.681
869.5000	452.72
870.0000	452.752
870.5000	452.684
871.0000	452.701
871.5000	452.712
872.0000	452.786
872.5000	452.899
873.0000	452.975
873.5000	453.01
874.0000	453.045
874.5000	453.068
875.0000	453.084
875.5000	453.109
876.0000	453.23
876.5000	453.341
877.0000	453.416
877.5000	453.441
878.0000	453.411
878.5000	453.368
879.0000	453.397
879.5000	453.456
880.0000	453.481
880.5000	453.537
881.0000	453.554
881.5000	453.66
882.0000	453.709
882.5000	453.733
883.0000	453.769
883.5000	453.778
884.0000	453.845
884.5000	453.911
885.0000	453.961
885.5000	453.974
886.0000	454.003
886.5000	454.019
887.0000	454.082
887.5000	454.12
888.0000	454.237
888.5000	454.24
889.0000	454.238
889.5000	454.317
890.0000	454.28
890.5000	454.402
891.0000	454.481
891.5000	454.454
892.0000	454.484
892.5000	454.581
893.0000	454.587
893.5000	454.659
894.0000	454.696
894.5000	454.617
895.0000	454.646
895.5000	454.723
896.0000	454.798
896.5000	454.929
897.0000	455.022
897.5000	455.043
898.0000	455.125
898.5000	455.104
899.0000	455.098
899.5000	455.137
900.0000	455.189
900.5000	455.288
901.0000	455.265
901.5000	455.309
902.0000	455.32
902.5000	455.339
903.0000	455.468
903.5000	455.446
904.0000	455.464
904.5000	455.535
905.0000	455.567
905.5000	455.68
906.0000	455.689
906.5000	455.645
907.0000	455.725
907.5000	455.746
908.0000	455.753
908.5000	455.8
909.0000	455.831
909.5000	455.943
910.0000	456.056
910.5000	456.118
911.0000	456.102
911.5000	456.024
912.0000	456.024
912.5000	456.043
913.0000	456.129
913.5000	456.221
914.0000	456.294
914.5000	456.347
915.0000	456.357
915.5000	456.365
916.0000	456.354
916.5000	456.359
917.0000	456.377
917.5000	456.412
918.0000	456.505
918.5000	456.596
919.0000	456.696
919.5000	456.787
920.0000	456.779
920.5000	456.792
921.0000	456.817
921.5000	456.75
922.0000	456.813
922.5000	456.876
923.0000	456.851
923.5000	456.965
924.0000	456.971
924.5000	456.97
925.0000	457.016
925.5000	456.989
926.0000	457.107
926.5000	457.089
927.0000	457.141
927.5000	457.202
928.0000	457.18
928.5000	457.263
929.0000	457.294
929.5000	457.377
930.0000	457.418
930.5000	457.508
931.0000	457.607
931.5000	457.669
932.0000	457.716
932.5000	457.714
933.0000	457.679
933.5000	457.641
934.0000	457.704
934.5000	457.75
935.0000	457.808
935.5000	457.887
936.0000	457.874
936.5000	457.916
937.0000	458.009
937.5000	457.975
938.0000	458.058
938.5000	458.102
939.0000	458.145
939.5000	458.226
940.0000	458.216
940.5000	458.298
941.0000	458.323
941.5000	458.419
942.0000	458.525
942.5000	458.57
943.0000	458.53
943.5000	458.561
944.0000	458.585
944.5000	458.673
945.0000	458.766
945.5000	458.792
946.0000	458.788
946.5000	458.739
947.0000	458.73
947.5000	458.808
948.0000	458.795
948.5000	458.747
949.0000	458.866
949.5000	458.83
950.0000	458.927
950.5000	459.02
951.0000	459.028
951.5000	459.095
952.0000	459.12
952.5000	459.256
953.0000	459.291
953.5000	459.291
954.0000	459.363
954.5000	459.324
955.0000	459.362
955.5000	459.492
956.0000	459.469
956.5000	459.49
957.0000	459.502
957.5000	459.454
958.0000	459.544
958.5000	459.648
959.0000	459.753
959.5000	459.787
960.0000	459.797
960.5000	459.851
961.0000	459.809
961.5000	459.909
962.0000	459.95
962.5000	459.893
963.0000	459.959
963.5000	459.973
964.0000	459.977
964.5000	460.038
965.0000	460.03
965.5000	460.064
966.0000	460.212
966.5000	460.25
967.0000	460.345
967.5000	460.356
968.0000	460.319
968.5000	460.398
969.0000	460.434
969.5000	460.491
970.0000	460.477
970.5000	460.426
971.0000	460.4
971.5000	460.419
972.0000	460.527
972.5000	460.639
973.0000	460.69
973.5000	460.777
974.0000	460.821
974.5000	460.844
975.0000	460.924
975.5000	460.9
976.0000	460.928
976.5000	460.935
977.0000	460.919
977.5000	460.948
978.0000	461.008
978.5000	461.048
979.0000	461.099
979.5000	461.203
980.0000	461.221
980.5000	461.333
981.0000	461.407
981.5000	461.369
982.0000	461.321
982.5000	461.315
983.0000	461.32
983.5000	461.36
984.0000	461.421
984.5000	461.429
985.0000	461.459
985.5000	461.485
986.0000	461.496
986.5000	461.555
987.0000	461.558
987.5000	461.652
988.0000	461.814
988.5000	461.864
989.0000	461.947
989.5000	462.027
990.0000	461.915
990.5000	461.867
991.0000	461.856
991.5000	461.809
992.0000	461.842
992.5000	461.925
993.0000	462.027
993.5000	462.05
994.0000	462.141
994.5000	462.187
995.0000	462.156
995.5000	462.189
996.0000	462.22
996.5000	462.174
997.0000	462.225
997.5000	462.274
998.0000	462.255
998.5000	462.328
999.0000	462.359
999.5000	462.463
1000.0000	462.503
1000.5000	462.529
1001.0000	462.597
1001.5000	462.544
1002.0000	462.563
1002.5000	462.659
1003.0000	462.725
1003.5000	462.809
1004.0000	462.869
1004.5000	462.87
1005.0000	462.811
1005.5000	462.818
1006.0000	462.886
1006.5000	462.919
1007.0000	462.938
1007.5000	462.972
1008.0000	463.003
1008.5000	462.992
1009.0000	463.063
1009.5000	463.016
1010.0000	463.069
1010.5000	463.142
1011.0000	463.218
1011.5000	463.318
1012.0000	463.367
1012.5000	463.399
1013.0000	463.362
1013.5000	463.38
1014.0000	463.418
1014.5000	463.409
1015.0000	463.483
1015.5000	463.551
1016.0000	463.547
1016.5000	463.587
1017.0000	463.567
1017.5000	463.618
1018.0000	463.678
1018.5000	463.733
1019.0000	463.789
1019.5000	463.802
1020.0000	463.807
1020.5000	463.825
1021.0000	463.827
1021.5000	463.893
1022.0000	463.873
1022.5000	463.94
1023.0000	463.998
1023.5000	464.003
1024.0000	464.103
1024.5000	464.098
1025.0000	464.155
1025.5000	464.15
1026.0000	464.142
1026.5000	464.184
1027.0000	464.175
1027.5000	464.243
1028.0000	464.278
1028.5000	464.266
1029.0000	464.353
1029.5000	464.356
1030.0000	464.394
1030.5000	464.451
1031.0000	464.428
1031.5000	464.499
1032.0000	464.57
1032.5000	464.653
1033.0000	464.667
1033.5000	464.632
1034.0000	464.665
1034.5000	464.67
1035.0000	464.785
1035.5000	464.867
1036.0000	464.785
1036.5000	464.749
1037.0000	464.743
1037.5000	464.772
1038.0000	464.909
1038.5000	464.968
1039.0000	464.98
1039.5000	464.988
1040.0000	465.048
1040.5000	465.07
1041.0000	465.141
1041.5000	465.17
1042.0000	465.129
1042.5000	465.224
1043.0000	465.292
1043.5000	465.329
1044.0000	465.313
1044.5000	465.325
1045.0000	465.305
1045.5000	465.328
1046.0000	465.429
1046.5000	465.448
1047.0000	465.412
1047.5000	465.418
1048.0000	465.48
1048.5000	465.475
1049.0000	465.626
1049.5000	465.599
1050.0000	465.578
1050.5000	465.651
1051.0000	465.664
1051.5000	465.766
1052.0000	465.766
1052.5000	465.721
1053.0000	465.708
1053.5000	465.688
1054.0000	465.732
1054.5000	465.793
1055.0000	465.862
1055.5000	466.008
1056.0000	466.028
1056.5000	466.119
1057.0000	466.07
1057.5000	466.057
1058.0000	466.092
1058.5000	466.1
1059.0000	466.197
1059.5000	466.14
1060.0000	466.159
1060.5000	466.154
1061.0000	466.165
1061.5000	466.185
1062.0000	466.234
1062.5000	466.257
1063.0000	466.248
1063.5000	466.323
1064.0000	466.339
1064.5000	466.362
1065.0000	466.361
1065.5000	466.395
1066.0000	466.373
1066.5000	466.412
1067.0000	466.522
1067.5000	466.602
1068.0000	466.681
1068.5000	466.769
1069.0000	466.721
1069.5000	466.638
1070.0000	466.641
1070.5000	466.634
1071.0000	466.713
1071.5000	466.827
1072.0000	466.899
1072.5000	466.928
1073.0000	466.924
1073.5000	466.93
1074.0000	466.928
1074.5000	466.922
1075.0000	466.975
1075.5000	467.022
1076.0000	467.052
1076.5000	467.13
1077.0000	467.089
1077.5000	467.114
1078.0000	467.157
1078.5000	467.091
1079.0000	467.236
1079.5000	467.243
1080.0000	467.254
1080.5000	467.349
1081.0000	467.337
1081.5000	467.373
1082.0000	467.423
1082.5000	467.425
1083.0000	467.42
1083.5000	467.479
1084.0000	467.504
1084.5000	467.555
1085.0000	467.652
1085.5000	467.65
1086.0000	467.626
1086.5000	467.676
1087.0000	467.67
1087.5000	467.695
1088.0000	467.796
1088.5000	467.789
1089.0000	467.879
1089.5000	468.013
1090.0000	467.985
1090.5000	467.988
1091.0000	467.921
1091.5000	467.876
1092.0000	467.929
1092.5000	467.996
1093.0000	468.05
1093.5000	468
1094.0000	468.069
1094.5000	468.087
1095.0000	468.122
1095.5000	468.17
1096.0000	468.203
1096.5000	468.258
1097.0000	468.313
1097.5000	468.361
1098.0000	468.382
1098.5000	468.375
1099.0000	468.374
1099.5000	468.423
1100.0000	468.448
1100.5000	468.494
1101.0000	468.533
1101.5000	468.585
1102.0000	468.595
1102.5000	468.624
1103.0000	468.609
1103.5000	468.635
1104.0000	468.647
1104.5000	468.697
1105.0000	468.814
1105.5000	468.875
1106.0000	468.871
1106.5000	468.892
1107.0000	468.87
1107.5000	468.863
1108.0000	468.927
1108.5000	469.038
1109.0000	469.057
1109.5000	469.009
1110.0000	469.107
1110.5000	469.018
1111.0000	469.083
1111.5000	469.153
1112.0000	469.109
1112.5000	469.218
1113.0000	469.225
1113.5000	469.269
1114.0000	469.327
1114.5000	469.264
1115.0000	469.299
1115.5000	469.281
1116.0000	469.324
1116.5000	469.393
1117.0000	469.429
1117.5000	469.547
1118.0000	469.558
1118.5000	469.594
1119.0000	469.553
1119.5000	469.588
1120.0000	469.578
1120.5000	469.543
1121.0000	469.566
1121.5000	469.524
1122.0000	469.584
1122.5000	469.628
1123.0000	469.714
1123.5000	469.703
1124.0000	469.732
1124.5000	469.842
1125.0000	469.857
1125.5000	469.87
1126.0000	469.893
1126.5000	469.863
1127.0000	469.836
1127.5000	469.937
1128.0000	470.036
1128.5000	470.045
1129.0000	470.092
1129.5000	470.118
1130.0000	470.094
1130.5000	470.091
1131.0000	470.06
1131.5000	470.042
1132.0000	470.078
1132.5000	470.144
1133.0000	470.258
1133.5000	470.287
1134.0000	470.227
1134.5000	470.263
1135.0000	470.279
1135.5000	470.407
1136.0000	470.445
1136.5000	470.471
1137.0000	470.494
1137.5000	470.401
1138.0000	470.474
1138.5000	470.441
1139.0000	470.529
1139.5000	470.668
1140.0000	470.696
1140.5000	470.764
1141.0000	470.749
1141.5000	470.772
1142.0000	470.788
1142.5000	470.77
1143.0000	470.789
1143.5000	470.75
1144.0000	470.788
1144.5000	470.815
1145.0000	470.832
1145.5000	470.882
1146.0000	470.888
1146.5000	471.022
1147.0000	471.091
1147.5000	471.112
1148.0000	471.145
1148.5000	471.128
1149.0000	471.092
1149.5000	471.097
1150.0000	471.106
1150.5000	471.05
1151.0000	471.137
1151.5000	471.199
1152.0000	471.227
1152.5000	471.303
1153.0000	471.352
1153.5000	471.318
1154.0000	471.355
1154.5000	471.427
1155.0000	471.404
1155.5000	471.394
1156.0000	471.426
1156.5000	471.456
1157.0000	471.539
1157.5000	471.662
1158.0000	471.672
1158.5000	471.712
1159.0000	471.648
1159.5000	471.657
1160.0000	471.635
1160.5000	471.57
1161.0000	471.633
1161.5000	471.631
1162.0000	471.658
1162.5000	471.692
1163.0000	471.643
1163.5000	471.696
1164.0000	471.816
1164.5000	471.869
1165.0000	471.884
1165.5000	471.894
1166.0000	471.854
1166.5000	471.803
1167.0000	471.889
1167.5000	471.907
1168.0000	471.912
1168.5000	472.055
1169.0000	472.095
1169.5000	472.06
1170.0000	472.086
1170.5000	472.101
1171.0000	472.063
1171.5000	472.086
1172.0000	472.11
1172.5000	472.072
1173.0000	472.114
1173.5000	472.14
1174.0000	472.149
1174.5000	472.192
1175.0000	472.206
1175.5000	472.364
1176.0000	472.462
1176.5000	472.487
1177.0000	472.541
1177.5000	472.403
1178.0000	472.373
1178.5000	472.28
1179.0000	472.241
1179.5000	472.27
1180.0000	472.296
1180.5000	472.365
1181.0000	472.397
1181.5000	472.442
1182.0000	472.412
1182.5000	472.47
1183.0000	472.564
1183.5000	472.553
1184.0000	472.607
1184.5000	472.68
1185.0000	472.641
1185.5000	472.687
1186.0000	472.75
1186.5000	472.673
1187.0000	472.652
1187.5000	472.664
1188.0000	472.581
1188.5000	472.622
1189.0000	472.69
1189.5000	472.714
1190.0000	472.805
1190.5000	472.75
1191.0000	472.75
1191.5000	472.803
1192.0000	472.773
1192.5000	472.91
1193.0000	472.954
1193.5000	472.976
1194.0000	473.03
1194.5000	473.025
1195.0000	473.077
1195.5000	473.054
1196.0000	473.129
1196.5000	473.084
1197.0000	473.07
1197.5000	473.1
1198.0000	473.063
1198.5000	473.133
1199.0000	473.095
1199.5000	473.105
1200.0000	473.122
1200.5000	473.097
1201.0000	473.126
1201.5000	473.123
1202.0000	473.193
1202.5000	473.272
1203.0000	473.311
1203.5000	473.405
1204.0000	473.371
1204.5000	473.344
1205.0000	473.351
1205.5000	473.311
1206.0000	473.343
1206.5000	473.442
1207.0000	473.53
1207.5000	473.546
1208.0000	473.563
1208.5000	473.56
1209.0000	473.605
1209.5000	473.702
1210.0000	473.635
1210.5000	473.617
1211.0000	473.562
1211.5000	473.539
1212.0000	473.694
1212.5000	473.696
1213.0000	473.683
1213.5000	473.7
1214.0000	473.681
1214.5000	473.749
1215.0000	473.834
1215.5000	473.825
1216.0000	473.855
1216.5000	473.798
1217.0000	473.767
1217.5000	473.748
1218.0000	473.746
1218.5000	473.82
1219.0000	473.893
1219.5000	473.942
1220.0000	473.878
1220.5000	473.859
1221.0000	473.854
1221.5000	473.853
1222.0000	473.975
1222.5000	474.045
1223.0000	474.04
1223.5000	474.073
1224.0000	474.005
1224.5000	474.031
1225.0000	474.052
1225.5000	474.064
1226.0000	474.092
1226.5000	474.006
1227.0000	473.977
1227.5000	473.933
1228.0000	473.942
1228.5000	473.992
1229.0000	474.02
1229.5000	474.116
1230.0000	474.178
1230.5000	474.232
1231.0000	474.236
1231.5000	474.262
1232.0000	474.245
1232.5000	474.249
1233.0000	474.258
1233.5000	474.171
1234.0000	474.191
1234.5000	474.246
1235.0000	474.336
1235.5000	474.398
1236.0000	474.423
1236.5000	474.435
1237.0000	474.419
1237.5000	474.462
1238.0000	474.51
1238.5000	474.517
1239.0000	474.562
1239.5000	474.545
1240.0000	474.571
1240.5000	474.556
1241.0000	474.518
1241.5000	474.627
1242.0000	474.648
1242.5000	474.634
1243.0000	474.646
1243.5000	474.675
1244.0000	474.648
1244.5000	474.715
1245.0000	474.754
1245.5000	474.607
1246.0000	474.578
1246.5000	474.532
1247.0000	474.533
1247.5000	474.696
1248.0000	474.777
1248.5000	474.871
1249.0000	474.852
1249.5000	474.83
1250.0000	474.827
1250.5000	474.828
1251.0000	474.872
1251.5000	474.848
1252.0000	474.831
1252.5000	474.815
1253.0000	474.81
1253.5000	474.862
1254.0000	474.914
1254.5000	474.928
1255.0000	475.036
1255.5000	475.02
1256.0000	475.039
1256.5000	475.095
1257.0000	475.032
1257.5000	475.059
1258.0000	475.039
1258.5000	475.051
1259.0000	475.075
1259.5000	475.073
1260.0000	475.053
1260.5000	475.079
1261.0000	474.997
1261.5000	474.971
1262.0000	475.059
1262.5000	475.091
1263.0000	475.193
1263.5000	475.317
1264.0000	475.339
1264.5000	475.275
1265.0000	475.293
1265.5000	475.262
1266.0000	475.265
1266.5000	475.262
1267.0000	475.259
1267.5000	475.313
1268.0000	475.367
1268.5000	475.442
1269.0000	475.504
1269.5000	475.488
1270.0000	475.453
1270.5000	475.365
1271.0000	475.415
1271.5000	475.434
1272.0000	475.393
1272.5000	475.456
1273.0000	475.41
1273.5000	475.364
1274.0000	475.389
1274.5000	475.456
1275.0000	475.508
1275.5000	475.575
1276.0000	475.594
1276.5000	475.64
1277.0000	475.688
1277.5000	475.637
1278.0000	475.691
1278.5000	475.705
1279.0000	475.648
1279.5000	475.709
1280.0000	475.672
1280.5000	475.578
1281.0000	475.521
1281.5000	475.518
1282.0000	475.536
1282.5000	475.557
1283.0000	475.636
1283.5000	475.663
1284.0000	475.718
1284.5000	475.787
1285.0000	475.867
1285.5000	475.889
1286.0000	475.89
1286.5000	475.933
1287.0000	475.935
1287.5000	476.009
1288.0000	476.098
1288.5000	476.02
1289.0000	475.989
1289.5000	475.97
1290.0000	475.912
1290.5000	476.023
1291.0000	476.053
1291.5000	476.041
1292.0000	476.083
1292.5000	476.068
1293.0000	475.989
1293.5000	475.949
1294.0000	475.956
1294.5000	475.932
1295.0000	476.023
1295.5000	476.117
1296.0000	476.127
1296.5000	476.165
1297.0000	476.115
1297.5000	476.106
1298.0000	476.091
1298.5000	476.095
1299.0000	476.242
1299.5000	476.216
1300.0000	476.24
1300.5000	476.328
1301.0000	476.22
1301.5000	476.27
1302.0000	476.27
1302.5000	476.24
1303.0000	476.356
1303.5000	476.389
1304.0000	476.427
1304.5000	476.413
1305.0000	476.308
1305.5000	476.333
1306.0000	476.344
1306.5000	476.369
1307.0000	476.431
1307.5000	476.381
1308.0000	476.405
1308.5000	476.391
1309.0000	476.369
1309.5000	476.388
1310.0000	476.348
1310.5000	476.358
1311.0000	476.423
1311.5000	476.491
1312.0000	476.506
1312.5000	476.536
1313.0000	476.51
1313.5000	476.495
1314.0000	476.538
1314.5000	476.493
1315.0000	476.523
1315.5000	476.486
1316.0000	476.511
1316.5000	476.575
1317.0000	476.558
1317.5000	476.671
1318.0000	476.681
1318.5000	476.684
1319.0000	476.736
1319.5000	476.706
1320.0000	476.781
1320.5000	476.782
1321.0000	476.762
1321.5000	476.686
1322.0000	476.615
1322.5000	476.635
1323.0000	476.68
1323.5000	476.768
1324.0000	476.817
1324.5000	476.886
1325.0000	476.813
1325.5000	476.813
1326.0000	476.804
1326.5000	476.757
1327.0000	476.843
1327.5000	476.822
1328.0000	476.8
1328.5000	476.825
1329.0000	476.884
1329.5000	476.905
1330.0000	476.898
1330.5000	476.892
1331.0000	476.794
1331.5000	476.832
1332.0000	476.86
1332.5000	476.902
1333.0000	476.903
1333.5000	476.926
1334.0000	476.979
1334.5000	476.942
1335.0000	477
1335.5000	477.016
1336.0000	476.995
1336.5000	476.947
1337.0000	477.023
1337.5000	477.006
1338.0000	476.927
1338.5000	476.967
1339.0000	476.868
1339.5000	476.792
1340.0000	476.901
1340.5000	476.924
1341.0000	476.989
1341.5000	477.046
1342.0000	477.01
1342.5000	476.969
1343.0000	476.932
1343.5000	476.912
1344.0000	476.957
1344.5000	477
1345.0000	477.015
1345.5000	477.056
1346.0000	477.016
1346.5000	476.993
1347.0000	476.967
1347.5000	476.929
1348.0000	476.99
1348.5000	476.979
1349.0000	476.957
1349.5000	476.99
1350.0000	476.916
1350.5000	477.009
1351.0000	477.032
1351.5000	477.04
1352.0000	477.114
1352.5000	477.156
1353.0000	477.229
1353.5000	477.268
1354.0000	477.254
1354.5000	477.21
1355.0000	477.2
1355.5000	477.141
1356.0000	477.181
1356.5000	477.201
1357.0000	477.176
1357.5000	477.245
1358.0000	477.247
1358.5000	477.234
1359.0000	477.329
1359.5000	477.301
1360.0000	477.25
1360.5000	477.241
1361.0000	477.205
1361.5000	477.21
1362.0000	477.245
1362.5000	477.3
1363.0000	477.317
1363.5000	477.404
1364.0000	477.369
1364.5000	477.324
1365.0000	477.285
1365.5000	477.216
1366.0000	477.329
1366.5000	477.373
1367.0000	477.389
1367.5000	477.405
1368.0000	477.327
1368.5000	477.305
1369.0000	477.331
1369.5000	477.307
1370.0000	477.336
1370.5000	477.313
1371.0000	477.331
1371.5000	477.396
1372.0000	477.475
1372.5000	477.532
1373.0000	477.543
1373.5000	477.538
1374.0000	477.48
1374.5000	477.445
1375.0000	477.394
1375.5000	477.397
1376.0000	477.299
1376.5000	477.228
1377.0000	477.318
1377.5000	477.391
1378.0000	477.464
1378.5000	477.638
1379.0000	477.62
1379.5000	477.535
1380.0000	477.586
1380.5000	477.567
1381.0000	477.534
1381.5000	477.633
1382.0000	477.646
1382.5000	477.622
1383.0000	477.636
1383.5000	477.585
1384.0000	477.528
1384.5000	477.502
1385.0000	477.478
1385.5000	477.374
1386.0000	477.427
1386.5000	477.495
1387.0000	477.519
1387.5000	477.62
1388.0000	477.631
1388.5000	477.603
1389.0000	477.625
1389.5000	477.633
1390.0000	477.562
1390.5000	477.505
1391.0000	477.465
1391.5000	477.456
1392.0000	477.551
1392.5000	477.525
1393.0000	477.538
1393.5000	477.582
1394.0000	477.597
1394.5000	477.75
1395.0000	477.843
1395.5000	477.801
1396.0000	477.753
1396.5000	477.695
1397.0000	477.646
1397.5000	477.696
1398.0000	477.676
1398.5000	477.74
1399.0000	477.821
1399.5000	477.826
1400.0000	477.872
1400.5000	477.901
1401.0000	477.816
1401.5000	477.789
1402.0000	477.807
1402.5000	477.743
1403.0000	477.738
1403.5000	477.742
1404.0000	477.741
1404.5000	477.747
1405.0000	477.769
1405.5000	477.813
1406.0000	477.851
1406.5000	477.88
1407.0000	477.88
1407.5000	477.89
1408.0000	477.873
1408.5000	477.89
1409.0000	477.935
1409.5000	477.878
1410.0000	477.888
1410.5000	477.822
1411.0000	477.887
1411.5000	477.86
1412.0000	477.801
1412.5000	477.779
1413.0000	477.701
1413.5000	477.799
1414.0000	477.803
1414.5000	477.816
1415.0000	477.779
1415.5000	477.769
1416.0000	477.862
1416.5000	477.978
1417.0000	477.987
1417.5000	477.957
1418.0000	477.886
1418.5000	477.858
1419.0000	477.925
1419.5000	477.995
1420.0000	477.992
1420.5000	477.957
1421.0000	477.943
1421.5000	477.896
1422.0000	477.949
1422.5000	477.94
1423.0000	477.953
1423.5000	477.996
1424.0000	478.021
1424.5000	478.064
1425.0000	478.037
1425.5000	478.004
1426.0000	477.969
1426.5000	477.901
1427.0000	477.908
1427.5000	477.873
1428.0000	477.851
1428.5000	477.934
1429.0000	477.954
1429.5000	477.907
1430.0000	477.941
1430.5000	477.908
1431.0000	477.955
1431.5000	478.025
1432.0000	478.022
1432.5000	478.009
1433.0000	477.956
1433.5000	478.001
1434.0000	478.025
1434.5000	478.08
1435.0000	478.089
1435.5000	478.053
1436.0000	478.079
1436.5000	478.102
1437.0000	478.153
1437.5000	478.195
1438.0000	478.152
1438.5000	478.106
1439.0000	478.097
1439.5000	478.092
1440.0000	478.133
1440.5000	478.231
1441.0000	478.199
1441.5000	478.183
1442.0000	478.13
1442.5000	478.115
1443.0000	478.156
1443.5000	478.198
1444.0000	478.18
1444.5000	478.174
1445.0000	478.166
1445.5000	478.163
1446.0000	478.245
1446.5000	478.278
1447.0000	478.303
1447.5000	478.326
1448.0000	478.277
1448.5000	478.305
1449.0000	478.248
1449.5000	478.212
1450.0000	478.283
1450.5000	478.215
1451.0000	478.302
1451.5000	478.243
1452.0000	478.218
1452.5000	478.15
1453.0000	478.15
1453.5000	478.261
1454.0000	478.254
1454.5000	478.302
1455.0000	478.273
1455.5000	478.3
1456.0000	478.333
1456.5000	478.465
1457.0000	478.461
1457.5000	478.447
1458.0000	478.48
1458.5000	478.353
1459.0000	478.382
1459.5000	478.394
1460.0000	478.35
1460.5000	478.358
1461.0000	478.399
1461.5000	478.381
1462.0000	478.333
1462.5000	478.374
1463.0000	478.352
1463.5000	478.384
1464.0000	478.559
1464.5000	478.534
1465.0000	478.524
1465.5000	478.535
1466.0000	478.433
1466.5000	478.484
1467.0000	478.586
1467.5000	478.539
1468.0000	478.599
1468.5000	478.625
1469.0000	478.552
1469.5000	478.594
1470.0000	478.573
1470.5000	478.547
1471.0000	478.523
1471.5000	478.506
1472.0000	478.51
1472.5000	478.518
1473.0000	478.6
1473.5000	478.637
1474.0000	478.599
1474.5000	478.585
1475.0000	478.565
1475.5000	478.536
1476.0000	478.569
1476.5000	478.557
1477.0000	478.493
1477.5000	478.515
1478.0000	478.558
1478.5000	478.526
1479.0000	478.563
1479.5000	478.571
1480.0000	478.604
1480.5000	478.697
1481.0000	478.732
1481.5000	478.673
1482.0000	478.663
1482.5000	478.634
1483.0000	478.627
1483.5000	478.754
1484.0000	478.743
1484.5000	478.786
1485.0000	478.81
1485.5000	478.721
1486.0000	478.776
1486.5000	478.753
1487.0000	478.75
1487.5000	478.72
1488.0000	478.709
1488.5000	478.721
1489.0000	478.687
1489.5000	478.771
1490.0000	478.705
1490.5000	478.702
1491.0000	478.743
1491.5000	478.689
1492.0000	478.748
1492.5000	478.76
1493.0000	478.744
1493.5000	478.825
1494.0000	478.841
1494.5000	478.871
1495.0000	478.895
1495.5000	478.819
1496.0000	478.797
1496.5000	478.747
1497.0000	478.765
1497.5000	478.765
1498.0000	478.679
1498.5000	478.714
1499.0000	478.644
1499.5000	478.622
1500.0000	478.689
1500.5000	478.696
1501.0000	478.702
1501.5000	478.792
1502.0000	478.764
1502.5000	478.792
1503.0000	478.788
1503.5000	478.763
1504.0000	478.798
1504.5000	478.754
1505.0000	478.796
1505.5000	478.849
1506.0000	478.789
1506.5000	478.754
1507.0000	478.81
1507.5000	478.802
1508.0000	478.803
1508.5000	478.805
1509.0000	478.729
1509.5000	478.71
1510.0000	478.753
1510.5000	478.828
1511.0000	478.82
1511.5000	478.837
1512.0000	478.881
1512.5000	478.901
1513.0000	478.851
1513.5000	478.822
1514.0000	478.82
1514.5000	478.772
1515.0000	478.853
1515.5000	478.823
1516.0000	478.796
1516.5000	478.761
1517.0000	478.815
1517.5000	478.816
1518.0000	478.872
1518.5000	478.947
1519.0000	478.961
1519.5000	478.925
1520.0000	478.832
1520.5000	478.76
1521.0000	478.715
1521.5000	478.829
1522.0000	478.901
1522.5000	478.97
1523.0000	478.954
1523.5000	478.92
1524.0000	478.841
1524.5000	478.743
1525.0000	478.651
1525.5000	478.673
1526.0000	478.756
1526.5000	478.816
1527.0000	478.915
1527.5000	478.921
1528.0000	478.87
1528.5000	478.889
1529.0000	478.893
1529.5000	478.836
1530.0000	478.852
1530.5000	478.843
1531.0000	478.862
1531.5000	478.852
1532.0000	478.89
1532.5000	478.873
1533.0000	478.796
1533.5000	478.83
1534.0000	478.81
1534.5000	478.831
1535.0000	478.844
1535.5000	478.805
1536.0000	478.781
1536.5000	478.703
1537.0000	478.752
1537.5000	478.823
1538.0000	478.757
1538.5000	478.828
1539.0000	478.823
1539.5000	478.797
1540.0000	478.866
1540.5000	478.831
1541.0000	478.809
1541.5000	478.826
1542.0000	478.825
1542.5000	478.807
1543.0000	478.772
1543.5000	478.761
1544.0000	478.759
1544.5000	478.811
1545.0000	478.83
1545.5000	478.779
1546.0000	478.775
1546.5000	478.701
1547.0000	478.692
1547.5000	478.755
1548.0000	478.771
1548.5000	478.789
1549.0000	478.814
1549.5000	478.762
1550.0000	478.721
1550.5000	478.823
1551.0000	478.809
1551.5000	478.895
1552.0000	478.956
1552.5000	478.86
1553.0000	478.851
1553.5000	478.789
1554.0000	478.74
1554.5000	478.753
1555.0000	478.759
1555.5000	478.78
1556.0000	478.823
1556.5000	478.873
1557.0000	478.831
1557.5000	478.831
1558.0000	478.779
1558.5000	478.731
1559.0000	478.863
1559.5000	478.81
1560.0000	478.788
1560.5000	478.847
1561.0000	478.753
1561.5000	478.702
1562.0000	478.756
1562.5000	478.757
1563.0000	478.815
1563.5000	478.895
1564.0000	478.89
1564.5000	478.827
1565.0000	478.766
1565.5000	478.712
1566.0000	478.696
1566.5000	478.774
1567.0000	478.795
1567.5000	478.792
1568.0000	478.855
1568.5000	478.713
1569.0000	478.739
1569.5000	478.851
1570.0000	478.813
1570.5000	478.851
1571.0000	478.91
1571.5000	478.768
1572.0000	478.768
1572.5000	478.786
1573.0000	478.706
1573.5000	478.776
1574.0000	478.822
1574.5000	478.828
1575.0000	478.784
1575.5000	478.788
1576.0000	478.769
1576.5000	478.806
1577.0000	478.822
1577.5000	478.8
1578.0000	478.778
1578.5000	478.767
1579.0000	478.785
1579.5000	478.843
1580.0000	478.825
1580.5000	478.777
1581.0000	478.764
1581.5000	478.719
1582.0000	478.713
1582.5000	478.723
1583.0000	478.754
1583.5000	478.716
1584.0000	478.699
1584.5000	478.728
1585.0000	478.72
1585.5000	478.735
1586.0000	478.805
1586.5000	478.841
1587.0000	478.79
1587.5000	478.766
1588.0000	478.769
1588.5000	478.727
1589.0000	478.706
1589.5000	478.738
1590.0000	478.688
1590.5000	478.705
1591.0000	478.751
1591.5000	478.825
1592.0000	478.831
1592.5000	478.788
1593.0000	478.747
1593.5000	478.675
1594.0000	478.687
1594.5000	478.713
1595.0000	478.74
1595.5000	478.7
1596.0000	478.664
1596.5000	478.634
1597.0000	478.633
1597.5000	478.651
1598.0000	478.627
1598.5000	478.638
1599.0000	478.594
1599.5000	478.61
1600.0000	478.602
1600.5000	478.509
1601.0000	478.494
1601.5000	478.478
1602.0000	478.433
1602.5000	478.61
1603.0000	478.689
1603.5000	478.717
1604.0000	478.824
1604.5000	478.709
1605.0000	478.662
1605.5000	478.614
1606.0000	478.568
1606.5000	478.592
1607.0000	478.642
1607.5000	478.652
1608.0000	478.655
1608.5000	478.664
1609.0000	478.622
1609.5000	478.623
1610.0000	478.629
1610.5000	478.607
1611.0000	478.613
1611.5000	478.613
1612.0000	478.587
1612.5000	478.572
1613.0000	478.554
1613.5000	478.49
1614.0000	478.468
1614.5000	478.462
1615.0000	478.49
1615.5000	478.583
1616.0000	478.607
1616.5000	478.717
1617.0000	478.674
1617.5000	478.59
1618.0000	478.609
1618.5000	478.54
1619.0000	478.534
1619.5000	478.576
1620.0000	478.555
1620.5000	478.55
1621.0000	478.625
1621.5000	478.639
1622.0000	478.667
1622.5000	478.613
1623.0000	478.616
1623.5000	478.672
1624.0000	478.7
1624.5000	478.729
1625.0000	478.681
1625.5000	478.593
1626.0000	478.601
1626.5000	478.616
1627.0000	478.652
1627.5000	478.707
1628.0000	478.667
1628.5000	478.66
1629.0000	478.589
1629.5000	478.558
1630.0000	478.534
1630.5000	478.525
1631.0000	478.56
1631.5000	478.59
1632.0000	478.651
1632.5000	478.699
1633.0000	478.72
1633.5000	478.731
1634.0000	478.624
1634.5000	478.576
1635.0000	478.555
1635.5000	478.494
1636.0000	478.548
1636.5000	478.546
1637.0000	478.572
1637.5000	478.641
1638.0000	478.657
1638.5000	478.683
1639.0000	478.636
1639.5000	478.582
1640.0000	478.624
1640.5000	478.584
1641.0000	478.612
1641.5000	478.642
1642.0000	478.596
1642.5000	478.596
1643.0000	478.597
1643.5000	478.589
1644.0000	478.62
1644.5000	478.648
1645.0000	478.628
1645.5000	478.674
1646.0000	478.614
1646.5000	478.602
1647.0000	478.576
1647.5000	478.497
1648.0000	478.543
1648.5000	478.456
1649.0000	478.567
1649.5000	478.527
1650.0000	478.448
1650.5000	478.566
1651.0000	478.464
1651.5000	478.524
1652.0000	478.569
1652.5000	478.574
1653.0000	478.523
1653.5000	478.543
1654.0000	478.514
1654.5000	478.455
1655.0000	478.507
1655.5000	478.42
1656.0000	478.403
1656.5000	478.393
1657.0000	478.465
1657.5000	478.505
1658.0000	478.51
1658.5000	478.544
1659.0000	478.539
1659.5000	478.576
1660.0000	478.636
1660.5000	478.638
1661.0000	478.567
1661.5000	478.594
1662.0000	478.526
1662.5000	478.485
1663.0000	478.497
1663.5000	478.446
1664.0000	478.496
1664.5000	478.475
1665.0000	478.456
1665.5000	478.402
1666.0000	478.423
1666.5000	478.471
1667.0000	478.414
1667.5000	478.459
1668.0000	478.401
1668.5000	478.35
1669.0000	478.466
1669.5000	478.41
1670.0000	478.447
1670.5000	478.492
1671.0000	478.441
1671.5000	478.55
1672.0000	478.546
1672.5000	478.549
1673.0000	478.582
1673.5000	478.569
1674.0000	478.549
1674.5000	478.549
1675.0000	478.559
1675.5000	478.502
1676.0000	478.466
1676.5000	478.428
1677.0000	478.364
1677.5000	478.327
1678.0000	478.355
1678.5000	478.399
1679.0000	478.453
1679.5000	478.461
1680.0000	478.423
1680.5000	478.396
1681.0000	478.368
1681.5000	478.415
1682.0000	478.445
1682.5000	478.429
1683.0000	478.42
1683.5000	478.385
1684.0000	478.418
1684.5000	478.384
1685.0000	478.364
1685.5000	478.373
1686.0000	478.323
1686.5000	478.41
1687.0000	478.368
1687.5000	478.42
1688.0000	478.433
1688.5000	478.394
1689.0000	478.468
1689.5000	478.474
1690.0000	478.497
1690.5000	478.477
1691.0000	478.475
1691.5000	478.401
1692.0000	478.331
1692.5000	478.33
1693.0000	478.233
1693.5000	478.211
1694.0000	478.256
1694.5000	478.27
1695.0000	478.378
1695.5000	478.337
1696.0000	478.297
1696.5000	478.254
1697.0000	478.178
1697.5000	478.259
1698.0000	478.35
1698.5000	478.343
1699.0000	478.392
1699.5000	478.344
1700.0000	478.248
1700.5000	478.238
1701.0000	478.253
1701.5000	478.252
1702.0000	478.252
1702.5000	478.321
1703.0000	478.201
1703.5000	478.298
1704.0000	478.302
1704.5000	478.242
1705.0000	478.253
1705.5000	478.218
1706.0000	478.237
1706.5000	478.264
1707.0000	478.388
1707.5000	478.343
1708.0000	478.27
1708.5000	478.224
1709.0000	478.205
1709.5000	478.189
1710.0000	478.285
1710.5000	478.287
1711.0000	478.272
1711.5000	478.242
1712.0000	478.245
1712.5000	478.299
1713.0000	478.294
1713.5000	478.339
1714.0000	478.207
1714.5000	478.175
1715.0000	478.143
1715.5000	478.16
1716.0000	478.272
1716.5000	478.259
1717.0000	478.218
1717.5000	478.222
1718.0000	478.219
1718.5000	478.245
1719.0000	478.239
1719.5000	478.261
1720.0000	478.25
1720.5000	478.314
1721.0000	478.351
1721.5000	478.274
1722.0000	478.193
1722.5000	478.103
1723.0000	478.183
1723.5000	478.221
1724.0000	478.268
1724.5000	478.29
1725.0000	478.227
1725.5000	478.209
1726.0000	478.221
1726.5000	478.258
1727.0000	478.266
1727.5000	478.218
1728.0000	478.233
1728.5000	478.216
1729.0000	478.243
1729.5000	478.336
1730.0000	478.371
1730.5000	478.374
1731.0000	478.281
1731.5000	478.233
1732.0000	478.186
1732.5000	478.176
1733.0000	478.216
1733.5000	478.173
1734.0000	478.157
1734.5000	478.162
1735.0000	478.209
1735.5000	478.29
1736.0000	478.313
1736.5000	478.332
1737.0000	478.289
1737.5000	478.247
1738.0000	478.191
1738.5000	478.133
1739.0000	478.149
1739.5000	478.135
1740.0000	478.193
1740.5000	478.143
1741.0000	478.116
1741.5000	478.141
1742.0000	478.2
1742.5000	478.338
1743.0000	478.316
1743.5000	478.34
1744.0000	478.359
1744.5000	478.276
1745.0000	478.346
1745.5000	478.337
1746.0000	478.231
1746.5000	478.276
1747.0000	478.295
1747.5000	478.307
1748.0000	478.396
1748.5000	478.359
1749.0000	478.336
1749.5000	478.32
1750.0000	478.303
1750.5000	478.318
1751.0000	478.344
1751.5000	478.355
1752.0000	478.366
1752.5000	478.372
1753.0000	478.299
1753.5000	478.269
1754.0000	478.191
1754.5000	478.206
1755.0000	478.238
1755.5000	478.309
1756.0000	478.309
1756.5000	478.278
1757.0000	478.28
1757.5000	478.2
1758.0000	478.23
1758.5000	478.258
1759.0000	478.345
1759.5000	478.338
1760.0000	478.292
1760.5000	478.297
1761.0000	478.223
1761.5000	478.262
1762.0000	478.335
1762.5000	478.39
1763.0000	478.407
1763.5000	478.463
1764.0000	478.492
1764.5000	478.447
1765.0000	478.394
1765.5000	478.383
1766.0000	478.335
1766.5000	478.329
1767.0000	478.39
1767.5000	478.358
1768.0000	478.351
1768.5000	478.332
1769.0000	478.291
1769.5000	478.216
1770.0000	478.208
1770.5000	478.259
1771.0000	478.276
1771.5000	478.32
1772.0000	478.265
1772.5000	478.154
1773.0000	478.084
1773.5000	478.147
1774.0000	478.216
1774.5000	478.283
1775.0000	478.266
1775.5000	478.239
1776.0000	478.227
1776.5000	478.25
1777.0000	478.302
1777.5000	478.261
1778.0000	478.199
1778.5000	478.229
1779.0000	478.188
1779.5000	478.196
1780.0000	478.296
1780.5000	478.229
1781.0000	478.249
1781.5000	478.237
1782.0000	478.158
1782.5000	478.115
1783.0000	478.173
1783.5000	478.221
1784.0000	478.209
1784.5000	478.187
1785.0000	478.204
1785.5000	478.146
1786.0000	478.217
1786.5000	478.29
1787.0000	478.203
1787.5000	478.165
1788.0000	478.105
1788.5000	478.049
1789.0000	478.088
1789.5000	478.123
1790.0000	478.166
1790.5000	478.19
1791.0000	478.183
1791.5000	478.209
1792.0000	478.141
1792.5000	478.138
1793.0000	478.155
1793.5000	478.151
1794.0000	478.215
1794.5000	478.193
1795.0000	478.118
1795.5000	478.179
1796.0000	478.145
1796.5000	478.211
1797.0000	478.248
1797.5000	478.191
1798.0000	478.236
1798.5000	478.185
1799.0000	478.225
1799.5000	478.226
1800.0000	478.169
1800.5000	478.231
1801.0000	478.14
1801.5000	478.103
1802.0000	478.136
1802.5000	478.047
1803.0000	478.152
1803.5000	478.179
1804.0000	478.209
1804.5000	478.221
1805.0000	478.159
1805.5000	478.12
1806.0000	478.075
1806.5000	478.118
1807.0000	478.12
1807.5000	478.121
1808.0000	478.133
1808.5000	478.142
1809.0000	478.127
1809.5000	478.122
1810.0000	478.142
1810.5000	478.085
1811.0000	478.083
1811.5000	478.16
1812.0000	478.164
1812.5000	478.166
1813.0000	478.212
1813.5000	478.144
1814.0000	478.091
1814.5000	478.118
1815.0000	478.081
1815.5000	478.087
1816.0000	478.109
1816.5000	478.064
1817.0000	478.063
1817.5000	478.065
1818.0000	478.099
1818.5000	478.091
1819.0000	478.122
1819.5000	478.166
1820.0000	478.149
1820.5000	478.234
1821.0000	478.261
1821.5000	478.27
1822.0000	478.225
1822.5000	478.149
1823.0000	478.115
1823.5000	478.089
1824.0000	478.104
1824.5000	478.122
1825.0000	478.082
1825.5000	478.104
1826.0000	478.062
1826.5000	478.114
1827.0000	478.188
1827.5000	478.128
1828.0000	478.187
1828.5000	478.155
1829.0000	478.064
1829.5000	478.062
1830.0000	478.032
1830.5000	478.03
1831.0000	478.083
1831.5000	478.129
1832.0000	478.163
1832.5000	478.111
1833.0000	478.096
1833.5000	478.057
1834.0000	478.023
1834.5000	477.989
1835.0000	478.006
1835.5000	478.045
1836.0000	478.085
1836.5000	478.157
1837.0000	478.144
1837.5000	478.129
1838.0000	478.109
1838.5000	478.129
1839.0000	478.089
1839.5000	478.068
1840.0000	478.081
1840.5000	478.065
1841.0000	478.048
1841.5000	478.056
1842.0000	478.022
1842.5000	477.946
1843.0000	478.005
1843.5000	478.015
1844.0000	478.043
1844.5000	478.098
1845.0000	478.11
1845.5000	478.038
1846.0000	477.978
1846.5000	477.999
1847.0000	477.934
1847.5000	477.947
1848.0000	477.921
1848.5000	477.81
1849.0000	477.85
1849.5000	477.868
1850.0000	477.924
1850.5000	478.053
1851.0000	478.056
1851.5000	478.097
1852.0000	478.096
1852.5000	478.068
1853.0000	477.995
1853.5000	478.006
1854.0000	477.939
1854.5000	477.87
1855.0000	477.881
1855.5000	477.877
1856.0000	477.938
1856.5000	478.023
1857.0000	478.103
1857.5000	478.061
1858.0000	478.112
1858.5000	478.099
1859.0000	478.086
1859.5000	478.111
1860.0000	478.051
1860.5000	478.052
1861.0000	478.011
1861.5000	477.932
1862.0000	477.917
1862.5000	477.912
1863.0000	477.891
1863.5000	477.924
1864.0000	477.929
1864.5000	477.859
1865.0000	477.941
1865.5000	477.948
1866.0000	477.932
1866.5000	477.989
1867.0000	477.974
1867.5000	477.974
1868.0000	477.936
1868.5000	477.917
1869.0000	477.885
1869.5000	477.822
1870.0000	477.886
1870.5000	477.878
1871.0000	477.807
1871.5000	477.869
1872.0000	477.885
1872.5000	477.842
1873.0000	477.884
1873.5000	477.794
1874.0000	477.808
1874.5000	477.829
1875.0000	477.816
1875.5000	477.882
1876.0000	477.812
1876.5000	477.737
1877.0000	477.741
1877.5000	477.744
1878.0000	477.726
1878.5000	477.793
1879.0000	477.766
1879.5000	477.703
1880.0000	477.714
1880.5000	477.708
1881.0000	477.808
1881.5000	477.811
1882.0000	477.791
1882.5000	477.83
1883.0000	477.779
1883.5000	477.844
1884.0000	477.898
1884.5000	477.896
1885.0000	477.821
1885.5000	477.77
1886.0000	477.722
1886.5000	477.738
1887.0000	477.797
1887.5000	477.818
1888.0000	477.781
1888.5000	477.709
1889.0000	477.639
1889.5000	477.62
1890.0000	477.59
1890.5000	477.548
1891.0000	477.616
1891.5000	477.653
1892.0000	477.666
1892.5000	477.696
1893.0000	477.698
1893.5000	477.69
1894.0000	477.649
1894.5000	477.69
1895.0000	477.659
1895.5000	477.666
1896.0000	477.746
1896.5000	477.747
1897.0000	477.749
1897.5000	477.744
1898.0000	477.769
1898.5000	477.693
1899.0000	477.662
1899.5000	477.663
1900.0000	477.678
1900.5000	477.687
1901.0000	477.675
1901.5000	477.676
1902.0000	477.623
1902.5000	477.681
1903.0000	477.696
1903.5000	477.614
1904.0000	477.622
1904.5000	477.566
1905.0000	477.55
1905.5000	477.534
1906.0000	477.604
1906.5000	477.653
1907.0000	477.725
1907.5000	477.795
1908.0000	477.728
1908.5000	477.685
1909.0000	477.516
1909.5000	477.523
1910.0000	477.542
1910.5000	477.497
1911.0000	477.644
1911.5000	477.653
1912.0000	477.572
1912.5000	477.583
1913.0000	477.535
1913.5000	477.48
1914.0000	477.491
1914.5000	477.565
1915.0000	477.588
1915.5000	477.575
1916.0000	477.564
1916.5000	477.446
1917.0000	477.386
1917.5000	477.38
1918.0000	477.362
1918.5000	477.357
1919.0000	477.398
1919.5000	477.496
1920.0000	477.511
1920.5000	477.54
1921.0000	477.493
1921.5000	477.39
1922.0000	477.347
1922.5000	477.356
1923.0000	477.352
1923.5000	477.353
1924.0000	477.339
1924.5000	477.363
1925.0000	477.399
1925.5000	477.406
1926.0000	477.416
1926.5000	477.393
1927.0000	477.419
1927.5000	477.421
1928.0000	477.5
1928.5000	477.518
1929.0000	477.458
1929.5000	477.426
1930.0000	477.41
1930.5000	477.287
1931.0000	477.226
1931.5000	477.21
1932.0000	477.222
1932.5000	477.283
1933.0000	477.305
1933.5000	477.314
1934.0000	477.253
1934.5000	477.246
1935.0000	477.276
1935.5000	477.278
1936.0000	477.266
1936.5000	477.268
1937.0000	477.257
1937.5000	477.234
1938.0000	477.237
1938.5000	477.225
1939.0000	477.188
1939.5000	477.131
1940.0000	477.147
1940.5000	477.167
1941.0000	477.213
1941.5000	477.219
1942.0000	477.179
1942.5000	477.17
1943.0000	477.149
1943.5000	477.257
1944.0000	477.264
1944.5000	477.271
1945.0000	477.313
1945.5000	477.241
1946.0000	477.22
1946.5000	477.151
1947.0000	477.12
1947.5000	477.15
1948.0000	477.198
1948.5000	477.175
1949.0000	477.102
1949.5000	477.075
1950.0000	477.009
1950.5000	477.127
1951.0000	477.205
1951.5000	477.269
1952.0000	477.303
1952.5000	477.293
1953.0000	477.308
1953.5000	477.277
1954.0000	477.277
1954.5000	477.223
1955.0000	477.166
1955.5000	477.142
1956.0000	477.153
1956.5000	477.156
1957.0000	477.102
1957.5000	477.08
1958.0000	477.039
1958.5000	477.034
1959.0000	477.109
1959.5000	477.125
1960.0000	477.139
1960.5000	477.131
1961.0000	477.082
1961.5000	477.046
1962.0000	477.026
1962.5000	477.103
1963.0000	477.06
1963.5000	477.096
1964.0000	477.143
1964.5000	477.018
1965.0000	477.011
1965.5000	476.987
1966.0000	476.962
1966.5000	476.982
1967.0000	477.044
1967.5000	477.031
1968.0000	476.956
1968.5000	477.025
1969.0000	477.039
1969.5000	477.033
1970.0000	477.088
1970.5000	477.099
1971.0000	476.998
1971.5000	477.015
1972.0000	477.002
1972.5000	476.933
1973.0000	476.975
1973.5000	476.956
1974.0000	476.962
1974.5000	476.902
1975.0000	476.904
1975.5000	476.88
1976.0000	476.909
1976.5000	476.969
1977.0000	476.956
1977.5000	476.999
1978.0000	476.926
1978.5000	476.965
1979.0000	477.044
1979.5000	477.032
1980.0000	476.987
1980.5000	476.901
1981.0000	476.852
1981.5000	476.806
1982.0000	476.854
1982.5000	476.918
1983.0000	476.873
1983.5000	476.861
1984.0000	476.917
1984.5000	476.871
1985.0000	476.884
1985.5000	476.863
1986.0000	476.798
1986.5000	476.779
1987.0000	476.776
1987.5000	476.743
1988.0000	476.732
1988.5000	476.718
1989.0000	476.692
1989.5000	476.71
1990.0000	476.692
1990.5000	476.642
1991.0000	476.653
1991.5000	476.673
1992.0000	476.652
1992.5000	476.711
1993.0000	476.725
1993.5000	476.676
1994.0000	476.635
1994.5000	476.622
1995.0000	476.597
1995.5000	476.618
1996.0000	476.611
1996.5000	476.636
1997.0000	476.643
1997.5000	476.692
1998.0000	476.773
1998.5000	476.711
1999.0000	476.675
1999.5000	476.634
2000.0000	476.579
