TITLE	
DATA TYPE	
ORIGIN	JASCO
OWNER	
DATE	22/08/25
TIME	16:50:44
SPECTROMETER/DATA SYSTEM	
RESOLUTION	
DELTAX	0.5
XUNITS	SEC
YUNITS	INTENSITY
FIRSTX	0.0000
LASTX	1741.0000
NPOINTS	3483
FIRSTY	496.22705
MAXY	496.22705
MINY	-59.09412
XYDATA
0.0000	496.227
0.5000	496.134
1.0000	496.076
1.5000	496.016
2.0000	495.976
2.5000	495.909
3.0000	495.851
3.5000	495.795
4.0000	495.785
4.5000	495.727
5.0000	495.629
5.5000	495.612
6.0000	495.5
6.5000	495.479
7.0000	495.466
7.5000	495.39
8.0000	495.363
8.5000	495.312
9.0000	495.246
9.5000	495.217
10.0000	495.106
10.5000	495.131
11.0000	495.136
11.5000	495.041
12.0000	495.042
12.5000	495.017
13.0000	494.911
13.5000	494.895
14.0000	494.866
14.5000	494.691
15.0000	494.66
15.5000	494.626
16.0000	494.58
16.5000	494.56
17.0000	494.526
17.5000	494.49
18.0000	494.449
18.5000	494.42
19.0000	494.395
19.5000	494.354
20.0000	494.282
20.5000	494.252
21.0000	494.137
21.5000	494.162
22.0000	494.141
22.5000	494.083
23.0000	494.084
23.5000	493.941
24.0000	493.878
24.5000	493.938
25.0000	493.945
25.5000	493.908
26.0000	493.928
26.5000	493.805
27.0000	493.699
27.5000	493.694
28.0000	493.634
28.5000	493.546
29.0000	493.535
29.5000	493.471
30.0000	493.362
30.5000	493.379
31.0000	484.158
31.5000	467.018
32.0000	425.547
32.5000	90.5628
33.0000	-59.0941
33.5000	-37.7583
34.0000	-33.0243
34.5000	-31.34
35.0000	-30.2185
35.5000	-29.5939
36.0000	-29.1334
36.5000	-28.5445
37.0000	-28.248
37.5000	-28
38.0000	-27.6895
38.5000	-27.6719
39.0000	-27.5248
39.5000	38.0606
40.0000	302.441
40.5000	294.621
41.0000	292.168
41.5000	287.692
42.0000	271.829
42.5000	272.057
43.0000	272.114
43.5000	272.257
44.0000	272.484
44.5000	272.743
45.0000	273.059
45.5000	273.335
46.0000	273.594
46.5000	273.862
47.0000	274.106
47.5000	274.382
48.0000	274.664
48.5000	274.95
49.0000	275.215
49.5000	275.461
50.0000	275.793
50.5000	276.032
51.0000	276.31
51.5000	276.638
52.0000	276.885
52.5000	277.199
53.0000	277.478
53.5000	277.734
54.0000	277.981
54.5000	278.248
55.0000	278.521
55.5000	278.798
56.0000	279.092
56.5000	279.355
57.0000	279.657
57.5000	279.955
58.0000	280.222
58.5000	280.512
59.0000	280.778
59.5000	280.971
60.0000	281.211
60.5000	281.471
61.0000	281.709
61.5000	282.031
62.0000	282.321
62.5000	282.598
63.0000	282.863
63.5000	283.107
64.0000	283.406
64.5000	283.671
65.0000	283.93
65.5000	284.188
66.0000	284.439
66.5000	284.682
67.0000	284.958
67.5000	285.247
68.0000	285.437
68.5000	285.733
69.0000	285.983
69.5000	286.211
70.0000	286.568
70.5000	286.833
71.0000	287.115
71.5000	287.417
72.0000	287.644
72.5000	287.925
73.0000	288.193
73.5000	288.418
74.0000	288.666
74.5000	288.88
75.0000	289.12
75.5000	289.397
76.0000	289.617
76.5000	289.908
77.0000	290.22
77.5000	290.485
78.0000	290.807
78.5000	291.003
79.0000	291.233
79.5000	291.48
80.0000	291.666
80.5000	291.925
81.0000	292.176
81.5000	292.439
82.0000	292.738
82.5000	293.046
83.0000	293.32
83.5000	293.56
84.0000	293.8
84.5000	294.063
85.0000	294.256
85.5000	294.542
86.0000	294.795
86.5000	295.013
87.0000	295.322
87.5000	295.564
88.0000	295.826
88.5000	296.104
89.0000	296.288
89.5000	296.527
90.0000	296.794
90.5000	296.979
91.0000	297.287
91.5000	297.56
92.0000	297.798
92.5000	298.053
93.0000	298.321
93.5000	298.6
94.0000	298.849
94.5000	299.16
95.0000	299.369
95.5000	299.573
96.0000	299.824
96.5000	300.034
97.0000	300.307
97.5000	300.566
98.0000	300.848
98.5000	301.115
99.0000	301.371
99.5000	301.593
100.0000	301.802
100.5000	302.054
101.0000	302.249
101.5000	302.491
102.0000	302.774
102.5000	302.986
103.0000	303.229
103.5000	303.478
104.0000	303.7
104.5000	303.948
105.0000	304.25
105.5000	304.53
106.0000	304.785
106.5000	305.034
107.0000	305.296
107.5000	305.573
108.0000	305.805
108.5000	306.048
109.0000	306.237
109.5000	306.39
110.0000	306.599
110.5000	306.811
111.0000	307.048
111.5000	307.328
112.0000	307.56
112.5000	307.782
113.0000	308.016
113.5000	308.205
114.0000	308.429
114.5000	308.656
115.0000	308.83
115.5000	309.098
116.0000	309.357
116.5000	309.652
117.0000	309.928
117.5000	310.154
118.0000	310.387
118.5000	310.593
119.0000	310.846
119.5000	311.076
120.0000	311.302
120.5000	311.489
121.0000	311.699
121.5000	311.943
122.0000	312.168
122.5000	312.51
123.0000	312.76
123.5000	312.99
124.0000	313.218
124.5000	313.396
125.0000	313.65
125.5000	313.866
126.0000	314.076
126.5000	314.286
127.0000	314.528
127.5000	314.762
128.0000	315.003
128.5000	315.198
129.0000	315.468
129.5000	315.685
130.0000	315.921
130.5000	316.187
131.0000	316.328
131.5000	316.568
132.0000	316.76
132.5000	317.026
133.0000	317.281
133.5000	317.515
134.0000	317.793
134.5000	318.006
135.0000	318.174
135.5000	318.358
136.0000	318.575
136.5000	318.793
137.0000	319.049
137.5000	319.244
138.0000	319.47
138.5000	319.685
139.0000	319.913
139.5000	320.172
140.0000	320.366
140.5000	320.611
141.0000	320.814
141.5000	321.049
142.0000	321.233
142.5000	321.401
143.0000	321.615
143.5000	321.816
144.0000	322.084
144.5000	322.272
145.0000	322.472
145.5000	322.677
146.0000	322.877
146.5000	323.085
147.0000	323.31
147.5000	323.52
148.0000	323.74
148.5000	323.981
149.0000	324.184
149.5000	324.347
150.0000	324.578
150.5000	324.8
151.0000	325.025
151.5000	325.287
152.0000	325.446
152.5000	325.635
153.0000	325.857
153.5000	326.081
154.0000	326.297
154.5000	326.525
155.0000	326.669
155.5000	326.81
156.0000	327.023
156.5000	327.232
157.0000	327.443
157.5000	327.67
158.0000	327.888
158.5000	328.115
159.0000	328.323
159.5000	328.564
160.0000	328.741
160.5000	328.866
161.0000	329.106
161.5000	329.346
162.0000	329.544
162.5000	329.758
163.0000	329.932
163.5000	330.068
164.0000	330.324
164.5000	330.568
165.0000	330.752
165.5000	330.957
166.0000	331.142
166.5000	331.328
167.0000	331.514
167.5000	331.718
168.0000	331.888
168.5000	332.121
169.0000	332.354
169.5000	332.543
170.0000	332.74
170.5000	332.938
171.0000	333.14
171.5000	333.336
172.0000	333.53
172.5000	333.726
173.0000	333.893
173.5000	334.107
174.0000	334.328
174.5000	334.468
175.0000	334.67
175.5000	334.837
176.0000	335.023
176.5000	335.208
177.0000	335.456
177.5000	335.668
178.0000	335.866
178.5000	336.098
179.0000	336.256
179.5000	336.469
180.0000	336.679
180.5000	336.884
181.0000	337.067
181.5000	337.25
182.0000	337.426
182.5000	337.559
183.0000	337.837
183.5000	338.06
184.0000	338.26
184.5000	338.532
185.0000	338.697
185.5000	338.832
186.0000	339.01
186.5000	339.189
187.0000	339.356
187.5000	339.575
188.0000	339.737
188.5000	339.891
189.0000	340.123
189.5000	340.289
190.0000	340.508
190.5000	340.763
191.0000	340.907
191.5000	341.137
192.0000	341.373
192.5000	341.541
193.0000	341.732
193.5000	341.906
194.0000	342.065
194.5000	342.263
195.0000	342.478
195.5000	342.767
196.0000	342.989
196.5000	343.191
197.0000	343.395
197.5000	343.517
198.0000	343.728
198.5000	343.922
199.0000	344.126
199.5000	344.348
200.0000	344.523
200.5000	344.723
201.0000	344.883
201.5000	345.075
202.0000	345.314
202.5000	345.469
203.0000	345.694
203.5000	345.838
204.0000	345.962
204.5000	346.155
205.0000	346.392
205.5000	346.606
206.0000	346.765
206.5000	346.976
207.0000	347.095
207.5000	347.276
208.0000	347.512
208.5000	347.745
209.0000	347.869
209.5000	348.039
210.0000	348.203
210.5000	348.321
211.0000	348.565
211.5000	348.816
212.0000	349.017
212.5000	349.245
213.0000	349.399
213.5000	349.535
214.0000	349.726
214.5000	349.837
215.0000	349.953
215.5000	350.139
216.0000	350.26
216.5000	350.429
217.0000	350.674
217.5000	350.846
218.0000	351.051
218.5000	351.268
219.0000	351.477
219.5000	351.689
220.0000	351.869
220.5000	352.051
221.0000	352.252
221.5000	352.316
222.0000	352.498
222.5000	352.664
223.0000	352.82
223.5000	353.087
224.0000	353.254
224.5000	353.432
225.0000	353.578
225.5000	353.694
226.0000	353.887
226.5000	354.046
227.0000	354.212
227.5000	354.388
228.0000	354.583
228.5000	354.816
229.0000	354.997
229.5000	355.198
230.0000	355.293
230.5000	355.394
231.0000	355.589
231.5000	355.794
232.0000	356.006
232.5000	356.195
233.0000	356.366
233.5000	356.488
234.0000	356.637
234.5000	356.812
235.0000	356.957
235.5000	357.138
236.0000	357.307
236.5000	357.424
237.0000	357.591
237.5000	357.734
238.0000	357.909
238.5000	358.097
239.0000	358.248
239.5000	358.465
240.0000	358.629
240.5000	358.839
241.0000	359.019
241.5000	359.125
242.0000	359.285
242.5000	359.415
243.0000	359.587
243.5000	359.738
244.0000	359.962
244.5000	360.163
245.0000	360.337
245.5000	360.524
246.0000	360.62
246.5000	360.748
247.0000	360.952
247.5000	361.122
248.0000	361.291
248.5000	361.461
249.0000	361.51
249.5000	361.711
250.0000	361.894
250.5000	362.038
251.0000	362.247
251.5000	362.389
252.0000	362.517
252.5000	362.675
253.0000	362.858
253.5000	363.006
254.0000	363.228
254.5000	363.448
255.0000	363.6
255.5000	363.756
256.0000	363.845
256.5000	363.985
257.0000	364.114
257.5000	364.273
258.0000	364.452
258.5000	364.585
259.0000	364.78
259.5000	364.991
260.0000	365.167
260.5000	365.304
261.0000	365.42
261.5000	365.541
262.0000	365.654
262.5000	365.892
263.0000	366.059
263.5000	366.215
264.0000	366.413
264.5000	366.509
265.0000	366.648
265.5000	366.798
266.0000	366.918
266.5000	367.081
267.0000	367.266
267.5000	367.422
268.0000	367.584
268.5000	367.735
269.0000	367.851
269.5000	367.951
270.0000	368.148
270.5000	368.29
271.0000	368.44
271.5000	368.605
272.0000	368.75
272.5000	368.896
273.0000	369.071
273.5000	369.243
274.0000	369.426
274.5000	369.593
275.0000	369.754
275.5000	369.885
276.0000	369.974
276.5000	370.145
277.0000	370.295
277.5000	370.462
278.0000	370.615
278.5000	370.726
279.0000	370.892
279.5000	371.037
280.0000	371.209
280.5000	371.345
281.0000	371.442
281.5000	371.635
282.0000	371.748
282.5000	371.906
283.0000	372.124
283.5000	372.228
284.0000	372.352
284.5000	372.508
285.0000	372.643
285.5000	372.809
286.0000	372.972
286.5000	373.087
287.0000	373.222
287.5000	373.366
288.0000	373.505
288.5000	373.688
289.0000	373.788
289.5000	373.926
290.0000	374.077
290.5000	374.148
291.0000	374.345
291.5000	374.457
292.0000	374.589
292.5000	374.793
293.0000	374.968
293.5000	375.192
294.0000	375.385
294.5000	375.542
295.0000	375.63
295.5000	375.727
296.0000	375.862
296.5000	375.967
297.0000	376.102
297.5000	376.227
298.0000	376.361
298.5000	376.58
299.0000	376.733
299.5000	376.903
300.0000	377.075
300.5000	377.178
301.0000	377.339
301.5000	377.43
302.0000	377.486
302.5000	377.605
303.0000	377.725
303.5000	377.909
304.0000	378.117
304.5000	378.298
305.0000	378.44
305.5000	378.584
306.0000	378.72
306.5000	378.801
307.0000	378.947
307.5000	379.057
308.0000	379.129
308.5000	379.284
309.0000	379.39
309.5000	379.508
310.0000	379.699
310.5000	379.848
311.0000	380.051
311.5000	380.216
312.0000	380.338
312.5000	380.471
313.0000	380.547
313.5000	380.682
314.0000	380.76
314.5000	380.939
315.0000	381.096
315.5000	381.202
316.0000	381.414
316.5000	381.516
317.0000	381.597
317.5000	381.723
318.0000	381.876
318.5000	382.006
319.0000	382.135
319.5000	382.308
320.0000	382.422
320.5000	382.543
321.0000	382.714
321.5000	382.848
322.0000	382.978
322.5000	383.171
323.0000	383.298
323.5000	383.389
324.0000	383.516
324.5000	383.614
325.0000	383.721
325.5000	383.904
326.0000	384.051
326.5000	384.138
327.0000	384.328
327.5000	384.441
328.0000	384.574
328.5000	384.644
329.0000	384.759
329.5000	384.886
330.0000	384.99
330.5000	385.181
331.0000	385.312
331.5000	385.469
332.0000	385.641
332.5000	385.786
333.0000	385.891
333.5000	386.026
334.0000	386.109
334.5000	386.254
335.0000	386.363
335.5000	386.389
336.0000	386.526
336.5000	386.671
337.0000	386.815
337.5000	387.022
338.0000	387.209
338.5000	387.298
339.0000	387.43
339.5000	387.573
340.0000	387.606
340.5000	387.728
341.0000	387.86
341.5000	387.947
342.0000	388.153
342.5000	388.291
343.0000	388.435
343.5000	388.647
344.0000	388.725
344.5000	388.828
345.0000	388.945
345.5000	389.024
346.0000	389.173
346.5000	389.313
347.0000	389.477
347.5000	389.544
348.0000	389.647
348.5000	389.791
349.0000	389.852
349.5000	390.001
350.0000	390.142
350.5000	390.193
351.0000	390.369
351.5000	390.498
352.0000	390.572
352.5000	390.762
353.0000	390.903
353.5000	391.041
354.0000	391.17
354.5000	391.318
355.0000	391.398
355.5000	391.461
356.0000	391.596
356.5000	391.71
357.0000	391.797
357.5000	391.93
358.0000	392.068
358.5000	392.144
359.0000	392.266
359.5000	392.399
360.0000	392.451
360.5000	392.558
361.0000	392.639
361.5000	392.754
362.0000	392.874
362.5000	393.013
363.0000	393.137
363.5000	393.287
364.0000	393.424
364.5000	393.55
365.0000	393.744
365.5000	393.819
366.0000	393.907
366.5000	394.035
367.0000	394.12
367.5000	394.265
368.0000	394.406
368.5000	394.526
369.0000	394.553
369.5000	394.614
370.0000	394.73
370.5000	394.757
371.0000	394.972
371.5000	395.148
372.0000	395.287
372.5000	395.447
373.0000	395.495
373.5000	395.558
374.0000	395.735
374.5000	395.786
375.0000	396.036
375.5000	396.167
376.0000	396.221
376.5000	396.456
377.0000	396.462
377.5000	396.556
378.0000	396.644
378.5000	396.697
379.0000	396.794
379.5000	396.935
380.0000	397.109
380.5000	397.235
381.0000	397.403
381.5000	397.571
382.0000	397.651
382.5000	397.781
383.0000	397.896
383.5000	397.98
384.0000	398.163
384.5000	398.298
385.0000	398.401
385.5000	398.515
386.0000	398.609
386.5000	398.684
387.0000	398.815
387.5000	398.947
388.0000	399.034
388.5000	399.188
389.0000	399.298
389.5000	399.397
390.0000	399.425
390.5000	399.527
391.0000	399.663
391.5000	399.849
392.0000	400.039
392.5000	400.1
393.0000	400.144
393.5000	400.221
394.0000	400.337
394.5000	400.447
395.0000	400.628
395.5000	400.737
396.0000	400.831
396.5000	401.021
397.0000	401.128
397.5000	401.208
398.0000	401.371
398.5000	401.475
399.0000	401.617
399.5000	401.742
400.0000	401.812
400.5000	401.915
401.0000	401.927
401.5000	401.997
402.0000	402.069
402.5000	402.184
403.0000	402.355
403.5000	402.454
404.0000	402.632
404.5000	402.715
405.0000	402.801
405.5000	402.941
406.0000	403.037
406.5000	403.113
407.0000	403.183
407.5000	403.323
408.0000	403.353
408.5000	403.421
409.0000	403.584
409.5000	403.64
410.0000	403.817
410.5000	404.025
411.0000	404.161
411.5000	404.245
412.0000	404.352
412.5000	404.42
413.0000	404.451
413.5000	404.551
414.0000	404.597
414.5000	404.724
415.0000	404.875
415.5000	405.01
416.0000	405.188
416.5000	405.271
417.0000	405.323
417.5000	405.44
418.0000	405.526
418.5000	405.596
419.0000	405.779
419.5000	405.915
420.0000	406.048
420.5000	406.181
421.0000	406.24
421.5000	406.344
422.0000	406.499
422.5000	406.636
423.0000	406.708
423.5000	406.728
424.0000	406.761
424.5000	406.799
425.0000	406.935
425.5000	407.145
426.0000	407.199
426.5000	407.342
427.0000	407.441
427.5000	407.501
428.0000	407.632
428.5000	407.766
429.0000	407.848
429.5000	407.967
430.0000	408.051
430.5000	408.116
431.0000	408.272
431.5000	408.425
432.0000	408.559
432.5000	408.673
433.0000	408.719
433.5000	408.781
434.0000	408.924
434.5000	409.023
435.0000	409.122
435.5000	409.173
436.0000	409.225
436.5000	409.366
437.0000	409.458
437.5000	409.544
438.0000	409.64
438.5000	409.637
439.0000	409.807
439.5000	409.977
440.0000	410.078
440.5000	410.218
441.0000	410.299
441.5000	410.293
442.0000	410.418
442.5000	410.558
443.0000	410.65
443.5000	410.851
444.0000	410.998
444.5000	411.059
445.0000	411.129
445.5000	411.181
446.0000	411.239
446.5000	411.283
447.0000	411.454
447.5000	411.576
448.0000	411.638
448.5000	411.796
449.0000	411.839
449.5000	411.866
450.0000	411.936
450.5000	412.026
451.0000	412.152
451.5000	412.319
452.0000	412.433
452.5000	412.539
453.0000	412.578
453.5000	412.665
454.0000	412.74
454.5000	412.866
455.0000	412.952
455.5000	413.061
456.0000	413.207
456.5000	413.256
457.0000	413.391
457.5000	413.469
458.0000	413.612
458.5000	413.739
459.0000	413.875
459.5000	413.963
460.0000	413.945
460.5000	414.038
461.0000	414.147
461.5000	414.22
462.0000	414.34
462.5000	414.374
463.0000	414.397
463.5000	414.488
464.0000	414.614
464.5000	414.806
465.0000	414.899
465.5000	414.996
466.0000	415.098
466.5000	415.18
467.0000	415.245
467.5000	415.362
468.0000	415.463
468.5000	415.501
469.0000	415.666
469.5000	415.741
470.0000	415.79
470.5000	415.915
471.0000	416.014
471.5000	416.126
472.0000	416.335
472.5000	416.404
473.0000	416.455
473.5000	416.53
474.0000	416.578
474.5000	416.621
475.0000	416.729
475.5000	416.858
476.0000	416.898
476.5000	417.07
477.0000	417.142
477.5000	417.218
478.0000	417.32
478.5000	417.401
479.0000	417.52
479.5000	417.633
480.0000	417.745
480.5000	417.823
481.0000	417.874
481.5000	417.915
482.0000	417.967
482.5000	418.05
483.0000	418.154
483.5000	418.229
484.0000	418.345
484.5000	418.468
485.0000	418.537
485.5000	418.635
486.0000	418.665
486.5000	418.758
487.0000	418.871
487.5000	418.975
488.0000	419.07
488.5000	419.157
489.0000	419.296
489.5000	419.436
490.0000	419.584
490.5000	419.594
491.0000	419.545
491.5000	419.565
492.0000	419.633
492.5000	419.788
493.0000	419.956
493.5000	420.049
494.0000	420.161
494.5000	420.233
495.0000	420.256
495.5000	420.329
496.0000	420.44
496.5000	420.541
497.0000	420.665
497.5000	420.807
498.0000	420.879
498.5000	420.925
499.0000	421.027
499.5000	421.083
500.0000	421.175
500.5000	421.333
501.0000	421.481
501.5000	421.555
502.0000	421.66
502.5000	421.677
503.0000	421.704
503.5000	421.822
504.0000	421.848
504.5000	421.995
505.0000	422.123
505.5000	422.181
506.0000	422.245
506.5000	422.329
507.0000	422.378
507.5000	422.52
508.0000	422.624
508.5000	422.665
509.0000	422.731
509.5000	422.766
510.0000	422.832
510.5000	422.946
511.0000	423.027
511.5000	423.142
512.0000	423.227
512.5000	423.278
513.0000	423.458
513.5000	423.439
514.0000	423.537
514.5000	423.595
515.0000	423.606
515.5000	423.777
516.0000	423.864
516.5000	423.98
517.0000	424.058
517.5000	424.116
518.0000	424.256
518.5000	424.371
519.0000	424.42
519.5000	424.544
520.0000	424.594
520.5000	424.614
521.0000	424.787
521.5000	424.81
522.0000	424.899
522.5000	425.053
523.0000	425.074
523.5000	425.196
524.0000	425.228
524.5000	425.263
525.0000	425.365
525.5000	425.432
526.0000	425.539
526.5000	425.651
527.0000	425.759
527.5000	425.827
528.0000	425.951
528.5000	426.059
529.0000	426.149
529.5000	426.256
530.0000	426.294
530.5000	426.358
531.0000	426.436
531.5000	426.531
532.0000	426.633
532.5000	426.635
533.0000	426.733
533.5000	426.796
534.0000	426.838
534.5000	426.96
535.0000	427.037
535.5000	427.156
536.0000	427.213
536.5000	427.322
537.0000	427.388
537.5000	427.4
538.0000	427.566
538.5000	427.613
539.0000	427.698
539.5000	427.828
540.0000	427.888
540.5000	427.949
541.0000	427.997
541.5000	428.029
542.0000	428.08
542.5000	428.165
543.0000	428.254
543.5000	428.345
544.0000	428.468
544.5000	428.628
545.0000	428.668
545.5000	428.763
546.0000	428.888
546.5000	428.898
547.0000	429.004
547.5000	429.113
548.0000	429.162
548.5000	429.261
549.0000	429.344
549.5000	429.371
550.0000	429.48
550.5000	429.529
551.0000	429.625
551.5000	429.721
552.0000	429.746
552.5000	429.875
553.0000	429.936
553.5000	429.998
554.0000	430.058
554.5000	430.125
555.0000	430.252
555.5000	430.402
556.0000	430.48
556.5000	430.545
557.0000	430.559
557.5000	430.585
558.0000	430.689
558.5000	430.736
559.0000	430.868
559.5000	430.954
560.0000	430.957
560.5000	431.05
561.0000	431.107
561.5000	431.216
562.0000	431.321
562.5000	431.404
563.0000	431.511
563.5000	431.508
564.0000	431.559
564.5000	431.621
565.0000	431.741
565.5000	431.882
566.0000	432.021
566.5000	432.09
567.0000	432.005
567.5000	432.045
568.0000	432.094
568.5000	432.204
569.0000	432.258
569.5000	432.37
570.0000	432.462
570.5000	432.541
571.0000	432.679
571.5000	432.724
572.0000	432.84
572.5000	432.909
573.0000	433.055
573.5000	433.147
574.0000	433.137
574.5000	433.21
575.0000	433.277
575.5000	433.416
576.0000	433.562
576.5000	433.607
577.0000	433.625
577.5000	433.63
578.0000	433.652
578.5000	433.66
579.0000	433.746
579.5000	433.845
580.0000	433.959
580.5000	434.139
581.0000	434.255
581.5000	434.35
582.0000	434.397
582.5000	434.51
583.0000	434.533
583.5000	434.547
584.0000	434.652
584.5000	434.62
585.0000	434.721
585.5000	434.844
586.0000	434.897
586.5000	435.027
587.0000	435.185
587.5000	435.197
588.0000	435.255
588.5000	435.267
589.0000	435.292
589.5000	435.385
590.0000	435.488
590.5000	435.672
591.0000	435.735
591.5000	435.895
592.0000	435.957
592.5000	436.054
593.0000	436.131
593.5000	436.196
594.0000	436.268
594.5000	436.331
595.0000	436.372
595.5000	436.421
596.0000	436.503
596.5000	436.554
597.0000	436.68
597.5000	436.769
598.0000	436.883
598.5000	436.987
599.0000	437.053
599.5000	437.1
600.0000	437.132
600.5000	437.203
601.0000	437.232
601.5000	437.264
602.0000	437.362
602.5000	437.419
603.0000	437.568
603.5000	437.695
604.0000	437.75
604.5000	437.827
605.0000	437.866
605.5000	437.942
606.0000	438.067
606.5000	438.14
607.0000	438.234
607.5000	438.24
608.0000	438.234
608.5000	438.258
609.0000	438.299
609.5000	438.358
610.0000	438.455
610.5000	438.632
611.0000	438.673
611.5000	438.733
612.0000	438.844
612.5000	438.846
613.0000	438.875
613.5000	439.011
614.0000	439.047
614.5000	439.16
615.0000	439.241
615.5000	439.26
616.0000	439.3
616.5000	439.262
617.0000	439.435
617.5000	439.625
618.0000	439.638
618.5000	439.771
619.0000	439.836
619.5000	439.852
620.0000	440.01
620.5000	440.047
621.0000	440.104
621.5000	440.212
622.0000	440.263
622.5000	440.415
623.0000	440.427
623.5000	440.448
624.0000	440.564
624.5000	440.593
625.0000	440.65
625.5000	440.684
626.0000	440.69
626.5000	440.758
627.0000	440.851
627.5000	440.942
628.0000	440.99
628.5000	441.022
629.0000	441.155
629.5000	441.261
630.0000	441.392
630.5000	441.457
631.0000	441.517
631.5000	441.52
632.0000	441.572
632.5000	441.676
633.0000	441.736
633.5000	441.771
634.0000	441.91
634.5000	442.033
635.0000	442.058
635.5000	442.224
636.0000	442.243
636.5000	442.204
637.0000	442.261
637.5000	442.341
638.0000	442.31
638.5000	442.404
639.0000	442.54
639.5000	442.56
640.0000	442.657
640.5000	442.767
641.0000	442.767
641.5000	442.897
642.0000	443.107
642.5000	443.125
643.0000	443.252
643.5000	443.274
644.0000	443.274
644.5000	443.378
645.0000	443.425
645.5000	443.497
646.0000	443.534
646.5000	443.627
647.0000	443.702
647.5000	443.725
648.0000	443.782
648.5000	443.816
649.0000	443.88
649.5000	443.982
650.0000	444.098
650.5000	444.202
651.0000	444.236
651.5000	444.391
652.0000	444.464
652.5000	444.481
653.0000	444.565
653.5000	444.613
654.0000	444.654
654.5000	444.765
655.0000	444.85
655.5000	444.867
656.0000	444.972
656.5000	445.06
657.0000	445.17
657.5000	445.182
658.0000	445.297
658.5000	445.278
659.0000	445.338
659.5000	445.509
660.0000	445.541
660.5000	445.712
661.0000	445.699
661.5000	445.73
662.0000	445.727
662.5000	445.727
663.0000	445.841
663.5000	445.859
664.0000	445.955
664.5000	446.024
665.0000	446.113
665.5000	446.239
666.0000	446.294
666.5000	446.386
667.0000	446.45
667.5000	446.482
668.0000	446.532
668.5000	446.624
669.0000	446.575
669.5000	446.679
670.0000	446.794
670.5000	446.795
671.0000	446.946
671.5000	446.965
672.0000	446.983
672.5000	447.056
673.0000	447.094
673.5000	447.19
674.0000	447.267
674.5000	447.298
675.0000	447.381
675.5000	447.427
676.0000	447.46
676.5000	447.541
677.0000	447.606
677.5000	447.603
678.0000	447.671
678.5000	447.764
679.0000	447.833
679.5000	447.969
680.0000	448.102
680.5000	448.141
681.0000	448.222
681.5000	448.267
682.0000	448.283
682.5000	448.395
683.0000	448.429
683.5000	448.485
684.0000	448.61
684.5000	448.648
685.0000	448.688
685.5000	448.801
686.0000	448.85
686.5000	448.863
687.0000	448.951
687.5000	448.937
688.0000	448.957
688.5000	449.068
689.0000	449.182
689.5000	449.285
690.0000	449.332
690.5000	449.375
691.0000	449.382
691.5000	449.419
692.0000	449.564
692.5000	449.629
693.0000	449.707
693.5000	449.774
694.0000	449.712
694.5000	449.726
695.0000	449.742
695.5000	449.833
696.0000	449.905
696.5000	449.987
697.0000	450.078
697.5000	450.154
698.0000	450.289
698.5000	450.365
699.0000	450.381
699.5000	450.353
700.0000	450.384
700.5000	450.437
701.0000	450.487
701.5000	450.594
702.0000	450.604
702.5000	450.686
703.0000	450.751
703.5000	450.824
704.0000	450.885
704.5000	450.841
705.0000	450.911
705.5000	450.879
706.0000	450.931
706.5000	451.124
707.0000	451.223
707.5000	451.414
708.0000	451.546
708.5000	451.545
709.0000	451.594
709.5000	451.523
710.0000	451.572
710.5000	451.615
711.0000	451.645
711.5000	451.78
712.0000	451.826
712.5000	451.916
713.0000	451.97
713.5000	451.979
714.0000	452.033
714.5000	452.087
715.0000	452.18
715.5000	452.313
716.0000	452.358
716.5000	452.42
717.0000	452.475
717.5000	452.521
718.0000	452.647
718.5000	452.721
719.0000	452.817
719.5000	452.92
720.0000	452.917
720.5000	452.995
721.0000	453.018
721.5000	453.023
722.0000	453.041
722.5000	453.083
723.0000	453.107
723.5000	453.087
724.0000	453.145
724.5000	453.19
725.0000	453.289
725.5000	453.516
726.0000	453.624
726.5000	453.629
727.0000	453.687
727.5000	453.636
728.0000	453.686
728.5000	453.766
729.0000	453.789
729.5000	453.902
730.0000	453.92
730.5000	454.007
731.0000	454.093
731.5000	454.103
732.0000	454.169
732.5000	454.176
733.0000	454.219
733.5000	454.287
734.0000	454.375
734.5000	454.465
735.0000	454.513
735.5000	454.509
736.0000	454.65
736.5000	454.699
737.0000	454.782
737.5000	454.955
738.0000	454.966
738.5000	455.045
739.0000	455.165
739.5000	455.131
740.0000	455.166
740.5000	455.178
741.0000	455.183
741.5000	455.234
742.0000	455.246
742.5000	455.311
743.0000	455.299
743.5000	455.381
744.0000	455.508
744.5000	455.529
745.0000	455.617
745.5000	455.772
746.0000	455.785
746.5000	455.945
747.0000	456.019
747.5000	455.936
748.0000	455.964
748.5000	455.916
749.0000	455.983
749.5000	456.101
750.0000	456.215
750.5000	456.351
751.0000	456.352
751.5000	456.38
752.0000	456.401
752.5000	456.509
753.0000	456.574
753.5000	456.598
754.0000	456.668
754.5000	456.681
755.0000	456.828
755.5000	456.938
756.0000	456.984
756.5000	457.002
757.0000	456.906
757.5000	456.911
758.0000	456.945
758.5000	457.007
759.0000	457.106
759.5000	457.192
760.0000	457.28
760.5000	457.298
761.0000	457.413
761.5000	457.487
762.0000	457.519
762.5000	457.574
763.0000	457.621
763.5000	457.658
764.0000	457.677
764.5000	457.771
765.0000	457.794
765.5000	457.807
766.0000	457.847
766.5000	457.854
767.0000	457.891
767.5000	457.979
768.0000	458.054
768.5000	458.19
769.0000	458.361
769.5000	458.435
770.0000	458.482
770.5000	458.493
771.0000	458.449
771.5000	458.484
772.0000	458.616
772.5000	458.642
773.0000	458.66
773.5000	458.658
774.0000	458.72
774.5000	458.732
775.0000	458.813
775.5000	458.917
776.0000	458.926
776.5000	459.006
777.0000	459.103
777.5000	459.187
778.0000	459.215
778.5000	459.29
779.0000	459.369
779.5000	459.355
780.0000	459.342
780.5000	459.445
781.0000	459.401
781.5000	459.438
782.0000	459.52
782.5000	459.539
783.0000	459.644
783.5000	459.735
784.0000	459.799
784.5000	459.825
785.0000	459.913
785.5000	459.919
786.0000	459.933
786.5000	460.042
787.0000	460.016
787.5000	460.062
788.0000	460.175
788.5000	460.096
789.0000	460.105
789.5000	460.22
790.0000	460.232
790.5000	460.318
791.0000	460.46
791.5000	460.489
792.0000	460.546
792.5000	460.64
793.0000	460.686
793.5000	460.786
794.0000	460.862
794.5000	460.977
795.0000	460.973
795.5000	460.957
796.0000	460.924
796.5000	460.841
797.0000	460.943
797.5000	460.976
798.0000	461.089
798.5000	461.219
799.0000	461.271
799.5000	461.376
800.0000	461.447
800.5000	461.427
801.0000	461.397
801.5000	461.462
802.0000	461.505
802.5000	461.612
803.0000	461.652
803.5000	461.67
804.0000	461.673
804.5000	461.735
805.0000	461.79
805.5000	461.866
806.0000	461.95
806.5000	461.914
807.0000	462.014
807.5000	462.009
808.0000	462.016
808.5000	462.081
809.0000	462.065
809.5000	462.09
810.0000	462.143
810.5000	462.186
811.0000	462.331
811.5000	462.351
812.0000	462.426
812.5000	462.548
813.0000	462.603
813.5000	462.732
814.0000	462.807
814.5000	462.799
815.0000	462.811
815.5000	462.801
816.0000	462.887
816.5000	462.917
817.0000	462.894
817.5000	463.043
818.0000	463.058
818.5000	463.095
819.0000	463.202
819.5000	463.199
820.0000	463.208
820.5000	463.254
821.0000	463.279
821.5000	463.317
822.0000	463.315
822.5000	463.353
823.0000	463.486
823.5000	463.482
824.0000	463.544
824.5000	463.574
825.0000	463.551
825.5000	463.613
826.0000	463.684
826.5000	463.835
827.0000	463.863
827.5000	463.981
828.0000	464.095
828.5000	463.993
829.0000	464.049
829.5000	463.996
830.0000	463.998
830.5000	464.073
831.0000	464.09
831.5000	464.161
832.0000	464.21
832.5000	464.348
833.0000	464.355
833.5000	464.461
834.0000	464.479
834.5000	464.491
835.0000	464.606
835.5000	464.618
836.0000	464.655
836.5000	464.626
837.0000	464.69
837.5000	464.647
838.0000	464.671
838.5000	464.78
839.0000	464.8
839.5000	464.897
840.0000	464.972
840.5000	464.944
841.0000	464.949
841.5000	465.002
842.0000	465.019
842.5000	465.125
843.0000	465.2
843.5000	465.324
844.0000	465.33
844.5000	465.402
845.0000	465.371
845.5000	465.276
846.0000	465.372
846.5000	465.432
847.0000	465.525
847.5000	465.689
848.0000	465.758
848.5000	465.757
849.0000	465.778
849.5000	465.694
850.0000	465.666
850.5000	465.756
851.0000	465.81
851.5000	465.917
852.0000	465.935
852.5000	465.934
853.0000	465.919
853.5000	465.909
854.0000	465.98
854.5000	466.029
855.0000	466.104
855.5000	466.139
856.0000	466.238
856.5000	466.27
857.0000	466.354
857.5000	466.479
858.0000	466.476
858.5000	466.45
859.0000	466.449
859.5000	466.434
860.0000	466.529
860.5000	466.621
861.0000	466.714
861.5000	466.758
862.0000	466.739
862.5000	466.804
863.0000	466.852
863.5000	466.899
864.0000	466.903
864.5000	466.922
865.0000	466.938
865.5000	466.999
866.0000	467.087
866.5000	467.079
867.0000	467.079
867.5000	467.136
868.0000	467.144
868.5000	467.254
869.0000	467.34
869.5000	467.295
870.0000	467.36
870.5000	467.388
871.0000	467.4
871.5000	467.471
872.0000	467.418
872.5000	467.395
873.0000	467.427
873.5000	467.496
874.0000	467.712
874.5000	467.877
875.0000	467.929
875.5000	467.921
876.0000	467.834
876.5000	467.883
877.0000	467.957
877.5000	467.965
878.0000	468.046
878.5000	467.955
879.0000	467.96
879.5000	468.049
880.0000	468.052
880.5000	468.117
881.0000	468.119
881.5000	468.185
882.0000	468.232
882.5000	468.244
883.0000	468.229
883.5000	468.205
884.0000	468.266
884.5000	468.349
885.0000	468.474
885.5000	468.502
886.0000	468.581
886.5000	468.575
887.0000	468.636
887.5000	468.758
888.0000	468.742
888.5000	468.808
889.0000	468.774
889.5000	468.685
890.0000	468.694
890.5000	468.728
891.0000	468.723
891.5000	468.834
892.0000	468.887
892.5000	468.891
893.0000	468.931
893.5000	469
894.0000	468.979
894.5000	469.048
895.0000	469.126
895.5000	469.095
896.0000	469.151
896.5000	469.134
897.0000	469.145
897.5000	469.24
898.0000	469.265
898.5000	469.404
899.0000	469.464
899.5000	469.389
900.0000	469.493
900.5000	469.487
901.0000	469.523
901.5000	469.628
902.0000	469.594
902.5000	469.623
903.0000	469.633
903.5000	469.624
904.0000	469.708
904.5000	469.739
905.0000	469.793
905.5000	469.853
906.0000	469.944
906.5000	469.92
907.0000	469.935
907.5000	469.973
908.0000	469.935
908.5000	470.029
909.0000	470.099
909.5000	470.193
910.0000	470.207
910.5000	470.154
911.0000	470.217
911.5000	470.225
912.0000	470.269
912.5000	470.399
913.0000	470.407
913.5000	470.412
914.0000	470.519
914.5000	470.549
915.0000	470.598
915.5000	470.642
916.0000	470.639
916.5000	470.705
917.0000	470.69
917.5000	470.746
918.0000	470.792
918.5000	470.729
919.0000	470.798
919.5000	470.841
920.0000	470.778
920.5000	470.844
921.0000	470.875
921.5000	470.884
922.0000	470.995
922.5000	471.04
923.0000	471.057
923.5000	471.026
924.0000	471.009
924.5000	471.089
925.0000	471.148
925.5000	471.182
926.0000	471.269
926.5000	471.251
927.0000	471.275
927.5000	471.402
928.0000	471.41
928.5000	471.417
929.0000	471.435
929.5000	471.446
930.0000	471.435
930.5000	471.486
931.0000	471.526
931.5000	471.516
932.0000	471.563
932.5000	471.607
933.0000	471.636
933.5000	471.713
934.0000	471.757
934.5000	471.802
935.0000	471.851
935.5000	471.846
936.0000	471.889
936.5000	471.896
937.0000	471.895
937.5000	471.912
938.0000	471.937
938.5000	471.98
939.0000	472.01
939.5000	472.078
940.0000	472.115
940.5000	472.071
941.0000	472.087
941.5000	472.073
942.0000	472.16
942.5000	472.167
943.0000	472.233
943.5000	472.29
944.0000	472.252
944.5000	472.416
945.0000	472.46
945.5000	472.504
946.0000	472.577
946.5000	472.567
947.0000	472.634
947.5000	472.682
948.0000	472.613
948.5000	472.684
949.0000	472.632
949.5000	472.603
950.0000	472.813
950.5000	472.806
951.0000	472.882
951.5000	472.928
952.0000	472.826
952.5000	472.847
953.0000	472.839
953.5000	472.922
954.0000	472.934
954.5000	473.038
955.0000	473.111
955.5000	473.11
956.0000	473.211
956.5000	473.205
957.0000	473.184
957.5000	473.205
958.0000	473.216
958.5000	473.245
959.0000	473.329
959.5000	473.329
960.0000	473.348
960.5000	473.37
961.0000	473.435
961.5000	473.49
962.0000	473.522
962.5000	473.578
963.0000	473.538
963.5000	473.568
964.0000	473.527
964.5000	473.527
965.0000	473.593
965.5000	473.644
966.0000	473.715
966.5000	473.671
967.0000	473.666
967.5000	473.686
968.0000	473.8
968.5000	473.851
969.0000	473.867
969.5000	473.86
970.0000	473.813
970.5000	473.87
971.0000	473.97
971.5000	474.039
972.0000	474.102
972.5000	474.074
973.0000	474.076
973.5000	474.194
974.0000	474.206
974.5000	474.286
975.0000	474.303
975.5000	474.22
976.0000	474.326
976.5000	474.358
977.0000	474.374
977.5000	474.414
978.0000	474.348
978.5000	474.436
979.0000	474.489
979.5000	474.567
980.0000	474.672
980.5000	474.652
981.0000	474.656
981.5000	474.637
982.0000	474.66
982.5000	474.684
983.0000	474.738
983.5000	474.778
984.0000	474.739
984.5000	474.859
985.0000	474.868
985.5000	474.896
986.0000	475.027
986.5000	474.984
987.0000	474.984
987.5000	475.014
988.0000	474.957
988.5000	474.996
989.0000	475.058
989.5000	475.036
990.0000	475.083
990.5000	475.07
991.0000	475.112
991.5000	475.181
992.0000	475.168
992.5000	475.194
993.0000	475.254
993.5000	475.34
994.0000	475.397
994.5000	475.44
995.0000	475.469
995.5000	475.466
996.0000	475.478
996.5000	475.482
997.0000	475.416
997.5000	475.494
998.0000	475.559
998.5000	475.53
999.0000	475.58
999.5000	475.521
1000.0000	475.466
1000.5000	475.614
1001.0000	475.674
1001.5000	475.76
1002.0000	475.845
1002.5000	475.881
1003.0000	475.932
1003.5000	475.919
1004.0000	476.009
1004.5000	475.995
1005.0000	476.018
1005.5000	476.023
1006.0000	475.994
1006.5000	475.955
1007.0000	476.001
1007.5000	476.024
1008.0000	476.067
1008.5000	476.175
1009.0000	476.113
1009.5000	476.231
1010.0000	476.282
1010.5000	476.299
1011.0000	476.406
1011.5000	476.42
1012.0000	476.401
1012.5000	476.443
1013.0000	476.445
1013.5000	476.424
1014.0000	476.492
1014.5000	476.543
1015.0000	476.555
1015.5000	476.603
1016.0000	476.504
1016.5000	476.425
1017.0000	476.5
1017.5000	476.441
1018.0000	476.541
1018.5000	476.627
1019.0000	476.553
1019.5000	476.602
1020.0000	476.615
1020.5000	476.695
1021.0000	476.705
1021.5000	476.777
1022.0000	476.9
1022.5000	476.958
1023.0000	477.098
1023.5000	477.149
1024.0000	477.171
1024.5000	477.062
1025.0000	477.056
1025.5000	477.113
1026.0000	477.104
1026.5000	477.264
1027.0000	477.283
1027.5000	477.29
1028.0000	477.228
1028.5000	477.146
1029.0000	477.182
1029.5000	477.178
1030.0000	477.224
1030.5000	477.281
1031.0000	477.29
1031.5000	477.262
1032.0000	477.405
1032.5000	477.411
1033.0000	477.451
1033.5000	477.5
1034.0000	477.419
1034.5000	477.402
1035.0000	477.402
1035.5000	477.438
1036.0000	477.536
1036.5000	477.655
1037.0000	477.727
1037.5000	477.793
1038.0000	477.768
1038.5000	477.786
1039.0000	477.795
1039.5000	477.762
1040.0000	477.831
1040.5000	477.8
1041.0000	477.745
1041.5000	477.833
1042.0000	477.822
1042.5000	477.856
1043.0000	477.939
1043.5000	477.971
1044.0000	478.117
1044.5000	478.203
1045.0000	478.213
1045.5000	478.188
1046.0000	478.113
1046.5000	478.09
1047.0000	478.227
1047.5000	478.313
1048.0000	478.337
1048.5000	478.349
1049.0000	478.261
1049.5000	478.228
1050.0000	478.258
1050.5000	478.278
1051.0000	478.329
1051.5000	478.289
1052.0000	478.328
1052.5000	478.437
1053.0000	478.504
1053.5000	478.63
1054.0000	478.63
1054.5000	478.589
1055.0000	478.52
1055.5000	478.519
1056.0000	478.538
1056.5000	478.605
1057.0000	478.75
1057.5000	478.747
1058.0000	478.78
1058.5000	478.755
1059.0000	478.764
1059.5000	478.736
1060.0000	478.704
1060.5000	478.755
1061.0000	478.713
1061.5000	478.848
1062.0000	478.91
1062.5000	478.939
1063.0000	479.018
1063.5000	478.941
1064.0000	478.966
1064.5000	478.954
1065.0000	478.935
1065.5000	479.058
1066.0000	479.062
1066.5000	479.081
1067.0000	479.126
1067.5000	479.058
1068.0000	479.049
1068.5000	479.152
1069.0000	479.154
1069.5000	479.242
1070.0000	479.391
1070.5000	479.4
1071.0000	479.422
1071.5000	479.469
1072.0000	479.475
1072.5000	479.476
1073.0000	479.502
1073.5000	479.489
1074.0000	479.423
1074.5000	479.338
1075.0000	479.35
1075.5000	479.378
1076.0000	479.395
1076.5000	479.486
1077.0000	479.485
1077.5000	479.447
1078.0000	479.463
1078.5000	479.449
1079.0000	479.465
1079.5000	479.53
1080.0000	479.56
1080.5000	479.587
1081.0000	479.601
1081.5000	479.599
1082.0000	479.633
1082.5000	479.687
1083.0000	479.758
1083.5000	479.876
1084.0000	479.854
1084.5000	479.919
1085.0000	479.936
1085.5000	479.902
1086.0000	479.964
1086.5000	479.989
1087.0000	479.993
1087.5000	479.969
1088.0000	479.969
1088.5000	479.913
1089.0000	479.944
1089.5000	479.982
1090.0000	480.018
1090.5000	480.075
1091.0000	480.094
1091.5000	480.075
1092.0000	480.076
1092.5000	480.085
1093.0000	480.14
1093.5000	480.197
1094.0000	480.285
1094.5000	480.35
1095.0000	480.253
1095.5000	480.293
1096.0000	480.308
1096.5000	480.301
1097.0000	480.453
1097.5000	480.436
1098.0000	480.449
1098.5000	480.472
1099.0000	480.502
1099.5000	480.566
1100.0000	480.604
1100.5000	480.614
1101.0000	480.548
1101.5000	480.569
1102.0000	480.508
1102.5000	480.624
1103.0000	480.704
1103.5000	480.727
1104.0000	480.761
1104.5000	480.665
1105.0000	480.673
1105.5000	480.688
1106.0000	480.746
1106.5000	480.785
1107.0000	480.813
1107.5000	480.843
1108.0000	480.848
1108.5000	480.872
1109.0000	480.832
1109.5000	480.85
1110.0000	481.003
1110.5000	481.012
1111.0000	481.073
1111.5000	481.103
1112.0000	481.022
1112.5000	481.05
1113.0000	481.053
1113.5000	481.035
1114.0000	481.102
1114.5000	481.192
1115.0000	481.209
1115.5000	481.248
1116.0000	481.236
1116.5000	481.163
1117.0000	481.229
1117.5000	481.289
1118.0000	481.37
1118.5000	481.407
1119.0000	481.375
1119.5000	481.289
1120.0000	481.185
1120.5000	481.253
1121.0000	481.349
1121.5000	481.353
1122.0000	481.427
1122.5000	481.38
1123.0000	481.321
1123.5000	481.447
1124.0000	481.434
1124.5000	481.508
1125.0000	481.492
1125.5000	481.423
1126.0000	481.437
1126.5000	481.497
1127.0000	481.558
1127.5000	481.603
1128.0000	481.671
1128.5000	481.733
1129.0000	481.769
1129.5000	481.867
1130.0000	481.923
1130.5000	481.874
1131.0000	481.918
1131.5000	481.841
1132.0000	481.769
1132.5000	481.788
1133.0000	481.808
1133.5000	481.876
1134.0000	481.902
1134.5000	481.899
1135.0000	481.89
1135.5000	481.909
1136.0000	481.921
1136.5000	481.951
1137.0000	481.956
1137.5000	481.949
1138.0000	482.018
1138.5000	482.006
1139.0000	482.027
1139.5000	482.041
1140.0000	481.96
1140.5000	481.921
1141.0000	481.989
1141.5000	482.008
1142.0000	482.115
1142.5000	482.203
1143.0000	482.219
1143.5000	482.261
1144.0000	482.315
1144.5000	482.331
1145.0000	482.246
1145.5000	482.302
1146.0000	482.242
1146.5000	482.258
1147.0000	482.296
1147.5000	482.308
1148.0000	482.383
1148.5000	482.438
1149.0000	482.496
1149.5000	482.481
1150.0000	482.466
1150.5000	482.452
1151.0000	482.457
1151.5000	482.475
1152.0000	482.487
1152.5000	482.499
1153.0000	482.525
1153.5000	482.472
1154.0000	482.481
1154.5000	482.505
1155.0000	482.555
1155.5000	482.664
1156.0000	482.678
1156.5000	482.622
1157.0000	482.596
1157.5000	482.556
1158.0000	482.557
1158.5000	482.669
1159.0000	482.721
1159.5000	482.73
1160.0000	482.771
1160.5000	482.699
1161.0000	482.724
1161.5000	482.826
1162.0000	482.848
1162.5000	482.871
1163.0000	482.85
1163.5000	482.795
1164.0000	482.811
1164.5000	482.855
1165.0000	482.915
1165.5000	482.894
1166.0000	482.931
1166.5000	482.958
1167.0000	482.971
1167.5000	483.083
1168.0000	483.043
1168.5000	483.063
1169.0000	483.101
1169.5000	483.174
1170.0000	483.178
1170.5000	483.134
1171.0000	483.12
1171.5000	483.12
1172.0000	483.216
1172.5000	483.351
1173.0000	483.332
1173.5000	483.303
1174.0000	483.372
1174.5000	483.307
1175.0000	483.353
1175.5000	483.391
1176.0000	483.339
1176.5000	483.447
1177.0000	483.424
1177.5000	483.384
1178.0000	483.373
1178.5000	483.378
1179.0000	483.396
1179.5000	483.469
1180.0000	483.491
1180.5000	483.459
1181.0000	483.479
1181.5000	483.394
1182.0000	483.531
1182.5000	483.574
1183.0000	483.634
1183.5000	483.695
1184.0000	483.677
1184.5000	483.712
1185.0000	483.641
1185.5000	483.697
1186.0000	483.66
1186.5000	483.605
1187.0000	483.706
1187.5000	483.725
1188.0000	483.692
1188.5000	483.822
1189.0000	483.794
1189.5000	483.78
1190.0000	483.816
1190.5000	483.7
1191.0000	483.709
1191.5000	483.691
1192.0000	483.673
1192.5000	483.78
1193.0000	483.829
1193.5000	483.933
1194.0000	483.974
1194.5000	483.937
1195.0000	483.963
1195.5000	483.947
1196.0000	483.978
1196.5000	483.99
1197.0000	483.994
1197.5000	484.033
1198.0000	484.062
1198.5000	484.095
1199.0000	484.119
1199.5000	484.115
1200.0000	484.12
1200.5000	484.159
1201.0000	484.12
1201.5000	484.129
1202.0000	484.196
1202.5000	484.257
1203.0000	484.346
1203.5000	484.312
1204.0000	484.221
1204.5000	484.216
1205.0000	484.207
1205.5000	484.282
1206.0000	484.352
1206.5000	484.326
1207.0000	484.308
1207.5000	484.292
1208.0000	484.324
1208.5000	484.335
1209.0000	484.415
1209.5000	484.431
1210.0000	484.44
1210.5000	484.473
1211.0000	484.431
1211.5000	484.437
1212.0000	484.447
1212.5000	484.397
1213.0000	484.476
1213.5000	484.527
1214.0000	484.531
1214.5000	484.55
1215.0000	484.491
1215.5000	484.547
1216.0000	484.544
1216.5000	484.591
1217.0000	484.611
1217.5000	484.599
1218.0000	484.603
1218.5000	484.55
1219.0000	484.59
1219.5000	484.583
1220.0000	484.648
1220.5000	484.724
1221.0000	484.737
1221.5000	484.718
1222.0000	484.736
1222.5000	484.772
1223.0000	484.78
1223.5000	484.773
1224.0000	484.745
1224.5000	484.736
1225.0000	484.815
1225.5000	484.83
1226.0000	484.872
1226.5000	484.857
1227.0000	484.821
1227.5000	484.849
1228.0000	484.861
1228.5000	484.934
1229.0000	484.936
1229.5000	484.988
1230.0000	484.883
1230.5000	484.795
1231.0000	484.859
1231.5000	484.902
1232.0000	485.013
1232.5000	485.084
1233.0000	485.029
1233.5000	484.969
1234.0000	484.981
1234.5000	485.027
1235.0000	485.058
1235.5000	485.132
1236.0000	485.14
1236.5000	485.081
1237.0000	485.073
1237.5000	485.003
1238.0000	485.025
1238.5000	485.053
1239.0000	485.073
1239.5000	485.114
1240.0000	485.102
1240.5000	485.157
1241.0000	485.217
1241.5000	485.256
1242.0000	485.297
1242.5000	485.346
1243.0000	485.324
1243.5000	485.273
1244.0000	485.276
1244.5000	485.188
1245.0000	485.168
1245.5000	485.183
1246.0000	485.247
1246.5000	485.339
1247.0000	485.351
1247.5000	485.336
1248.0000	485.304
1248.5000	485.26
1249.0000	485.205
1249.5000	485.329
1250.0000	485.281
1250.5000	485.284
1251.0000	485.469
1251.5000	485.428
1252.0000	485.371
1252.5000	485.364
1253.0000	485.33
1253.5000	485.318
1254.0000	485.441
1254.5000	485.53
1255.0000	485.526
1255.5000	485.593
1256.0000	485.598
1256.5000	485.605
1257.0000	485.625
1257.5000	485.534
1258.0000	485.533
1258.5000	485.435
1259.0000	485.375
1259.5000	485.472
1260.0000	485.454
1260.5000	485.552
1261.0000	485.61
1261.5000	485.591
1262.0000	485.603
1262.5000	485.668
1263.0000	485.725
1263.5000	485.697
1264.0000	485.723
1264.5000	485.744
1265.0000	485.717
1265.5000	485.806
1266.0000	485.832
1266.5000	485.769
1267.0000	485.812
1267.5000	485.755
1268.0000	485.793
1268.5000	485.799
1269.0000	485.783
1269.5000	485.823
1270.0000	485.828
1270.5000	485.798
1271.0000	485.829
1271.5000	485.888
1272.0000	485.949
1272.5000	486.006
1273.0000	485.978
1273.5000	485.897
1274.0000	485.885
1274.5000	485.88
1275.0000	485.92
1275.5000	485.95
1276.0000	485.888
1276.5000	485.919
1277.0000	485.904
1277.5000	485.934
1278.0000	485.943
1278.5000	485.928
1279.0000	485.98
1279.5000	486.022
1280.0000	486.055
1280.5000	486.058
1281.0000	485.991
1281.5000	485.943
1282.0000	485.954
1282.5000	486.022
1283.0000	486.016
1283.5000	486.053
1284.0000	486.062
1284.5000	485.989
1285.0000	486.027
1285.5000	486.005
1286.0000	485.923
1286.5000	486.026
1287.0000	486.009
1287.5000	486.007
1288.0000	486.091
1288.5000	486.08
1289.0000	486.075
1289.5000	486.129
1290.0000	486.127
1290.5000	486.108
1291.0000	486.197
1291.5000	486.204
1292.0000	486.227
1292.5000	486.155
1293.0000	486.145
1293.5000	486.171
1294.0000	486.196
1294.5000	486.286
1295.0000	486.296
1295.5000	486.322
1296.0000	486.267
1296.5000	486.297
1297.0000	486.258
1297.5000	486.191
1298.0000	486.23
1298.5000	486.181
1299.0000	486.209
1299.5000	486.268
1300.0000	486.302
1300.5000	486.339
1301.0000	486.235
1301.5000	486.242
1302.0000	486.223
1302.5000	486.228
1303.0000	486.351
1303.5000	486.365
1304.0000	486.392
1304.5000	486.428
1305.0000	486.455
1305.5000	486.475
1306.0000	486.461
1306.5000	486.353
1307.0000	486.351
1307.5000	486.363
1308.0000	486.416
1308.5000	486.542
1309.0000	486.549
1309.5000	486.551
1310.0000	486.517
1310.5000	486.45
1311.0000	486.441
1311.5000	486.459
1312.0000	486.521
1312.5000	486.581
1313.0000	486.618
1313.5000	486.563
1314.0000	486.501
1314.5000	486.443
1315.0000	486.465
1315.5000	486.492
1316.0000	486.553
1316.5000	486.618
1317.0000	486.642
1317.5000	486.64
1318.0000	486.608
1318.5000	486.655
1319.0000	486.625
1319.5000	486.619
1320.0000	486.663
1320.5000	486.692
1321.0000	486.724
1321.5000	486.781
1322.0000	486.703
1322.5000	486.58
1323.0000	486.508
1323.5000	486.5
1324.0000	486.584
1324.5000	486.638
1325.0000	486.75
1325.5000	486.752
1326.0000	486.805
1326.5000	486.829
1327.0000	486.787
1327.5000	486.845
1328.0000	486.87
1328.5000	486.811
1329.0000	486.878
1329.5000	486.835
1330.0000	486.698
1330.5000	486.778
1331.0000	486.735
1331.5000	486.715
1332.0000	486.758
1332.5000	486.741
1333.0000	486.794
1333.5000	486.814
1334.0000	486.858
1334.5000	486.94
1335.0000	486.906
1335.5000	486.927
1336.0000	486.996
1336.5000	486.99
1337.0000	487.033
1337.5000	487.019
1338.0000	487.019
1338.5000	487.027
1339.0000	486.967
1339.5000	487.008
1340.0000	486.946
1340.5000	486.9
1341.0000	486.919
1341.5000	486.871
1342.0000	486.956
1342.5000	486.96
1343.0000	487
1343.5000	487.082
1344.0000	486.953
1344.5000	486.967
1345.0000	486.975
1345.5000	486.97
1346.0000	487
1346.5000	486.997
1347.0000	486.988
1347.5000	487.002
1348.0000	487.117
1348.5000	487.08
1349.0000	487.074
1349.5000	487.003
1350.0000	486.938
1350.5000	487.049
1351.0000	486.976
1351.5000	487.05
1352.0000	487.055
1352.5000	487.067
1353.0000	487.168
1353.5000	487.176
1354.0000	487.207
1354.5000	487.146
1355.0000	487.15
1355.5000	487.068
1356.0000	487.121
1356.5000	487.123
1357.0000	487.185
1357.5000	487.224
1358.0000	487.16
1358.5000	487.194
1359.0000	487.085
1359.5000	487.112
1360.0000	487.12
1360.5000	487.072
1361.0000	487.154
1361.5000	487.177
1362.0000	487.185
1362.5000	487.222
1363.0000	487.101
1363.5000	487.059
1364.0000	487.08
1364.5000	487.104
1365.0000	487.185
1365.5000	487.219
1366.0000	487.252
1366.5000	487.2
1367.0000	487.19
1367.5000	487.221
1368.0000	487.201
1368.5000	487.227
1369.0000	487.278
1369.5000	487.285
1370.0000	487.266
1370.5000	487.283
1371.0000	487.234
1371.5000	487.111
1372.0000	487.142
1372.5000	487.152
1373.0000	487.121
1373.5000	487.276
1374.0000	487.283
1374.5000	487.301
1375.0000	487.367
1375.5000	487.311
1376.0000	487.243
1376.5000	487.239
1377.0000	487.221
1377.5000	487.194
1378.0000	487.228
1378.5000	487.237
1379.0000	487.268
1379.5000	487.277
1380.0000	487.41
1380.5000	487.356
1381.0000	487.287
1381.5000	487.288
1382.0000	487.25
1382.5000	487.318
1383.0000	487.364
1383.5000	487.371
1384.0000	487.291
1384.5000	487.347
1385.0000	487.35
1385.5000	487.386
1386.0000	487.416
1386.5000	487.394
1387.0000	487.45
1387.5000	487.476
1388.0000	487.486
1388.5000	487.491
1389.0000	487.444
1389.5000	487.414
1390.0000	487.384
1390.5000	487.38
1391.0000	487.442
1391.5000	487.467
1392.0000	487.462
1392.5000	487.482
1393.0000	487.402
1393.5000	487.42
1394.0000	487.42
1394.5000	487.393
1395.0000	487.474
1395.5000	487.47
1396.0000	487.542
1396.5000	487.524
1397.0000	487.503
1397.5000	487.492
1398.0000	487.463
1398.5000	487.464
1399.0000	487.545
1399.5000	487.579
1400.0000	487.583
1400.5000	487.709
1401.0000	487.714
1401.5000	487.725
1402.0000	487.764
1402.5000	487.615
1403.0000	487.519
1403.5000	487.517
1404.0000	487.477
1404.5000	487.54
1405.0000	487.606
1405.5000	487.611
1406.0000	487.669
1406.5000	487.65
1407.0000	487.566
1407.5000	487.53
1408.0000	487.469
1408.5000	487.504
1409.0000	487.552
1409.5000	487.621
1410.0000	487.577
1410.5000	487.595
1411.0000	487.643
1411.5000	487.602
1412.0000	487.61
1412.5000	487.637
1413.0000	487.638
1413.5000	487.648
1414.0000	487.662
1414.5000	487.528
1415.0000	487.508
1415.5000	487.515
1416.0000	487.548
1416.5000	487.625
1417.0000	487.62
1417.5000	487.633
1418.0000	487.713
1418.5000	487.698
1419.0000	487.757
1419.5000	487.741
1420.0000	487.731
1420.5000	487.739
1421.0000	487.639
1421.5000	487.669
1422.0000	487.612
1422.5000	487.643
1423.0000	487.688
1423.5000	487.672
1424.0000	487.671
1424.5000	487.768
1425.0000	487.782
1425.5000	487.796
1426.0000	487.833
1426.5000	487.709
1427.0000	487.695
1427.5000	487.645
1428.0000	487.674
1428.5000	487.744
1429.0000	487.755
1429.5000	487.839
1430.0000	487.769
1430.5000	487.715
1431.0000	487.697
1431.5000	487.687
1432.0000	487.759
1432.5000	487.779
1433.0000	487.758
1433.5000	487.716
1434.0000	487.651
1434.5000	487.673
1435.0000	487.749
1435.5000	487.791
1436.0000	487.863
1436.5000	487.845
1437.0000	487.777
1437.5000	487.772
1438.0000	487.742
1438.5000	487.722
1439.0000	487.734
1439.5000	487.7
1440.0000	487.683
1440.5000	487.683
1441.0000	487.723
1441.5000	487.78
1442.0000	487.813
1442.5000	487.823
1443.0000	487.817
1443.5000	487.681
1444.0000	487.673
1444.5000	487.699
1445.0000	487.697
1445.5000	487.746
1446.0000	487.758
1446.5000	487.756
1447.0000	487.812
1447.5000	487.831
1448.0000	487.789
1448.5000	487.791
1449.0000	487.757
1449.5000	487.786
1450.0000	487.757
1450.5000	487.869
1451.0000	487.813
1451.5000	487.832
1452.0000	487.92
1452.5000	487.791
1453.0000	487.871
1453.5000	487.886
1454.0000	487.877
1454.5000	487.856
1455.0000	487.834
1455.5000	487.83
1456.0000	487.811
1456.5000	487.887
1457.0000	487.892
1457.5000	487.874
1458.0000	487.955
1458.5000	487.947
1459.0000	487.938
1459.5000	487.965
1460.0000	487.893
1460.5000	487.921
1461.0000	488.006
1461.5000	487.984
1462.0000	487.975
1462.5000	487.944
1463.0000	487.868
1463.5000	487.871
1464.0000	487.898
1464.5000	487.892
1465.0000	487.873
1465.5000	487.881
1466.0000	487.915
1466.5000	487.893
1467.0000	487.961
1467.5000	487.96
1468.0000	487.905
1468.5000	487.97
1469.0000	487.927
1469.5000	487.953
1470.0000	488.007
1470.5000	487.953
1471.0000	487.937
1471.5000	487.88
1472.0000	487.874
1472.5000	487.915
1473.0000	487.902
1473.5000	487.914
1474.0000	487.897
1474.5000	487.955
1475.0000	488.005
1475.5000	487.998
1476.0000	488.024
1476.5000	487.929
1477.0000	487.918
1477.5000	488.004
1478.0000	488.029
1478.5000	488.15
1479.0000	488.177
1479.5000	488.117
1480.0000	488.015
1480.5000	487.955
1481.0000	487.942
1481.5000	487.947
1482.0000	487.996
1482.5000	487.975
1483.0000	487.93
1483.5000	487.937
1484.0000	487.963
1484.5000	487.961
1485.0000	488.029
1485.5000	488.053
1486.0000	487.985
1486.5000	488.011
1487.0000	488.049
1487.5000	487.982
1488.0000	487.988
1488.5000	488.003
1489.0000	487.93
1489.5000	487.926
1490.0000	487.993
1490.5000	488.009
1491.0000	488.02
1491.5000	488.064
1492.0000	488.073
1492.5000	488.004
1493.0000	488.059
1493.5000	488.086
1494.0000	488.036
1494.5000	488.059
1495.0000	487.966
1495.5000	487.989
1496.0000	488.007
1496.5000	488.065
1497.0000	488.054
1497.5000	488.027
1498.0000	488.035
1498.5000	487.947
1499.0000	488
1499.5000	488.028
1500.0000	488.086
1500.5000	488.148
1501.0000	488.257
1501.5000	488.231
1502.0000	488.176
1502.5000	488.174
1503.0000	488.104
1503.5000	488.112
1504.0000	488.125
1504.5000	488.094
1505.0000	488.071
1505.5000	488.035
1506.0000	488.074
1506.5000	488.084
1507.0000	488.117
1507.5000	488.148
1508.0000	488.075
1508.5000	488.017
1509.0000	488.023
1509.5000	488.057
1510.0000	488.069
1510.5000	488.08
1511.0000	488.068
1511.5000	488.088
1512.0000	488.157
1512.5000	488.283
1513.0000	488.218
1513.5000	488.183
1514.0000	488.11
1514.5000	488.056
1515.0000	488.109
1515.5000	488.07
1516.0000	488.033
1516.5000	488.05
1517.0000	488.03
1517.5000	488.06
1518.0000	488.122
1518.5000	488.081
1519.0000	488.108
1519.5000	488.054
1520.0000	488.02
1520.5000	488.08
1521.0000	488.093
1521.5000	488.143
1522.0000	488.111
1522.5000	488.005
1523.0000	487.973
1523.5000	487.877
1524.0000	487.944
1524.5000	488.025
1525.0000	488.007
1525.5000	488.101
1526.0000	488.1
1526.5000	488.143
1527.0000	488.094
1527.5000	488.096
1528.0000	488.064
1528.5000	487.933
1529.0000	488.063
1529.5000	488.103
1530.0000	488.136
1530.5000	488.175
1531.0000	488.098
1531.5000	488.046
1532.0000	488.095
1532.5000	488.078
1533.0000	488.067
1533.5000	488.11
1534.0000	488.127
1534.5000	488.124
1535.0000	488.144
1535.5000	488.079
1536.0000	488.017
1536.5000	488.016
1537.0000	487.987
1537.5000	488
1538.0000	487.952
1538.5000	487.955
1539.0000	488.043
1539.5000	488.057
1540.0000	488.132
1540.5000	488.192
1541.0000	488.096
1541.5000	488.159
1542.0000	488.106
1542.5000	488.037
1543.0000	488.028
1543.5000	487.986
1544.0000	487.961
1544.5000	487.989
1545.0000	487.994
1545.5000	487.907
1546.0000	487.891
1546.5000	487.878
1547.0000	487.946
1547.5000	487.975
1548.0000	487.99
1548.5000	487.942
1549.0000	487.906
1549.5000	487.864
1550.0000	487.868
1550.5000	487.909
1551.0000	487.878
1551.5000	487.944
1552.0000	487.999
1552.5000	488.008
1553.0000	488.059
1553.5000	488.052
1554.0000	488.069
1554.5000	488.109
1555.0000	488.041
1555.5000	487.968
1556.0000	487.913
1556.5000	487.897
1557.0000	487.914
1557.5000	488.023
1558.0000	488.093
1558.5000	488.058
1559.0000	488.086
1559.5000	488.043
1560.0000	487.974
1560.5000	488.012
1561.0000	487.996
1561.5000	488.058
1562.0000	488.063
1562.5000	488.068
1563.0000	488.029
1563.5000	488.013
1564.0000	488.036
1564.5000	487.965
1565.0000	488.042
1565.5000	487.992
1566.0000	487.967
1566.5000	488.045
1567.0000	487.958
1567.5000	488.009
1568.0000	488.054
1568.5000	487.994
1569.0000	488.037
1569.5000	488.059
1570.0000	487.99
1570.5000	487.878
1571.0000	487.906
1571.5000	487.817
1572.0000	487.875
1572.5000	487.995
1573.0000	487.983
1573.5000	488.025
1574.0000	487.977
1574.5000	487.893
1575.0000	487.857
1575.5000	487.856
1576.0000	487.857
1576.5000	487.96
1577.0000	487.998
1577.5000	488.01
1578.0000	488.042
1578.5000	488.012
1579.0000	487.97
1579.5000	487.98
1580.0000	487.97
1580.5000	487.945
1581.0000	487.99
1581.5000	487.942
1582.0000	487.951
1582.5000	488.002
1583.0000	487.969
1583.5000	488.01
1584.0000	487.983
1584.5000	487.969
1585.0000	488.029
1585.5000	488.054
1586.0000	488.106
1586.5000	488.139
1587.0000	488.123
1587.5000	488.036
1588.0000	487.986
1588.5000	488.018
1589.0000	487.964
1589.5000	487.998
1590.0000	488.014
1590.5000	487.968
1591.0000	487.943
1591.5000	487.947
1592.0000	487.922
1592.5000	487.918
1593.0000	487.978
1593.5000	487.928
1594.0000	488
1594.5000	487.97
1595.0000	487.934
1595.5000	488.094
1596.0000	488.029
1596.5000	488.089
1597.0000	488.164
1597.5000	488.046
1598.0000	488.004
1598.5000	487.932
1599.0000	487.902
1599.5000	487.89
1600.0000	487.917
1600.5000	487.972
1601.0000	487.97
1601.5000	487.961
1602.0000	487.975
1602.5000	488
1603.0000	487.952
1603.5000	487.909
1604.0000	487.849
1604.5000	487.79
1605.0000	487.812
1605.5000	487.861
1606.0000	487.921
1606.5000	487.875
1607.0000	487.954
1607.5000	487.988
1608.0000	487.996
1608.5000	488
1609.0000	487.962
1609.5000	487.992
1610.0000	487.988
1610.5000	488.042
1611.0000	488.058
1611.5000	488.016
1612.0000	488
1612.5000	487.938
1613.0000	487.878
1613.5000	487.826
1614.0000	487.786
1614.5000	487.779
1615.0000	487.821
1615.5000	487.829
1616.0000	487.886
1616.5000	487.89
1617.0000	487.799
1617.5000	487.79
1618.0000	487.824
1618.5000	487.853
1619.0000	487.857
1619.5000	487.93
1620.0000	487.889
1620.5000	487.874
1621.0000	487.9
1621.5000	487.844
1622.0000	487.762
1622.5000	487.803
1623.0000	487.858
1623.5000	487.835
1624.0000	487.855
1624.5000	487.774
1625.0000	487.717
1625.5000	487.731
1626.0000	487.736
1626.5000	487.733
1627.0000	487.743
1627.5000	487.688
1628.0000	487.696
1628.5000	487.73
1629.0000	487.707
1629.5000	487.799
1630.0000	487.81
1630.5000	487.888
1631.0000	487.844
1631.5000	487.83
1632.0000	487.824
1632.5000	487.772
1633.0000	487.856
1633.5000	487.809
1634.0000	487.852
1634.5000	487.784
1635.0000	487.758
1635.5000	487.785
1636.0000	487.767
1636.5000	487.815
1637.0000	487.782
1637.5000	487.779
1638.0000	487.729
1638.5000	487.705
1639.0000	487.796
1639.5000	487.792
1640.0000	487.861
1640.5000	487.902
1641.0000	487.865
1641.5000	487.881
1642.0000	487.901
1642.5000	487.888
1643.0000	487.892
1643.5000	487.879
1644.0000	487.793
1644.5000	487.862
1645.0000	487.881
1645.5000	487.9
1646.0000	487.911
1646.5000	487.805
1647.0000	487.823
1647.5000	487.78
1648.0000	487.809
1648.5000	487.808
1649.0000	487.675
1649.5000	487.661
1650.0000	487.651
1650.5000	487.667
1651.0000	487.771
1651.5000	487.759
1652.0000	487.713
1652.5000	487.751
1653.0000	487.704
1653.5000	487.795
1654.0000	487.83
1654.5000	487.854
1655.0000	487.89
1655.5000	487.852
1656.0000	487.917
1656.5000	487.883
1657.0000	487.898
1657.5000	487.864
1658.0000	487.802
1658.5000	487.803
1659.0000	487.737
1659.5000	487.705
1660.0000	487.706
1660.5000	487.71
1661.0000	487.699
1661.5000	487.755
1662.0000	487.75
1662.5000	487.732
1663.0000	487.778
1663.5000	487.808
1664.0000	487.84
1664.5000	487.862
1665.0000	487.835
1665.5000	487.862
1666.0000	487.868
1666.5000	487.844
1667.0000	487.875
1667.5000	487.824
1668.0000	487.829
1668.5000	487.81
1669.0000	487.789
1669.5000	487.762
1670.0000	487.707
1670.5000	487.799
1671.0000	487.774
1671.5000	487.84
1672.0000	487.859
1672.5000	487.837
1673.0000	487.834
1673.5000	487.792
1674.0000	487.795
1674.5000	487.774
1675.0000	487.807
1675.5000	487.766
1676.0000	487.77
1676.5000	487.739
1677.0000	487.731
1677.5000	487.819
1678.0000	487.826
1678.5000	487.757
1679.0000	487.776
1679.5000	487.734
1680.0000	487.689
1680.5000	487.776
1681.0000	487.793
1681.5000	487.785
1682.0000	487.84
1682.5000	487.809
1683.0000	487.754
1683.5000	487.738
1684.0000	487.768
1684.5000	487.817
1685.0000	487.84
1685.5000	487.849
1686.0000	487.792
1686.5000	487.742
1687.0000	487.695
1687.5000	487.687
1688.0000	487.726
1688.5000	487.727
1689.0000	487.82
1689.5000	487.852
1690.0000	487.841
1690.5000	487.849
1691.0000	487.818
1691.5000	487.813
1692.0000	487.82
1692.5000	487.83
1693.0000	487.825
1693.5000	487.79
1694.0000	487.812
1694.5000	487.84
1695.0000	487.841
1695.5000	487.856
1696.0000	487.743
1696.5000	487.708
1697.0000	487.669
1697.5000	487.678
1698.0000	487.742
1698.5000	487.769
1699.0000	487.811
1699.5000	487.747
1700.0000	487.763
1700.5000	487.756
1701.0000	487.714
1701.5000	487.777
1702.0000	487.778
1702.5000	487.778
1703.0000	487.77
1703.5000	487.767
1704.0000	487.782
1704.5000	487.778
1705.0000	487.825
1705.5000	487.785
1706.0000	487.763
1706.5000	487.731
1707.0000	487.657
1707.5000	487.658
1708.0000	487.684
1708.5000	487.746
1709.0000	487.807
1709.5000	487.821
1710.0000	487.798
1710.5000	487.761
1711.0000	487.747
1711.5000	487.77
1712.0000	487.79
1712.5000	487.759
1713.0000	487.786
1713.5000	487.682
1714.0000	487.689
1714.5000	487.793
1715.0000	487.75
1715.5000	487.766
1716.0000	487.7
1716.5000	487.589
1717.0000	487.579
1717.5000	487.616
1718.0000	487.574
1718.5000	487.566
1719.0000	487.594
1719.5000	487.596
1720.0000	487.598
1720.5000	487.597
1721.0000	487.606
1721.5000	487.664
1722.0000	487.634
1722.5000	487.663
1723.0000	487.706
1723.5000	487.693
1724.0000	487.797
1724.5000	487.764
1725.0000	487.699
1725.5000	487.703
1726.0000	487.694
1726.5000	487.729
1727.0000	487.709
1727.5000	487.755
1728.0000	487.726
1728.5000	487.707
1729.0000	487.756
1729.5000	487.694
1730.0000	487.727
1730.5000	487.726
1731.0000	487.643
1731.5000	487.679
1732.0000	487.613
1732.5000	487.631
1733.0000	487.689
1733.5000	487.608
1734.0000	487.628
1734.5000	487.641
1735.0000	487.618
1735.5000	487.628
1736.0000	487.621
1736.5000	487.668
1737.0000	487.701
1737.5000	487.621
1738.0000	487.562
1738.5000	487.483
1739.0000	487.444
1739.5000	487.463
1740.0000	487.552
1740.5000	487.549
1741.0000	487.532
