TITLE	
DATA TYPE	
ORIGIN	JASCO
OWNER	
DATE	22/08/26
TIME	09:48:01
SPECTROMETER/DATA SYSTEM	
RESOLUTION	
DELTAX	0.5
XUNITS	SEC
YUNITS	INTENSITY
FIRSTX	0.0000
LASTX	1144.5000
NPOINTS	2290
FIRSTY	493.32071
MAXY	505.74301
MINY	-56.62570
XYDATA
0.0000	493.321
0.5000	493.383
1.0000	493.538
1.5000	493.611
2.0000	493.638
2.5000	493.734
3.0000	493.766
3.5000	493.815
4.0000	493.955
4.5000	493.969
5.0000	494.056
5.5000	494.049
6.0000	494.044
6.5000	494.056
7.0000	494.047
7.5000	494.137
8.0000	494.173
8.5000	494.297
9.0000	494.336
9.5000	494.418
10.0000	494.457
10.5000	494.442
11.0000	494.482
11.5000	494.592
12.0000	494.663
12.5000	494.714
13.0000	494.784
13.5000	494.738
14.0000	494.734
14.5000	494.879
15.0000	494.903
15.5000	494.82
16.0000	485.318
16.5000	467.791
17.0000	424.344
17.5000	35.937
18.0000	-56.6257
18.5000	-36.9763
19.0000	-32.6101
19.5000	-30.9042
20.0000	-29.8884
20.5000	-29.0227
21.0000	-28.4437
21.5000	-27.9227
22.0000	-27.6341
22.5000	-27.5207
23.0000	-27.229
23.5000	-27.0016
24.0000	-26.9215
24.5000	-26.7486
25.0000	-26.572
25.5000	-26.6386
26.0000	-26.5258
26.5000	12.7487
27.0000	319.341
27.5000	301.242
28.0000	295.685
28.5000	290.976
29.0000	269.819
29.5000	270.235
30.0000	270.46
30.5000	270.769
31.0000	271.108
31.5000	271.511
32.0000	271.947
32.5000	272.391
33.0000	272.825
33.5000	273.226
34.0000	273.701
34.5000	274.112
35.0000	274.541
35.5000	274.971
36.0000	275.402
36.5000	275.881
37.0000	276.369
37.5000	276.899
38.0000	277.35
38.5000	277.807
39.0000	278.301
39.5000	278.733
40.0000	279.226
40.5000	279.705
41.0000	280.132
41.5000	280.623
42.0000	281.068
42.5000	281.488
43.0000	281.95
43.5000	282.386
44.0000	282.853
44.5000	283.344
45.0000	283.794
45.5000	284.214
46.0000	284.63
46.5000	285.021
47.0000	285.422
47.5000	285.91
48.0000	286.289
48.5000	286.76
49.0000	287.179
49.5000	287.572
50.0000	288.011
50.5000	288.413
51.0000	288.868
51.5000	289.284
52.0000	289.737
52.5000	290.117
53.0000	290.526
53.5000	290.883
54.0000	291.264
54.5000	291.707
55.0000	292.088
55.5000	292.526
56.0000	292.942
56.5000	293.318
57.0000	293.694
57.5000	294.089
58.0000	294.437
58.5000	294.803
59.0000	295.187
59.5000	295.522
60.0000	295.902
60.5000	296.23
61.0000	296.643
61.5000	297.041
62.0000	297.409
62.5000	297.885
63.0000	298.252
63.5000	298.65
64.0000	299.061
64.5000	299.428
65.0000	299.829
65.5000	300.235
66.0000	300.67
66.5000	301.058
67.0000	301.477
67.5000	301.879
68.0000	302.301
68.5000	302.738
69.0000	303.176
69.5000	303.625
70.0000	304.002
70.5000	304.424
71.0000	304.833
71.5000	305.247
72.0000	305.651
72.5000	306.028
73.0000	306.453
73.5000	306.838
74.0000	307.292
74.5000	307.779
75.0000	308.231
75.5000	308.657
76.0000	309.083
76.5000	309.495
77.0000	309.894
77.5000	310.381
78.0000	310.819
78.5000	311.237
79.0000	311.658
79.5000	312.03
80.0000	312.473
80.5000	312.901
81.0000	313.335
81.5000	313.8
82.0000	314.182
82.5000	314.615
83.0000	315.068
83.5000	315.473
84.0000	315.941
84.5000	316.365
85.0000	316.777
85.5000	317.227
86.0000	317.688
86.5000	318.164
87.0000	318.593
87.5000	319.066
88.0000	319.529
88.5000	320.004
89.0000	320.466
89.5000	320.96
90.0000	321.372
90.5000	321.789
91.0000	322.242
91.5000	322.616
92.0000	323.029
92.5000	323.526
93.0000	324.006
93.5000	324.486
94.0000	324.977
94.5000	325.405
95.0000	325.907
95.5000	326.36
96.0000	326.883
96.5000	327.36
97.0000	327.786
97.5000	328.265
98.0000	328.711
98.5000	329.122
99.0000	329.541
99.5000	329.973
100.0000	330.465
100.5000	330.968
101.0000	331.467
101.5000	332.005
102.0000	332.414
102.5000	332.884
103.0000	333.333
103.5000	333.806
104.0000	334.259
104.5000	334.714
105.0000	335.199
105.5000	335.628
106.0000	336.074
106.5000	336.513
107.0000	336.931
107.5000	337.377
108.0000	337.848
108.5000	338.309
109.0000	338.74
109.5000	339.115
110.0000	339.526
110.5000	339.971
111.0000	340.46
111.5000	340.966
112.0000	341.409
112.5000	341.867
113.0000	342.292
113.5000	342.673
114.0000	343.155
114.5000	343.538
115.0000	343.946
115.5000	344.438
116.0000	344.869
116.5000	345.38
117.0000	345.846
117.5000	346.276
118.0000	346.703
118.5000	347.075
119.0000	347.507
119.5000	347.888
120.0000	348.291
120.5000	348.686
121.0000	349.066
121.5000	349.541
122.0000	349.972
122.5000	350.378
123.0000	350.81
123.5000	351.211
124.0000	351.601
124.5000	352.019
125.0000	352.425
125.5000	352.79
126.0000	353.237
126.5000	353.675
127.0000	354.046
127.5000	354.452
128.0000	354.846
128.5000	355.237
129.0000	355.69
129.5000	356.131
130.0000	356.57
130.5000	356.995
131.0000	357.389
131.5000	357.788
132.0000	358.174
132.5000	358.547
133.0000	358.979
133.5000	359.352
134.0000	359.733
134.5000	360.141
135.0000	360.523
135.5000	360.949
136.0000	361.354
136.5000	361.743
137.0000	362.102
137.5000	362.475
138.0000	362.86
138.5000	363.263
139.0000	363.655
139.5000	364.053
140.0000	364.391
140.5000	364.716
141.0000	365.171
141.5000	365.585
142.0000	365.971
142.5000	366.402
143.0000	366.767
143.5000	367.124
144.0000	367.562
144.5000	367.949
145.0000	368.295
145.5000	368.643
146.0000	369.029
146.5000	369.406
147.0000	369.782
147.5000	370.134
148.0000	370.466
148.5000	370.856
149.0000	371.22
149.5000	371.671
150.0000	372.026
150.5000	372.398
151.0000	372.698
151.5000	373.071
152.0000	373.426
152.5000	373.784
153.0000	374.22
153.5000	374.537
154.0000	374.922
154.5000	375.302
155.0000	375.618
155.5000	375.952
156.0000	376.348
156.5000	376.672
157.0000	377.056
157.5000	377.517
158.0000	377.903
158.5000	378.279
159.0000	378.639
159.5000	378.935
160.0000	379.278
160.5000	379.677
161.0000	380.03
161.5000	380.408
162.0000	380.798
162.5000	381.111
163.0000	381.453
163.5000	381.753
164.0000	382.032
164.5000	382.424
165.0000	382.81
165.5000	383.15
166.0000	383.44
166.5000	383.725
167.0000	384.082
167.5000	384.482
168.0000	384.879
168.5000	385.229
169.0000	385.505
169.5000	385.845
170.0000	386.153
170.5000	386.423
171.0000	386.775
171.5000	387.098
172.0000	387.476
172.5000	387.877
173.0000	388.253
173.5000	388.58
174.0000	388.873
174.5000	389.207
175.0000	389.524
175.5000	389.823
176.0000	390.117
176.5000	390.393
177.0000	390.672
177.5000	391.014
178.0000	391.41
178.5000	391.763
179.0000	392.137
179.5000	392.451
180.0000	392.729
180.5000	393.083
181.0000	393.367
181.5000	393.667
182.0000	394.003
182.5000	394.348
183.0000	394.677
183.5000	395.08
184.0000	395.334
184.5000	395.66
185.0000	396.027
185.5000	396.258
186.0000	396.625
186.5000	396.863
187.0000	397.172
187.5000	397.522
188.0000	397.877
188.5000	398.157
189.0000	398.39
189.5000	398.679
190.0000	398.994
190.5000	399.33
191.0000	399.687
191.5000	400.023
192.0000	400.294
192.5000	400.661
193.0000	400.972
193.5000	401.236
194.0000	401.557
194.5000	401.774
195.0000	402.075
195.5000	402.451
196.0000	402.793
196.5000	403.083
197.0000	403.403
197.5000	403.673
198.0000	403.959
198.5000	404.35
199.0000	404.658
199.5000	404.972
200.0000	405.224
200.5000	405.484
201.0000	405.716
201.5000	406.015
202.0000	406.345
202.5000	406.615
203.0000	406.893
203.5000	407.165
204.0000	407.458
204.5000	407.772
205.0000	408.154
205.5000	408.409
206.0000	408.675
206.5000	409.013
207.0000	409.286
207.5000	409.623
208.0000	409.897
208.5000	410.111
209.0000	410.434
209.5000	410.631
210.0000	410.918
210.5000	411.213
211.0000	411.425
211.5000	411.752
212.0000	412.093
212.5000	412.425
213.0000	412.69
213.5000	413.003
214.0000	413.268
214.5000	413.496
215.0000	413.766
215.5000	414.013
216.0000	414.291
216.5000	414.551
217.0000	414.808
217.5000	415.103
218.0000	415.337
218.5000	415.659
219.0000	415.976
219.5000	416.28
220.0000	416.505
220.5000	416.753
221.0000	417.058
221.5000	417.273
222.0000	417.622
222.5000	417.892
223.0000	418.194
223.5000	418.457
224.0000	418.663
224.5000	418.93
225.0000	419.141
225.5000	419.446
226.0000	419.723
226.5000	420.036
227.0000	420.265
227.5000	420.458
228.0000	420.753
228.5000	420.956
229.0000	421.185
229.5000	421.49
230.0000	421.736
230.5000	421.985
231.0000	422.286
231.5000	422.603
232.0000	422.846
232.5000	423.1
233.0000	423.392
233.5000	423.625
234.0000	423.836
234.5000	424.107
235.0000	424.291
235.5000	424.46
236.0000	424.694
236.5000	424.917
237.0000	425.152
237.5000	425.473
238.0000	425.786
238.5000	426.083
239.0000	426.379
239.5000	426.553
240.0000	426.768
240.5000	427.008
241.0000	427.254
241.5000	427.579
242.0000	427.818
242.5000	428.093
243.0000	428.258
243.5000	428.488
244.0000	428.814
244.5000	429.033
245.0000	429.396
245.5000	429.613
246.0000	429.816
246.5000	430.075
247.0000	430.254
247.5000	430.461
248.0000	430.661
248.5000	430.892
249.0000	431.095
249.5000	431.28
250.0000	431.568
250.5000	431.778
251.0000	432.012
251.5000	432.238
252.0000	432.395
252.5000	432.646
253.0000	432.912
253.5000	433.135
254.0000	433.346
254.5000	433.532
255.0000	433.773
255.5000	434.067
256.0000	434.375
256.5000	434.624
257.0000	434.854
257.5000	435.056
258.0000	435.205
258.5000	435.404
259.0000	435.597
259.5000	435.894
260.0000	436.173
260.5000	436.379
261.0000	436.591
261.5000	436.773
262.0000	436.951
262.5000	437.192
263.0000	437.418
263.5000	437.605
264.0000	437.874
264.5000	438.094
265.0000	438.304
265.5000	438.498
266.0000	438.651
266.5000	438.841
267.0000	439.067
267.5000	439.277
268.0000	439.45
268.5000	439.633
269.0000	439.826
269.5000	440.016
270.0000	440.242
270.5000	440.43
271.0000	440.545
271.5000	440.799
272.0000	441.065
272.5000	441.304
273.0000	441.656
273.5000	441.826
274.0000	441.999
274.5000	442.154
275.0000	442.264
275.5000	442.459
276.0000	442.652
276.5000	442.902
277.0000	443.123
277.5000	443.346
278.0000	443.548
278.5000	443.691
279.0000	443.888
279.5000	444.11
280.0000	444.286
280.5000	444.486
281.0000	444.671
281.5000	444.825
282.0000	445.058
282.5000	445.283
283.0000	445.442
283.5000	445.643
284.0000	445.817
284.5000	445.99
285.0000	446.223
285.5000	446.431
286.0000	446.65
286.5000	446.852
287.0000	447.009
287.5000	447.097
288.0000	447.23
288.5000	447.429
289.0000	447.607
289.5000	447.834
290.0000	447.982
290.5000	448.172
291.0000	448.34
291.5000	448.492
292.0000	448.68
292.5000	448.794
293.0000	448.931
293.5000	449.12
294.0000	449.263
294.5000	449.483
295.0000	449.718
295.5000	449.892
296.0000	450.088
296.5000	450.188
297.0000	450.332
297.5000	450.518
298.0000	450.63
298.5000	450.787
299.0000	450.994
299.5000	451.181
300.0000	451.418
300.5000	451.664
301.0000	451.842
301.5000	451.968
302.0000	452.154
302.5000	452.341
303.0000	452.479
303.5000	452.624
304.0000	452.778
304.5000	452.861
305.0000	453.024
305.5000	453.208
306.0000	453.38
306.5000	453.612
307.0000	453.772
307.5000	454
308.0000	454.133
308.5000	454.235
309.0000	454.38
309.5000	454.547
310.0000	454.719
310.5000	454.913
311.0000	455.104
311.5000	455.194
312.0000	455.382
312.5000	455.531
313.0000	455.757
313.5000	455.96
314.0000	456.117
314.5000	456.302
315.0000	456.4
315.5000	456.585
316.0000	456.681
316.5000	456.789
317.0000	456.908
317.5000	456.982
318.0000	457.225
318.5000	457.386
319.0000	457.514
319.5000	457.763
320.0000	457.872
320.5000	458.014
321.0000	458.209
321.5000	458.304
322.0000	458.444
322.5000	458.635
323.0000	458.784
323.5000	458.901
324.0000	459.088
324.5000	459.206
325.0000	459.323
325.5000	459.527
326.0000	459.649
326.5000	459.821
327.0000	459.983
327.5000	460.14
328.0000	460.291
328.5000	460.426
329.0000	460.597
329.5000	460.662
330.0000	460.762
330.5000	460.921
331.0000	460.98
331.5000	461.163
332.0000	461.423
332.5000	461.595
333.0000	461.79
333.5000	461.968
334.0000	461.998
334.5000	462.112
335.0000	462.305
335.5000	462.417
336.0000	462.572
336.5000	462.72
337.0000	462.86
337.5000	463.004
338.0000	463.17
338.5000	463.306
339.0000	463.414
339.5000	463.574
340.0000	463.638
340.5000	463.811
341.0000	463.992
341.5000	464.079
342.0000	464.246
342.5000	464.395
343.0000	464.473
343.5000	464.667
344.0000	464.833
344.5000	464.892
345.0000	465.065
345.5000	465.218
346.0000	465.355
346.5000	465.548
347.0000	465.641
347.5000	465.742
348.0000	465.921
348.5000	466.08
349.0000	466.25
349.5000	466.472
350.0000	466.526
350.5000	466.654
351.0000	466.78
351.5000	466.79
352.0000	467.002
352.5000	467.116
353.0000	467.217
353.5000	467.341
354.0000	467.386
354.5000	467.504
355.0000	467.617
355.5000	467.758
356.0000	467.958
356.5000	468.027
357.0000	468.228
357.5000	468.409
358.0000	468.443
358.5000	468.619
359.0000	468.661
359.5000	468.76
360.0000	468.899
360.5000	468.954
361.0000	469.127
361.5000	469.206
362.0000	469.339
362.5000	469.498
363.0000	469.615
363.5000	469.708
364.0000	469.855
364.5000	469.962
365.0000	470.101
365.5000	470.302
366.0000	470.383
366.5000	470.543
367.0000	470.592
367.5000	470.644
368.0000	470.796
368.5000	470.921
369.0000	471.054
369.5000	471.186
370.0000	471.26
370.5000	471.3
371.0000	471.383
371.5000	471.456
372.0000	471.672
372.5000	471.848
373.0000	471.972
373.5000	472.143
374.0000	472.218
374.5000	472.331
375.0000	472.492
375.5000	472.583
376.0000	472.658
376.5000	472.727
377.0000	472.883
377.5000	473.009
378.0000	473.134
378.5000	473.294
379.0000	473.35
379.5000	473.436
380.0000	473.535
380.5000	473.583
381.0000	473.704
381.5000	473.846
382.0000	473.982
382.5000	474.134
383.0000	474.184
383.5000	474.293
384.0000	474.374
384.5000	474.439
385.0000	474.549
385.5000	474.704
386.0000	474.882
386.5000	474.989
387.0000	475.104
387.5000	475.206
388.0000	475.314
388.5000	475.443
389.0000	475.545
389.5000	475.591
390.0000	475.623
390.5000	475.735
391.0000	475.843
391.5000	475.908
392.0000	476
392.5000	476.06
393.0000	476.111
393.5000	476.232
394.0000	476.344
394.5000	476.514
395.0000	476.685
395.5000	476.825
396.0000	476.95
396.5000	477.018
397.0000	477.141
397.5000	477.253
398.0000	477.31
398.5000	477.451
399.0000	477.556
399.5000	477.63
400.0000	477.8
400.5000	477.857
401.0000	477.941
401.5000	477.978
402.0000	477.981
402.5000	478.032
403.0000	478.125
403.5000	478.244
404.0000	478.377
404.5000	478.481
405.0000	478.57
405.5000	478.647
406.0000	478.737
406.5000	478.851
407.0000	478.883
407.5000	478.943
408.0000	479.085
408.5000	479.116
409.0000	479.236
409.5000	479.347
410.0000	479.416
410.5000	479.583
411.0000	479.721
411.5000	479.806
412.0000	479.937
412.5000	480.016
413.0000	480.126
413.5000	480.351
414.0000	480.385
414.5000	480.494
415.0000	480.48
415.5000	480.448
416.0000	480.552
416.5000	480.698
417.0000	480.833
417.5000	480.978
418.0000	481.047
418.5000	481.049
419.0000	481.171
419.5000	481.287
420.0000	481.401
420.5000	481.482
421.0000	481.488
421.5000	481.518
422.0000	481.557
422.5000	481.667
423.0000	481.807
423.5000	481.939
424.0000	482.087
424.5000	482.14
425.0000	482.255
425.5000	482.308
426.0000	482.301
426.5000	482.455
427.0000	482.562
427.5000	482.668
428.0000	482.908
428.5000	482.935
429.0000	482.953
429.5000	483.016
430.0000	483.02
430.5000	483.165
431.0000	483.305
431.5000	483.388
432.0000	483.42
432.5000	483.433
433.0000	483.529
433.5000	483.562
434.0000	483.665
434.5000	483.714
435.0000	483.762
435.5000	483.891
436.0000	483.984
436.5000	484.128
437.0000	484.217
437.5000	484.233
438.0000	484.305
438.5000	484.35
439.0000	484.379
439.5000	484.462
440.0000	484.528
440.5000	484.571
441.0000	484.674
441.5000	484.789
442.0000	484.868
442.5000	484.981
443.0000	485.04
443.5000	485.159
444.0000	485.198
444.5000	485.305
445.0000	485.362
445.5000	485.436
446.0000	485.531
446.5000	485.597
447.0000	485.702
447.5000	485.726
448.0000	485.886
448.5000	485.983
449.0000	486.086
449.5000	486.22
450.0000	486.196
450.5000	486.204
451.0000	486.238
451.5000	486.269
452.0000	486.289
452.5000	486.345
453.0000	486.408
453.5000	486.472
454.0000	486.677
454.5000	486.84
455.0000	486.919
455.5000	487.019
456.0000	487.04
456.5000	487.103
457.0000	487.142
457.5000	487.165
458.0000	487.233
458.5000	487.298
459.0000	487.444
459.5000	487.566
460.0000	487.696
460.5000	487.816
461.0000	487.853
461.5000	487.889
462.0000	487.866
462.5000	487.852
463.0000	487.874
463.5000	487.968
464.0000	488.037
464.5000	488.063
465.0000	488.156
465.5000	488.269
466.0000	488.346
466.5000	488.404
467.0000	488.496
467.5000	488.442
468.0000	488.543
468.5000	488.554
469.0000	488.6
469.5000	488.737
470.0000	488.797
470.5000	488.896
471.0000	488.945
471.5000	489.036
472.0000	489.086
472.5000	489.198
473.0000	489.307
473.5000	489.358
474.0000	489.398
474.5000	489.46
475.0000	489.532
475.5000	489.555
476.0000	489.608
476.5000	489.684
477.0000	489.672
477.5000	489.687
478.0000	489.731
478.5000	489.759
479.0000	489.861
479.5000	489.923
480.0000	490.014
480.5000	490.098
481.0000	490.183
481.5000	490.241
482.0000	490.268
482.5000	490.3
483.0000	490.307
483.5000	490.451
484.0000	490.474
484.5000	490.501
485.0000	490.559
485.5000	490.599
486.0000	490.761
486.5000	490.763
487.0000	490.838
487.5000	490.902
488.0000	490.915
488.5000	491.123
489.0000	491.153
489.5000	491.12
490.0000	491.237
490.5000	491.229
491.0000	491.237
491.5000	491.357
492.0000	491.467
492.5000	491.529
493.0000	491.651
493.5000	491.673
494.0000	491.618
494.5000	491.678
495.0000	491.756
495.5000	491.81
496.0000	491.872
496.5000	491.902
497.0000	491.904
497.5000	491.94
498.0000	491.947
498.5000	491.972
499.0000	491.983
499.5000	492.046
500.0000	492.098
500.5000	492.138
501.0000	492.215
501.5000	492.198
502.0000	492.286
502.5000	492.367
503.0000	492.467
503.5000	492.615
504.0000	492.671
504.5000	492.732
505.0000	492.742
505.5000	492.779
506.0000	492.773
506.5000	492.821
507.0000	492.938
507.5000	492.926
508.0000	493.05
508.5000	493.169
509.0000	493.198
509.5000	493.263
510.0000	493.311
510.5000	493.32
511.0000	493.314
511.5000	493.414
512.0000	493.438
512.5000	493.507
513.0000	493.584
513.5000	493.619
514.0000	493.718
514.5000	493.719
515.0000	493.764
515.5000	493.798
516.0000	493.749
516.5000	493.819
517.0000	493.911
517.5000	493.983
518.0000	494.119
518.5000	494.2
519.0000	494.228
519.5000	494.24
520.0000	494.272
520.5000	494.288
521.0000	494.293
521.5000	494.442
522.0000	494.497
522.5000	494.504
523.0000	494.56
523.5000	494.564
524.0000	494.605
524.5000	494.673
525.0000	494.729
525.5000	494.759
526.0000	494.812
526.5000	494.848
527.0000	494.95
527.5000	494.93
528.0000	494.872
528.5000	494.969
529.0000	494.922
529.5000	494.997
530.0000	495.087
530.5000	495.079
531.0000	495.227
531.5000	495.303
532.0000	495.383
532.5000	495.474
533.0000	495.472
533.5000	495.519
534.0000	495.533
534.5000	495.501
535.0000	495.558
535.5000	495.623
536.0000	495.666
536.5000	495.736
537.0000	495.761
537.5000	495.757
538.0000	495.765
538.5000	495.79
539.0000	495.891
539.5000	495.957
540.0000	496.019
540.5000	496.036
541.0000	496.061
541.5000	496.124
542.0000	496.217
542.5000	496.313
543.0000	496.247
543.5000	496.2
544.0000	496.125
544.5000	496.209
545.0000	496.259
545.5000	496.323
546.0000	496.463
546.5000	496.417
547.0000	496.52
547.5000	496.591
548.0000	496.581
548.5000	496.648
549.0000	496.678
549.5000	496.703
550.0000	496.792
550.5000	496.808
551.0000	496.799
551.5000	496.81
552.0000	496.848
552.5000	496.895
553.0000	496.938
553.5000	496.985
554.0000	496.939
554.5000	497.037
555.0000	497.135
555.5000	497.187
556.0000	497.272
556.5000	497.229
557.0000	497.246
557.5000	497.298
558.0000	497.308
558.5000	497.389
559.0000	497.414
559.5000	497.429
560.0000	497.535
560.5000	497.592
561.0000	497.627
561.5000	497.661
562.0000	497.692
562.5000	497.705
563.0000	497.697
563.5000	497.701
564.0000	497.684
564.5000	497.716
565.0000	497.794
565.5000	497.89
566.0000	497.957
566.5000	498.021
567.0000	498.002
567.5000	498.017
568.0000	498.122
568.5000	498.208
569.0000	498.27
569.5000	498.248
570.0000	498.225
570.5000	498.168
571.0000	498.131
571.5000	498.249
572.0000	498.268
572.5000	498.35
573.0000	498.501
573.5000	498.489
574.0000	498.507
574.5000	498.473
575.0000	498.461
575.5000	498.499
576.0000	498.581
576.5000	498.664
577.0000	498.712
577.5000	498.745
578.0000	498.662
578.5000	498.693
579.0000	498.754
579.5000	498.828
580.0000	498.903
580.5000	498.861
581.0000	498.871
581.5000	498.909
582.0000	498.96
582.5000	499.088
583.0000	499.142
583.5000	499.091
584.0000	499.15
584.5000	499.152
585.0000	499.205
585.5000	499.272
586.0000	499.296
586.5000	499.297
587.0000	499.268
587.5000	499.356
588.0000	499.376
588.5000	499.408
589.0000	499.51
589.5000	499.505
590.0000	499.557
590.5000	499.65
591.0000	499.65
591.5000	499.692
592.0000	499.738
592.5000	499.699
593.0000	499.63
593.5000	499.645
594.0000	499.639
594.5000	499.597
595.0000	499.713
595.5000	499.766
596.0000	499.821
596.5000	499.982
597.0000	499.933
597.5000	499.892
598.0000	499.848
598.5000	499.782
599.0000	499.847
599.5000	499.937
600.0000	499.956
600.5000	500.001
601.0000	500.055
601.5000	500.069
602.0000	500.13
602.5000	500.121
603.0000	500.169
603.5000	500.19
604.0000	500.102
604.5000	500.091
605.0000	500.103
605.5000	500.134
606.0000	500.292
606.5000	500.4
607.0000	500.391
607.5000	500.376
608.0000	500.382
608.5000	500.409
609.0000	500.443
609.5000	500.47
610.0000	500.416
610.5000	500.387
611.0000	500.406
611.5000	500.421
612.0000	500.576
612.5000	500.701
613.0000	500.722
613.5000	500.75
614.0000	500.747
614.5000	500.68
615.0000	500.688
615.5000	500.758
616.0000	500.777
616.5000	500.803
617.0000	500.847
617.5000	500.793
618.0000	500.853
618.5000	500.958
619.0000	500.98
619.5000	501.016
620.0000	501.07
620.5000	501.07
621.0000	501.113
621.5000	501.168
622.0000	501.129
622.5000	501.162
623.0000	501.185
623.5000	501.182
624.0000	501.14
624.5000	501.129
625.0000	501.192
625.5000	501.219
626.0000	501.249
626.5000	501.305
627.0000	501.306
627.5000	501.358
628.0000	501.44
628.5000	501.415
629.0000	501.415
629.5000	501.429
630.0000	501.413
630.5000	501.463
631.0000	501.488
631.5000	501.576
632.0000	501.58
632.5000	501.551
633.0000	501.607
633.5000	501.565
634.0000	501.63
634.5000	501.759
635.0000	501.701
635.5000	501.797
636.0000	501.842
636.5000	501.794
637.0000	501.829
637.5000	501.797
638.0000	501.767
638.5000	501.798
639.0000	501.78
639.5000	501.782
640.0000	501.85
640.5000	501.916
641.0000	501.982
641.5000	501.963
642.0000	501.943
642.5000	501.88
643.0000	501.92
643.5000	501.982
644.0000	501.989
644.5000	502.001
645.0000	501.986
645.5000	502.112
646.0000	502.228
646.5000	502.307
647.0000	502.314
647.5000	502.296
648.0000	502.186
648.5000	502.217
649.0000	502.257
649.5000	502.218
650.0000	502.286
650.5000	502.281
651.0000	502.285
651.5000	502.232
652.0000	502.302
652.5000	502.334
653.0000	502.382
653.5000	502.428
654.0000	502.369
654.5000	502.374
655.0000	502.417
655.5000	502.452
656.0000	502.505
656.5000	502.607
657.0000	502.576
657.5000	502.632
658.0000	502.679
658.5000	502.576
659.0000	502.664
659.5000	502.629
660.0000	502.658
660.5000	502.714
661.0000	502.65
661.5000	502.737
662.0000	502.694
662.5000	502.722
663.0000	502.85
663.5000	502.774
664.0000	502.806
664.5000	502.807
665.0000	502.763
665.5000	502.861
666.0000	502.806
666.5000	502.793
667.0000	502.805
667.5000	502.762
668.0000	502.881
668.5000	502.913
669.0000	502.928
669.5000	503.018
670.0000	503.018
670.5000	503.066
671.0000	503.11
671.5000	503.071
672.0000	503.045
672.5000	503.016
673.0000	502.992
673.5000	503.012
674.0000	503.065
674.5000	503.107
675.0000	503.195
675.5000	503.221
676.0000	503.296
676.5000	503.324
677.0000	503.275
677.5000	503.275
678.0000	503.262
678.5000	503.251
679.0000	503.299
679.5000	503.338
680.0000	503.356
680.5000	503.372
681.0000	503.37
681.5000	503.333
682.0000	503.299
682.5000	503.302
683.0000	503.315
683.5000	503.362
684.0000	503.368
684.5000	503.443
685.0000	503.405
685.5000	503.442
686.0000	503.509
686.5000	503.507
687.0000	503.582
687.5000	503.609
688.0000	503.609
688.5000	503.662
689.0000	503.641
689.5000	503.627
690.0000	503.603
690.5000	503.532
691.0000	503.597
691.5000	503.665
692.0000	503.675
692.5000	503.743
693.0000	503.747
693.5000	503.746
694.0000	503.798
694.5000	503.784
695.0000	503.758
695.5000	503.701
696.0000	503.703
696.5000	503.714
697.0000	503.649
697.5000	503.768
698.0000	503.68
698.5000	503.689
699.0000	503.72
699.5000	503.638
700.0000	503.755
700.5000	503.811
701.0000	503.869
701.5000	503.884
702.0000	503.909
702.5000	503.807
703.0000	503.738
703.5000	503.786
704.0000	503.766
704.5000	503.823
705.0000	503.933
705.5000	503.919
706.0000	503.935
706.5000	504.007
707.0000	504.018
707.5000	504.061
708.0000	504.037
708.5000	504.036
709.0000	504.011
709.5000	504.004
710.0000	504.051
710.5000	504.045
711.0000	504.112
711.5000	504.068
712.0000	504.051
712.5000	504.085
713.0000	504.077
713.5000	504.182
714.0000	504.218
714.5000	504.223
715.0000	504.254
715.5000	504.151
716.0000	504.155
716.5000	504.192
717.0000	504.173
717.5000	504.224
718.0000	504.263
718.5000	504.143
719.0000	504.198
719.5000	504.291
720.0000	504.275
720.5000	504.388
721.0000	504.388
721.5000	504.393
722.0000	504.415
722.5000	504.428
723.0000	504.43
723.5000	504.36
724.0000	504.416
724.5000	504.406
725.0000	504.415
725.5000	504.466
726.0000	504.363
726.5000	504.442
727.0000	504.386
727.5000	504.362
728.0000	504.47
728.5000	504.354
729.0000	504.373
729.5000	504.415
730.0000	504.382
730.5000	504.434
731.0000	504.49
731.5000	504.51
732.0000	504.59
732.5000	504.58
733.0000	504.569
733.5000	504.516
734.0000	504.519
734.5000	504.576
735.0000	504.575
735.5000	504.616
736.0000	504.539
736.5000	504.481
737.0000	504.528
737.5000	504.532
738.0000	504.527
738.5000	504.563
739.0000	504.53
739.5000	504.556
740.0000	504.627
740.5000	504.668
741.0000	504.664
741.5000	504.652
742.0000	504.717
742.5000	504.721
743.0000	504.706
743.5000	504.718
744.0000	504.698
744.5000	504.737
745.0000	504.858
745.5000	504.838
746.0000	504.801
746.5000	504.77
747.0000	504.831
747.5000	504.916
748.0000	504.909
748.5000	504.855
749.0000	504.73
749.5000	504.757
750.0000	504.823
750.5000	504.922
751.0000	504.94
751.5000	504.882
752.0000	504.896
752.5000	504.902
753.0000	504.876
753.5000	504.835
754.0000	504.835
754.5000	504.811
755.0000	504.843
755.5000	504.905
756.0000	504.847
756.5000	504.84
757.0000	504.9
757.5000	504.851
758.0000	504.843
758.5000	504.823
759.0000	504.788
759.5000	504.842
760.0000	504.899
760.5000	504.953
761.0000	504.995
761.5000	505.013
762.0000	504.988
762.5000	504.909
763.0000	504.863
763.5000	504.851
764.0000	504.884
764.5000	504.906
765.0000	504.915
765.5000	504.938
766.0000	504.923
766.5000	504.975
767.0000	504.97
767.5000	504.942
768.0000	504.965
768.5000	505.036
769.0000	505.108
769.5000	505.159
770.0000	505.147
770.5000	505.116
771.0000	505.136
771.5000	505.108
772.0000	505.105
772.5000	505.089
773.0000	505.009
773.5000	505.053
774.0000	505.114
774.5000	505.116
775.0000	505.166
775.5000	505.103
776.0000	505.035
776.5000	505.056
777.0000	504.924
777.5000	504.935
778.0000	505.004
778.5000	505.005
779.0000	505.079
779.5000	505.114
780.0000	505.12
780.5000	505.165
781.0000	505.208
781.5000	505.145
782.0000	505.196
782.5000	505.161
783.0000	505.126
783.5000	505.18
784.0000	505.075
784.5000	505.089
785.0000	505.17
785.5000	505.288
786.0000	505.314
786.5000	505.327
787.0000	505.347
787.5000	505.35
788.0000	505.356
788.5000	505.293
789.0000	505.192
789.5000	505.103
790.0000	505.123
790.5000	505.135
791.0000	505.222
791.5000	505.251
792.0000	505.248
792.5000	505.303
793.0000	505.315
793.5000	505.282
794.0000	505.279
794.5000	505.297
795.0000	505.341
795.5000	505.335
796.0000	505.33
796.5000	505.31
797.0000	505.241
797.5000	505.256
798.0000	505.276
798.5000	505.297
799.0000	505.262
799.5000	505.259
800.0000	505.277
800.5000	505.241
801.0000	505.295
801.5000	505.322
802.0000	505.312
802.5000	505.41
803.0000	505.439
803.5000	505.409
804.0000	505.402
804.5000	505.363
805.0000	505.349
805.5000	505.329
806.0000	505.359
806.5000	505.423
807.0000	505.495
807.5000	505.565
808.0000	505.576
808.5000	505.545
809.0000	505.486
809.5000	505.481
810.0000	505.465
810.5000	505.393
811.0000	505.391
811.5000	505.371
812.0000	505.432
812.5000	505.484
813.0000	505.466
813.5000	505.496
814.0000	505.508
814.5000	505.504
815.0000	505.513
815.5000	505.477
816.0000	505.36
816.5000	505.38
817.0000	505.335
817.5000	505.345
818.0000	505.345
818.5000	505.386
819.0000	505.408
819.5000	505.497
820.0000	505.617
820.5000	505.516
821.0000	505.586
821.5000	505.475
822.0000	505.397
822.5000	505.484
823.0000	505.448
823.5000	505.534
824.0000	505.564
824.5000	505.517
825.0000	505.59
825.5000	505.599
826.0000	505.537
826.5000	505.602
827.0000	505.585
827.5000	505.594
828.0000	505.618
828.5000	505.559
829.0000	505.509
829.5000	505.447
830.0000	505.504
830.5000	505.56
831.0000	505.613
831.5000	505.668
832.0000	505.665
832.5000	505.581
833.0000	505.58
833.5000	505.558
834.0000	505.467
834.5000	505.509
835.0000	505.488
835.5000	505.55
836.0000	505.63
836.5000	505.585
837.0000	505.578
837.5000	505.571
838.0000	505.553
838.5000	505.616
839.0000	505.68
839.5000	505.677
840.0000	505.699
840.5000	505.726
841.0000	505.636
841.5000	505.541
842.0000	505.591
842.5000	505.595
843.0000	505.657
843.5000	505.683
844.0000	505.682
844.5000	505.615
845.0000	505.555
845.5000	505.58
846.0000	505.538
846.5000	505.584
847.0000	505.567
847.5000	505.566
848.0000	505.562
848.5000	505.542
849.0000	505.597
849.5000	505.622
850.0000	505.613
850.5000	505.611
851.0000	505.638
851.5000	505.534
852.0000	505.55
852.5000	505.512
853.0000	505.421
853.5000	505.513
854.0000	505.598
854.5000	505.654
855.0000	505.743
855.5000	505.68
856.0000	505.519
856.5000	505.589
857.0000	505.557
857.5000	505.585
858.0000	505.658
858.5000	505.536
859.0000	505.495
859.5000	505.55
860.0000	505.534
860.5000	505.567
861.0000	505.641
861.5000	505.605
862.0000	505.561
862.5000	505.571
863.0000	505.508
863.5000	505.522
864.0000	505.544
864.5000	505.478
865.0000	505.473
865.5000	505.43
866.0000	505.451
866.5000	505.375
867.0000	505.34
867.5000	505.306
868.0000	505.358
868.5000	505.456
869.0000	505.56
869.5000	505.592
870.0000	505.587
870.5000	505.546
871.0000	505.511
871.5000	505.54
872.0000	505.477
872.5000	505.529
873.0000	505.511
873.5000	505.513
874.0000	505.458
874.5000	505.521
875.0000	505.475
875.5000	505.512
876.0000	505.644
876.5000	505.565
877.0000	505.591
877.5000	505.568
878.0000	505.516
878.5000	505.526
879.0000	505.544
879.5000	505.526
880.0000	505.489
880.5000	505.548
881.0000	505.594
881.5000	505.54
882.0000	505.52
882.5000	505.55
883.0000	505.497
883.5000	505.503
884.0000	505.569
884.5000	505.546
885.0000	505.522
885.5000	505.506
886.0000	505.464
886.5000	505.375
887.0000	505.292
887.5000	505.427
888.0000	505.451
888.5000	505.512
889.0000	505.611
889.5000	505.582
890.0000	505.612
890.5000	505.632
891.0000	505.668
891.5000	505.654
892.0000	505.616
892.5000	505.551
893.0000	505.563
893.5000	505.544
894.0000	505.607
894.5000	505.652
895.0000	505.62
895.5000	505.594
896.0000	505.531
896.5000	505.477
897.0000	505.514
897.5000	505.283
898.0000	505.278
898.5000	505.238
899.0000	505.203
899.5000	505.412
900.0000	505.416
900.5000	505.499
901.0000	505.493
901.5000	505.453
902.0000	505.422
902.5000	505.361
903.0000	505.356
903.5000	505.439
904.0000	505.387
904.5000	505.413
905.0000	505.338
905.5000	505.31
906.0000	505.295
906.5000	505.332
907.0000	505.465
907.5000	505.419
908.0000	505.534
908.5000	505.507
909.0000	505.338
909.5000	505.408
910.0000	505.389
910.5000	505.349
911.0000	505.385
911.5000	505.326
912.0000	505.3
912.5000	505.331
913.0000	505.4
913.5000	505.415
914.0000	505.376
914.5000	505.365
915.0000	505.319
915.5000	505.306
916.0000	505.355
916.5000	505.348
917.0000	505.304
917.5000	505.279
918.0000	505.303
918.5000	505.239
919.0000	505.323
919.5000	505.383
920.0000	505.368
920.5000	505.416
921.0000	505.395
921.5000	505.389
922.0000	505.443
922.5000	505.477
923.0000	505.442
923.5000	505.41
924.0000	505.34
924.5000	505.325
925.0000	505.28
925.5000	505.289
926.0000	505.339
926.5000	505.311
927.0000	505.397
927.5000	505.375
928.0000	505.316
928.5000	505.383
929.0000	505.356
929.5000	505.362
930.0000	505.32
930.5000	505.198
931.0000	505.258
931.5000	505.259
932.0000	505.267
932.5000	505.348
933.0000	505.274
933.5000	505.267
934.0000	505.29
934.5000	505.192
935.0000	505.148
935.5000	505.063
936.0000	505.117
936.5000	505.243
937.0000	505.335
937.5000	505.394
938.0000	505.347
938.5000	505.218
939.0000	505.123
939.5000	505.144
940.0000	505.135
940.5000	505.215
941.0000	505.202
941.5000	505.234
942.0000	505.259
942.5000	505.259
943.0000	505.316
943.5000	505.297
944.0000	505.223
944.5000	505.128
945.0000	505.131
945.5000	505.107
946.0000	505.138
946.5000	505.195
947.0000	505.199
947.5000	505.16
948.0000	505.099
948.5000	505.137
949.0000	505.146
949.5000	505.129
950.0000	505.149
950.5000	505.148
951.0000	505.186
951.5000	505.221
952.0000	505.198
952.5000	505.224
953.0000	505.161
953.5000	505.18
954.0000	505.207
954.5000	505.184
955.0000	505.194
955.5000	505.181
956.0000	505.173
956.5000	505.129
957.0000	505.176
957.5000	505.145
958.0000	505.167
958.5000	505.119
959.0000	504.987
959.5000	504.97
960.0000	504.965
960.5000	504.962
961.0000	505.07
961.5000	505.108
962.0000	505.092
962.5000	505.136
963.0000	505.105
963.5000	505.037
964.0000	505.074
964.5000	505.129
965.0000	505.054
965.5000	505.167
966.0000	505.063
966.5000	504.943
967.0000	504.988
967.5000	504.992
968.0000	505.1
968.5000	505.096
969.0000	505.135
969.5000	505.083
970.0000	505.011
970.5000	505.083
971.0000	505.05
971.5000	505.061
972.0000	505.08
972.5000	505.02
973.0000	505.032
973.5000	505.025
974.0000	504.953
974.5000	504.968
975.0000	504.951
975.5000	504.926
976.0000	504.949
976.5000	505.031
977.0000	504.977
977.5000	505.012
978.0000	505.062
978.5000	504.995
979.0000	505.115
979.5000	505.092
980.0000	505.076
980.5000	505.061
981.0000	504.957
981.5000	504.936
982.0000	504.948
982.5000	505.024
983.0000	505.053
983.5000	505.046
984.0000	505.103
984.5000	504.99
985.0000	504.988
985.5000	505.058
986.0000	505.03
986.5000	505.055
987.0000	505.075
987.5000	504.974
988.0000	504.986
988.5000	505.106
989.0000	505.123
989.5000	505.169
990.0000	505.026
990.5000	504.922
991.0000	504.968
991.5000	504.912
992.0000	504.973
992.5000	504.971
993.0000	504.836
993.5000	504.888
994.0000	504.875
994.5000	504.791
995.0000	504.817
995.5000	504.826
996.0000	504.868
996.5000	504.934
997.0000	504.904
997.5000	504.822
998.0000	504.799
998.5000	504.819
999.0000	504.853
999.5000	504.875
1000.0000	504.913
1000.5000	504.911
1001.0000	504.871
1001.5000	504.794
1002.0000	504.77
1002.5000	504.762
1003.0000	504.84
1003.5000	504.885
1004.0000	504.886
1004.5000	504.911
1005.0000	504.827
1005.5000	504.851
1006.0000	504.866
1006.5000	504.775
1007.0000	504.758
1007.5000	504.724
1008.0000	504.694
1008.5000	504.751
1009.0000	504.794
1009.5000	504.821
1010.0000	504.826
1010.5000	504.81
1011.0000	504.764
1011.5000	504.72
1012.0000	504.712
1012.5000	504.66
1013.0000	504.716
1013.5000	504.731
1014.0000	504.726
1014.5000	504.776
1015.0000	504.771
1015.5000	504.717
1016.0000	504.698
1016.5000	504.674
1017.0000	504.701
1017.5000	504.756
1018.0000	504.734
1018.5000	504.7
1019.0000	504.697
1019.5000	504.735
1020.0000	504.761
1020.5000	504.798
1021.0000	504.752
1021.5000	504.666
1022.0000	504.637
1022.5000	504.594
1023.0000	504.633
1023.5000	504.694
1024.0000	504.618
1024.5000	504.687
1025.0000	504.562
1025.5000	504.488
1026.0000	504.616
1026.5000	504.597
1027.0000	504.64
1027.5000	504.671
1028.0000	504.665
1028.5000	504.664
1029.0000	504.679
1029.5000	504.692
1030.0000	504.544
1030.5000	504.506
1031.0000	504.511
1031.5000	504.528
1032.0000	504.631
1032.5000	504.618
1033.0000	504.575
1033.5000	504.541
1034.0000	504.555
1034.5000	504.584
1035.0000	504.607
1035.5000	504.652
1036.0000	504.622
1036.5000	504.617
1037.0000	504.566
1037.5000	504.522
1038.0000	504.453
1038.5000	504.515
1039.0000	504.491
1039.5000	504.432
1040.0000	504.453
1040.5000	504.332
1041.0000	504.361
1041.5000	504.479
1042.0000	504.491
1042.5000	504.49
1043.0000	504.422
1043.5000	504.369
1044.0000	504.422
1044.5000	504.417
1045.0000	504.473
1045.5000	504.494
1046.0000	504.364
1046.5000	504.335
1047.0000	504.391
1047.5000	504.357
1048.0000	504.401
1048.5000	504.453
1049.0000	504.386
1049.5000	504.341
1050.0000	504.325
1050.5000	504.39
1051.0000	504.353
1051.5000	504.408
1052.0000	504.473
1052.5000	504.336
1053.0000	504.34
1053.5000	504.319
1054.0000	504.29
1054.5000	504.357
1055.0000	504.405
1055.5000	504.428
1056.0000	504.343
1056.5000	504.293
1057.0000	504.233
1057.5000	504.141
1058.0000	504.188
1058.5000	504.191
1059.0000	504.188
1059.5000	504.189
1060.0000	504.243
1060.5000	504.249
1061.0000	504.271
1061.5000	504.225
1062.0000	504.158
1062.5000	504.21
1063.0000	504.267
1063.5000	504.301
1064.0000	504.271
1064.5000	504.212
1065.0000	504.121
1065.5000	504.063
1066.0000	504.07
1066.5000	504.057
1067.0000	504.192
1067.5000	504.29
1068.0000	504.307
1068.5000	504.294
1069.0000	504.17
1069.5000	504.126
1070.0000	504.138
1070.5000	504.101
1071.0000	504.072
1071.5000	504.059
1072.0000	504.014
1072.5000	504.048
1073.0000	503.975
1073.5000	503.943
1074.0000	503.95
1074.5000	503.957
1075.0000	503.992
1075.5000	504.068
1076.0000	504.057
1076.5000	504.03
1077.0000	503.992
1077.5000	503.944
1078.0000	503.854
1078.5000	503.771
1079.0000	503.873
1079.5000	503.885
1080.0000	503.939
1080.5000	504.026
1081.0000	504.032
1081.5000	503.982
1082.0000	504.042
1082.5000	503.985
1083.0000	503.923
1083.5000	503.932
1084.0000	503.89
1084.5000	503.941
1085.0000	503.903
1085.5000	503.889
1086.0000	503.907
1086.5000	503.867
1087.0000	503.895
1087.5000	503.96
1088.0000	503.814
1088.5000	503.859
1089.0000	503.864
1089.5000	503.794
1090.0000	503.905
1090.5000	503.905
1091.0000	503.926
1091.5000	503.969
1092.0000	504.016
1092.5000	503.962
1093.0000	503.908
1093.5000	503.894
1094.0000	503.799
1094.5000	503.849
1095.0000	503.947
1095.5000	503.911
1096.0000	504.008
1096.5000	503.976
1097.0000	503.916
1097.5000	503.986
1098.0000	503.977
1098.5000	503.992
1099.0000	503.974
1099.5000	503.955
1100.0000	503.931
1100.5000	503.844
1101.0000	503.885
1101.5000	503.847
1102.0000	503.834
1102.5000	503.878
1103.0000	503.828
1103.5000	503.807
1104.0000	503.835
1104.5000	503.845
1105.0000	503.836
1105.5000	503.881
1106.0000	503.811
1106.5000	503.781
1107.0000	503.855
1107.5000	503.782
1108.0000	503.753
1108.5000	503.776
1109.0000	503.679
1109.5000	503.688
1110.0000	503.766
1110.5000	503.751
1111.0000	503.692
1111.5000	503.666
1112.0000	503.606
1112.5000	503.606
1113.0000	503.616
1113.5000	503.65
1114.0000	503.625
1114.5000	503.636
1115.0000	503.67
1115.5000	503.709
1116.0000	503.713
1116.5000	503.647
1117.0000	503.63
1117.5000	503.633
1118.0000	503.68
1118.5000	503.729
1119.0000	503.726
1119.5000	503.631
1120.0000	503.551
1120.5000	503.486
1121.0000	503.552
1121.5000	503.621
1122.0000	503.716
1122.5000	503.709
1123.0000	503.633
1123.5000	503.62
1124.0000	503.616
1124.5000	503.58
1125.0000	503.579
1125.5000	503.514
1126.0000	503.428
1126.5000	503.484
1127.0000	503.463
1127.5000	503.485
1128.0000	503.508
1128.5000	503.498
1129.0000	503.492
1129.5000	503.431
1130.0000	503.415
1130.5000	503.477
1131.0000	503.501
1131.5000	503.505
1132.0000	503.469
1132.5000	503.376
1133.0000	503.357
1133.5000	503.304
1134.0000	503.279
1134.5000	503.329
1135.0000	503.253
1135.5000	503.294
1136.0000	503.311
1136.5000	503.287
1137.0000	503.259
1137.5000	503.279
1138.0000	503.277
1138.5000	503.243
1139.0000	503.334
1139.5000	503.273
1140.0000	503.306
1140.5000	503.321
1141.0000	503.297
1141.5000	503.3
1142.0000	503.288
1142.5000	503.294
1143.0000	503.34
1143.5000	503.364
1144.0000	503.361
1144.5000	503.352
