TITLE	
DATA TYPE	
ORIGIN	JASCO
OWNER	
DATE	21/10/27
TIME	16:39:11
SPECTROMETER/DATA SYSTEM	
RESOLUTION	
DELTAX	1
XUNITS	SEC
YUNITS	INTENSITY
FIRSTX	0.0000
LASTX	4119.0000
NPOINTS	4120
FIRSTY	443.97702
MAXY	479.52518
MINY	-270.33566
XYDATA
0.0000	443.977
1.0000	446.563
2.0000	445.618
3.0000	448.081
4.0000	453.591
5.0000	451.375
6.0000	448.353
7.0000	449.315
8.0000	452.157
9.0000	450.585
10.0000	450.589
11.0000	452.242
12.0000	447.644
13.0000	447.949
14.0000	443.983
15.0000	440.742
16.0000	444.797
17.0000	450.633
18.0000	448.85
19.0000	445.002
20.0000	445.756
21.0000	445.236
22.0000	448.408
23.0000	449.118
24.0000	447.426
25.0000	447.437
26.0000	446.807
27.0000	447.954
28.0000	445.615
29.0000	444.171
30.0000	446.721
31.0000	448.617
32.0000	451.468
33.0000	449.541
34.0000	440.037
35.0000	430.426
36.0000	421.312
37.0000	419.228
38.0000	422.535
39.0000	423.23
40.0000	424.9
41.0000	424.198
42.0000	422.229
43.0000	421.485
44.0000	424.281
45.0000	428.553
46.0000	428.522
47.0000	426.743
48.0000	421.775
49.0000	422.602
50.0000	428.531
51.0000	429.278
52.0000	426.13
53.0000	429.216
54.0000	442.198
55.0000	448.576
56.0000	423.487
57.0000	274.783
58.0000	-270.336
59.0000	-213.398
60.0000	-203.95
61.0000	302.684
62.0000	250.494
63.0000	213.8
64.0000	202.428
65.0000	202.641
66.0000	204.912
67.0000	204.621
68.0000	202.582
69.0000	201.817
70.0000	201.269
71.0000	203.398
72.0000	206.236
73.0000	205.287
74.0000	204.223
75.0000	205.326
76.0000	206.025
77.0000	208.246
78.0000	208.41
79.0000	207.375
80.0000	208.558
81.0000	207.516
82.0000	207.694
83.0000	208.12
84.0000	207.138
85.0000	206.337
86.0000	207.449
87.0000	207.87
88.0000	208.43
89.0000	211.784
90.0000	211.476
91.0000	210.052
92.0000	210.141
93.0000	210.749
94.0000	209.582
95.0000	209.407
96.0000	211.087
97.0000	211.813
98.0000	214.049
99.0000	213.68
100.0000	211.309
101.0000	211.368
102.0000	212.389
103.0000	212.932
104.0000	212.503
105.0000	212.332
106.0000	211.577
107.0000	211.865
108.0000	213.207
109.0000	213.804
110.0000	216.693
111.0000	215.828
112.0000	215.244
113.0000	215.802
114.0000	216.489
115.0000	218.092
116.0000	217.376
117.0000	217.323
118.0000	215.879
119.0000	215.682
120.0000	218.697
121.0000	219.774
122.0000	220.105
123.0000	220.541
124.0000	219.97
125.0000	220.948
126.0000	220.662
127.0000	217.923
128.0000	220.023
129.0000	223.327
130.0000	221.388
131.0000	222.265
132.0000	224.255
133.0000	222.663
134.0000	220.874
135.0000	222.448
136.0000	222.101
137.0000	222.523
138.0000	226.495
139.0000	224.012
140.0000	221.883
141.0000	224.331
142.0000	226.098
143.0000	227.457
144.0000	226.124
145.0000	226.116
146.0000	224.698
147.0000	222.63
148.0000	223.801
149.0000	226.849
150.0000	228.231
151.0000	226.334
152.0000	224.553
153.0000	224.99
154.0000	227.894
155.0000	229.621
156.0000	228.8
157.0000	227.347
158.0000	227.233
159.0000	227.89
160.0000	227.462
161.0000	227.198
162.0000	232.197
163.0000	234.486
164.0000	234.353
165.0000	233.973
166.0000	232.234
167.0000	230.886
168.0000	232.232
169.0000	234.696
170.0000	234.853
171.0000	233.2
172.0000	232.767
173.0000	235.006
174.0000	233.882
175.0000	232.207
176.0000	231.762
177.0000	231.922
178.0000	234.657
179.0000	237.896
180.0000	236.692
181.0000	236.652
182.0000	239.978
183.0000	238.36
184.0000	237.131
185.0000	238.565
186.0000	238.164
187.0000	237.982
188.0000	240.212
189.0000	242.095
190.0000	241.406
191.0000	238.344
192.0000	238.79
193.0000	241.062
194.0000	240.544
195.0000	241.048
196.0000	240.615
197.0000	242.097
198.0000	244.529
199.0000	243.699
200.0000	242.024
201.0000	242.269
202.0000	244.074
203.0000	246.19
204.0000	245.572
205.0000	244.139
206.0000	243.015
207.0000	244.036
208.0000	246.558
209.0000	243.213
210.0000	240.748
211.0000	242.288
212.0000	244.984
213.0000	247.81
214.0000	248.12
215.0000	247.566
216.0000	248.389
217.0000	247.871
218.0000	246.628
219.0000	248.176
220.0000	245.322
221.0000	244.185
222.0000	246.092
223.0000	245.241
224.0000	245.678
225.0000	244.838
226.0000	247.332
227.0000	248.345
228.0000	247.747
229.0000	250.316
230.0000	249.77
231.0000	248.601
232.0000	250.968
233.0000	252.976
234.0000	250.933
235.0000	250.23
236.0000	253.696
237.0000	253.254
238.0000	249.406
239.0000	250.58
240.0000	252.786
241.0000	253.005
242.0000	253.946
243.0000	251.376
244.0000	249.596
245.0000	251.25
246.0000	254.441
247.0000	258.491
248.0000	256.121
249.0000	252.019
250.0000	251.384
251.0000	254.404
252.0000	254.109
253.0000	252.613
254.0000	256.322
255.0000	259.446
256.0000	259.316
257.0000	254.638
258.0000	252.73
259.0000	257.092
260.0000	257.118
261.0000	252.739
262.0000	255.497
263.0000	257.614
264.0000	255.186
265.0000	256.65
266.0000	257.068
267.0000	261.514
268.0000	263.531
269.0000	258.732
270.0000	258.364
271.0000	257.32
272.0000	257.65
273.0000	258.673
274.0000	257.933
275.0000	256.162
276.0000	257.26
277.0000	259.138
278.0000	258.56
279.0000	260.629
280.0000	259.005
281.0000	258.176
282.0000	260.842
283.0000	261.26
284.0000	261.856
285.0000	261.787
286.0000	264.264
287.0000	265.434
288.0000	263.49
289.0000	263.872
290.0000	259.641
291.0000	258.123
292.0000	265.317
293.0000	266.669
294.0000	263.886
295.0000	266.032
296.0000	264.469
297.0000	264.385
298.0000	267.415
299.0000	265.609
300.0000	263.697
301.0000	265.559
302.0000	265.786
303.0000	262.425
304.0000	263.128
305.0000	265.19
306.0000	264.788
307.0000	265.426
308.0000	266.196
309.0000	269.098
310.0000	270.795
311.0000	269.45
312.0000	268.474
313.0000	266.454
314.0000	268.214
315.0000	269.208
316.0000	268.401
317.0000	270.799
318.0000	273.027
319.0000	272.12
320.0000	270.275
321.0000	269.411
322.0000	271.655
323.0000	273.132
324.0000	270.715
325.0000	271.686
326.0000	271.553
327.0000	270.16
328.0000	272.732
329.0000	275.17
330.0000	274.01
331.0000	269.691
332.0000	270.763
333.0000	275.606
334.0000	274.062
335.0000	276.277
336.0000	278.108
337.0000	271.169
338.0000	270.386
339.0000	275.57
340.0000	273.482
341.0000	270.55
342.0000	273.252
343.0000	275.737
344.0000	276.814
345.0000	275.615
346.0000	275.698
347.0000	276.702
348.0000	275.03
349.0000	275.026
350.0000	276.621
351.0000	276.487
352.0000	278.431
353.0000	274.501
354.0000	273.907
355.0000	279.439
356.0000	280.079
357.0000	281.605
358.0000	280.925
359.0000	277.987
360.0000	277.699
361.0000	278.868
362.0000	277.658
363.0000	276.823
364.0000	277.246
365.0000	278.81
366.0000	277.025
367.0000	277.473
368.0000	280.622
369.0000	278.757
370.0000	277.551
371.0000	280.146
372.0000	281.645
373.0000	285.601
374.0000	288.866
375.0000	283.664
376.0000	281.757
377.0000	282.662
378.0000	282.332
379.0000	284.363
380.0000	284.199
381.0000	286.248
382.0000	288.097
383.0000	282.745
384.0000	280.838
385.0000	283.876
386.0000	286.282
387.0000	289.467
388.0000	288.687
389.0000	286.578
390.0000	285.555
391.0000	285.289
392.0000	286.635
393.0000	285.997
394.0000	288.816
395.0000	289.091
396.0000	286.973
397.0000	286.922
398.0000	284.67
399.0000	285.605
400.0000	287.407
401.0000	288.043
402.0000	288.378
403.0000	286.665
404.0000	287.829
405.0000	288.179
406.0000	287.478
407.0000	287.51
408.0000	286.555
409.0000	289.715
410.0000	291.207
411.0000	287.435
412.0000	285.813
413.0000	288.049
414.0000	291.101
415.0000	289.514
416.0000	289.73
417.0000	293.848
418.0000	293.384
419.0000	292.986
420.0000	294.194
421.0000	290.911
422.0000	289.888
423.0000	293.102
424.0000	291.162
425.0000	292.268
426.0000	293.416
427.0000	292.306
428.0000	293.846
429.0000	294.259
430.0000	297.418
431.0000	297.104
432.0000	295.065
433.0000	295.029
434.0000	294.777
435.0000	293.234
436.0000	290.211
437.0000	293.122
438.0000	296.347
439.0000	293.171
440.0000	294.139
441.0000	296.197
442.0000	295.101
443.0000	296.002
444.0000	297.815
445.0000	295.707
446.0000	293.02
447.0000	298.722
448.0000	298.452
449.0000	294.826
450.0000	298.53
451.0000	300.777
452.0000	299.094
453.0000	297.176
454.0000	296.3
455.0000	293.549
456.0000	295.657
457.0000	301.581
458.0000	302.782
459.0000	299.219
460.0000	296.415
461.0000	297.478
462.0000	299.988
463.0000	299.769
464.0000	291.863
465.0000	287.883
466.0000	287.495
467.0000	288.025
468.0000	290.513
469.0000	288.14
470.0000	289.896
471.0000	289.048
472.0000	286.725
473.0000	285.643
474.0000	287.062
475.0000	291.675
476.0000	289.139
477.0000	290.655
478.0000	293.287
479.0000	289.75
480.0000	288.241
481.0000	289.465
482.0000	291.689
483.0000	290.273
484.0000	288.849
485.0000	290.53
486.0000	292.227
487.0000	294.017
488.0000	295.475
489.0000	296.18
490.0000	295.95
491.0000	298.663
492.0000	298.99
493.0000	298.579
494.0000	298.232
495.0000	295.378
496.0000	294.984
497.0000	295.2
498.0000	296.019
499.0000	294.45
500.0000	294.365
501.0000	296.232
502.0000	295.539
503.0000	295.897
504.0000	297.314
505.0000	296.546
506.0000	293.912
507.0000	293.863
508.0000	294.297
509.0000	293.014
510.0000	293.675
511.0000	294.07
512.0000	295.955
513.0000	297.668
514.0000	298.429
515.0000	298.02
516.0000	297.295
517.0000	297.899
518.0000	297.549
519.0000	297.79
520.0000	296.867
521.0000	303.386
522.0000	311.796
523.0000	309.978
524.0000	308.995
525.0000	311.807
526.0000	312.007
527.0000	313.839
528.0000	312.368
529.0000	310.345
530.0000	313.06
531.0000	314.422
532.0000	313.559
533.0000	311.645
534.0000	309.781
535.0000	307.727
536.0000	309.625
537.0000	313.624
538.0000	312.733
539.0000	313.034
540.0000	316.759
541.0000	316.953
542.0000	311.883
543.0000	311.212
544.0000	317.364
545.0000	315.082
546.0000	314.601
547.0000	316.747
548.0000	314.164
549.0000	313.825
550.0000	316.135
551.0000	315.096
552.0000	314.771
553.0000	315.722
554.0000	314.475
555.0000	315.595
556.0000	315.096
557.0000	313.28
558.0000	313.063
559.0000	313.679
560.0000	314.991
561.0000	314.928
562.0000	314.13
563.0000	319.43
564.0000	318.607
565.0000	316.084
566.0000	319.932
567.0000	316.966
568.0000	313.923
569.0000	318.17
570.0000	320.594
571.0000	319.116
572.0000	318.681
573.0000	317.171
574.0000	315.445
575.0000	316.46
576.0000	316.125
577.0000	317.012
578.0000	319.57
579.0000	319.743
580.0000	318.747
581.0000	317.246
582.0000	315.177
583.0000	315.638
584.0000	317.751
585.0000	318.049
586.0000	322.685
587.0000	323.434
588.0000	320.477
589.0000	322.032
590.0000	321.842
591.0000	321.012
592.0000	322.494
593.0000	322.644
594.0000	322.34
595.0000	321.903
596.0000	320.307
597.0000	320.55
598.0000	320.344
599.0000	320.234
600.0000	320.189
601.0000	321.598
602.0000	321.352
603.0000	321.056
604.0000	323.339
605.0000	325.277
606.0000	326.767
607.0000	323.506
608.0000	323.928
609.0000	325.009
610.0000	320.81
611.0000	322.942
612.0000	322.336
613.0000	320.838
614.0000	322.849
615.0000	325.162
616.0000	327.179
617.0000	326.506
618.0000	326.33
619.0000	325.745
620.0000	325.04
621.0000	325.71
622.0000	325.68
623.0000	322.694
624.0000	326.615
625.0000	330.91
626.0000	326.815
627.0000	328.206
628.0000	328.263
629.0000	325.445
630.0000	325.795
631.0000	328.772
632.0000	329.786
633.0000	327.571
634.0000	327.269
635.0000	325.993
636.0000	325.583
637.0000	326.768
638.0000	326.282
639.0000	326.764
640.0000	327.065
641.0000	324.84
642.0000	325.417
643.0000	327.986
644.0000	327.113
645.0000	325.106
646.0000	325.552
647.0000	324.621
648.0000	324.994
649.0000	328.36
650.0000	331.204
651.0000	329.833
652.0000	327.441
653.0000	330.319
654.0000	331.782
655.0000	327.756
656.0000	330.19
657.0000	331.737
658.0000	328.197
659.0000	330.962
660.0000	332.484
661.0000	332.79
662.0000	330.562
663.0000	329.922
664.0000	330.025
665.0000	328.878
666.0000	333.704
667.0000	335.011
668.0000	332.589
669.0000	335.158
670.0000	337.655
671.0000	337.386
672.0000	331.847
673.0000	328.126
674.0000	335.732
675.0000	338.353
676.0000	335.456
677.0000	331.379
678.0000	330.814
679.0000	335.682
680.0000	334.532
681.0000	330.866
682.0000	330.971
683.0000	332.586
684.0000	334.674
685.0000	334.6
686.0000	335.022
687.0000	332.929
688.0000	332.571
689.0000	338.122
690.0000	337.641
691.0000	333.743
692.0000	332.628
693.0000	334.011
694.0000	334.121
695.0000	333.703
696.0000	336.303
697.0000	338.234
698.0000	335.667
699.0000	337.363
700.0000	340.396
701.0000	339.691
702.0000	339.114
703.0000	336.334
704.0000	335.584
705.0000	337.21
706.0000	338.878
707.0000	339.357
708.0000	340.273
709.0000	337.85
710.0000	338.031
711.0000	340.295
712.0000	338.974
713.0000	337.992
714.0000	336.98
715.0000	338.734
716.0000	340.579
717.0000	340.559
718.0000	341.272
719.0000	339.039
720.0000	338.268
721.0000	339.544
722.0000	338.666
723.0000	342.218
724.0000	341.454
725.0000	340.674
726.0000	342.295
727.0000	344.535
728.0000	343.643
729.0000	342.365
730.0000	343.861
731.0000	339.133
732.0000	338.909
733.0000	340.778
734.0000	339.326
735.0000	341.68
736.0000	343.221
737.0000	342.911
738.0000	344.479
739.0000	344.468
740.0000	342.26
741.0000	341.976
742.0000	344.555
743.0000	345.798
744.0000	345.115
745.0000	342.729
746.0000	343.88
747.0000	344.027
748.0000	339.685
749.0000	341.095
750.0000	343.151
751.0000	344.724
752.0000	345.323
753.0000	342.641
754.0000	344.164
755.0000	344.181
756.0000	343.879
757.0000	343.588
758.0000	343.465
759.0000	344.075
760.0000	345.139
761.0000	348.123
762.0000	346.182
763.0000	343.512
764.0000	346.723
765.0000	349.03
766.0000	348.191
767.0000	349.477
768.0000	350.592
769.0000	346.591
770.0000	343.024
771.0000	345.263
772.0000	346.769
773.0000	348.269
774.0000	348.132
775.0000	345.762
776.0000	344.112
777.0000	343.667
778.0000	345.996
779.0000	348.328
780.0000	348.818
781.0000	351.34
782.0000	350.513
783.0000	345.682
784.0000	347.164
785.0000	347.149
786.0000	347.53
787.0000	350.146
788.0000	349.917
789.0000	350.611
790.0000	347.86
791.0000	344.54
792.0000	349.402
793.0000	349.285
794.0000	348.104
795.0000	352.899
796.0000	351.896
797.0000	349.03
798.0000	351.617
799.0000	353.754
800.0000	353.688
801.0000	354.009
802.0000	354.519
803.0000	352.617
804.0000	349.071
805.0000	349.719
806.0000	351.55
807.0000	354.297
808.0000	353.424
809.0000	353.534
810.0000	353.823
811.0000	351.563
812.0000	353.675
813.0000	354.868
814.0000	352.018
815.0000	351.72
816.0000	353.065
817.0000	353.471
818.0000	352.541
819.0000	352.892
820.0000	352.149
821.0000	352.001
822.0000	354.179
823.0000	352.452
824.0000	350.537
825.0000	352.701
826.0000	357.026
827.0000	354.224
828.0000	349.809
829.0000	353.402
830.0000	354.914
831.0000	353.138
832.0000	354.754
833.0000	355.47
834.0000	355.293
835.0000	353.373
836.0000	353.115
837.0000	352.333
838.0000	352.886
839.0000	353.03
840.0000	351.482
841.0000	354.042
842.0000	356.583
843.0000	359.218
844.0000	357.199
845.0000	353.252
846.0000	357.099
847.0000	357.378
848.0000	355.777
849.0000	354.817
850.0000	355.227
851.0000	356.661
852.0000	355.698
853.0000	357.436
854.0000	359.498
855.0000	358.096
856.0000	359.29
857.0000	359.653
858.0000	355.996
859.0000	357.877
860.0000	359.23
861.0000	358.928
862.0000	357.973
863.0000	358.6
864.0000	358.843
865.0000	357.22
866.0000	355.305
867.0000	356.893
868.0000	360.054
869.0000	357.423
870.0000	357.376
871.0000	359.069
872.0000	358.239
873.0000	362.872
874.0000	367.002
875.0000	361.291
876.0000	361.119
877.0000	366.299
878.0000	364.525
879.0000	361.754
880.0000	361.009
881.0000	361.059
882.0000	360.452
883.0000	362.792
884.0000	363.926
885.0000	362.264
886.0000	362.67
887.0000	362.686
888.0000	361.225
889.0000	360.109
890.0000	364.675
891.0000	364.816
892.0000	362.766
893.0000	365.124
894.0000	365.479
895.0000	364.878
896.0000	363.605
897.0000	363.886
898.0000	363.115
899.0000	364.221
900.0000	365.392
901.0000	362.92
902.0000	362.443
903.0000	365.731
904.0000	363.923
905.0000	361.518
906.0000	362.814
907.0000	363.377
908.0000	365.069
909.0000	366.33
910.0000	365.588
911.0000	362.617
912.0000	362.98
913.0000	363.782
914.0000	363.402
915.0000	366.08
916.0000	368.698
917.0000	366.628
918.0000	363.355
919.0000	364.256
920.0000	368.365
921.0000	368.575
922.0000	365.321
923.0000	365.366
924.0000	364.718
925.0000	367.655
926.0000	368.938
927.0000	366.895
928.0000	365.35
929.0000	367.46
930.0000	371.083
931.0000	369.007
932.0000	367.735
933.0000	369.517
934.0000	369.355
935.0000	367.874
936.0000	368.981
937.0000	369.649
938.0000	369.088
939.0000	367.756
940.0000	366.041
941.0000	365.991
942.0000	368.927
943.0000	370.15
944.0000	368.028
945.0000	369.122
946.0000	366.359
947.0000	363.339
948.0000	369.536
949.0000	370.367
950.0000	369.811
951.0000	369.393
952.0000	368.912
953.0000	368.423
954.0000	366.161
955.0000	368.674
956.0000	368.375
957.0000	365.544
958.0000	366.372
959.0000	367.044
960.0000	366.41
961.0000	367.421
962.0000	371.721
963.0000	371.047
964.0000	366.888
965.0000	369.295
966.0000	372.499
967.0000	372.916
968.0000	371.418
969.0000	371.331
970.0000	371.692
971.0000	369.615
972.0000	369.895
973.0000	373.973
974.0000	374.197
975.0000	369.766
976.0000	367.349
977.0000	369.321
978.0000	372.278
979.0000	370.242
980.0000	367.775
981.0000	371.014
982.0000	372.241
983.0000	368.451
984.0000	370.914
985.0000	369.738
986.0000	366.997
987.0000	369.63
988.0000	369.129
989.0000	368.406
990.0000	371.423
991.0000	373.757
992.0000	372.867
993.0000	373.438
994.0000	372.913
995.0000	370.718
996.0000	371.666
997.0000	372.895
998.0000	373.441
999.0000	374.76
1000.0000	373.993
1001.0000	373.256
1002.0000	374.092
1003.0000	375.187
1004.0000	372.415
1005.0000	371.321
1006.0000	372.508
1007.0000	371.956
1008.0000	373.905
1009.0000	375.536
1010.0000	377.371
1011.0000	372.849
1012.0000	372.733
1013.0000	378.343
1014.0000	374.626
1015.0000	372.718
1016.0000	373.467
1017.0000	374.814
1018.0000	373.536
1019.0000	372.673
1020.0000	374.987
1021.0000	375.669
1022.0000	374.397
1023.0000	375.381
1024.0000	375.482
1025.0000	375.378
1026.0000	377.323
1027.0000	375.158
1028.0000	373.217
1029.0000	373.113
1030.0000	371.875
1031.0000	375.092
1032.0000	377.73
1033.0000	374.163
1034.0000	374.338
1035.0000	375.61
1036.0000	373.049
1037.0000	370.628
1038.0000	373.458
1039.0000	374.274
1040.0000	373.224
1041.0000	378.797
1042.0000	381.276
1043.0000	378.518
1044.0000	378.058
1045.0000	377.999
1046.0000	378.118
1047.0000	381.352
1048.0000	378.828
1049.0000	379.915
1050.0000	383.329
1051.0000	378.398
1052.0000	376.444
1053.0000	377.873
1054.0000	380.447
1055.0000	382.139
1056.0000	381.901
1057.0000	382.494
1058.0000	379.842
1059.0000	376.103
1060.0000	377.192
1061.0000	378.591
1062.0000	378.156
1063.0000	377.606
1064.0000	376.614
1065.0000	376.534
1066.0000	379.194
1067.0000	379.189
1068.0000	378.896
1069.0000	377.471
1070.0000	377.303
1071.0000	380.351
1072.0000	379.795
1073.0000	380.497
1074.0000	383.449
1075.0000	382.741
1076.0000	382.782
1077.0000	385.199
1078.0000	382.799
1079.0000	379.327
1080.0000	378.866
1081.0000	376.932
1082.0000	377.647
1083.0000	382.513
1084.0000	382.444
1085.0000	382.183
1086.0000	381.606
1087.0000	380.953
1088.0000	381.712
1089.0000	381.985
1090.0000	383.57
1091.0000	382.763
1092.0000	382.853
1093.0000	381.35
1094.0000	378.866
1095.0000	379.067
1096.0000	380.034
1097.0000	382.823
1098.0000	382.04
1099.0000	380.388
1100.0000	382.897
1101.0000	384.155
1102.0000	386.969
1103.0000	387.764
1104.0000	383.889
1105.0000	383.727
1106.0000	385.054
1107.0000	386.287
1108.0000	385.142
1109.0000	384.474
1110.0000	385.923
1111.0000	385.792
1112.0000	386.826
1113.0000	386.252
1114.0000	383.28
1115.0000	382.108
1116.0000	384.15
1117.0000	385.755
1118.0000	385.212
1119.0000	384.112
1120.0000	383.703
1121.0000	384.528
1122.0000	383.202
1123.0000	382.8
1124.0000	385.57
1125.0000	388.874
1126.0000	387.395
1127.0000	387.302
1128.0000	390.511
1129.0000	387.882
1130.0000	385.816
1131.0000	386.91
1132.0000	388.595
1133.0000	386.75
1134.0000	384.314
1135.0000	388.146
1136.0000	390.094
1137.0000	386.394
1138.0000	385.4
1139.0000	385.888
1140.0000	386.888
1141.0000	386.826
1142.0000	387.226
1143.0000	386.83
1144.0000	387.191
1145.0000	388.225
1146.0000	383.569
1147.0000	385.152
1148.0000	386.927
1149.0000	384.27
1150.0000	385.868
1151.0000	388.208
1152.0000	388.903
1153.0000	385.932
1154.0000	384.566
1155.0000	385.439
1156.0000	387.628
1157.0000	388.705
1158.0000	387.365
1159.0000	386.417
1160.0000	385.41
1161.0000	384.887
1162.0000	385.75
1163.0000	389.226
1164.0000	391.409
1165.0000	389.995
1166.0000	388.703
1167.0000	390.953
1168.0000	391.957
1169.0000	390.56
1170.0000	388.708
1171.0000	390.209
1172.0000	391.23
1173.0000	387.301
1174.0000	386.519
1175.0000	386.683
1176.0000	384.901
1177.0000	388.365
1178.0000	393.01
1179.0000	392.441
1180.0000	393.234
1181.0000	392.911
1182.0000	391.117
1183.0000	395.412
1184.0000	394.505
1185.0000	389.296
1186.0000	387.958
1187.0000	390.972
1188.0000	392.936
1189.0000	390.843
1190.0000	389.857
1191.0000	387.455
1192.0000	389.6
1193.0000	393.501
1194.0000	390.837
1195.0000	392.59
1196.0000	391.968
1197.0000	390.169
1198.0000	393.444
1199.0000	392.615
1200.0000	392.371
1201.0000	392.544
1202.0000	390.515
1203.0000	392.11
1204.0000	393.759
1205.0000	393.037
1206.0000	388.774
1207.0000	384.918
1208.0000	388.492
1209.0000	392.511
1210.0000	394.521
1211.0000	396.702
1212.0000	397.038
1213.0000	395.32
1214.0000	394.323
1215.0000	392.965
1216.0000	390.617
1217.0000	389.261
1218.0000	389.273
1219.0000	393.588
1220.0000	394.224
1221.0000	390.64
1222.0000	392.377
1223.0000	392.444
1224.0000	392.176
1225.0000	393.187
1226.0000	393.61
1227.0000	394.865
1228.0000	393.505
1229.0000	394.014
1230.0000	398.107
1231.0000	395.708
1232.0000	393.358
1233.0000	394.246
1234.0000	394.87
1235.0000	396.933
1236.0000	394.826
1237.0000	394.125
1238.0000	397.131
1239.0000	397.335
1240.0000	395.929
1241.0000	396.147
1242.0000	394.81
1243.0000	394.891
1244.0000	396.55
1245.0000	396.937
1246.0000	396.295
1247.0000	395.535
1248.0000	397.863
1249.0000	398.8
1250.0000	398.516
1251.0000	396.414
1252.0000	394.943
1253.0000	396.907
1254.0000	400.666
1255.0000	398.206
1256.0000	396.067
1257.0000	397.175
1258.0000	396.487
1259.0000	397.697
1260.0000	396.471
1261.0000	395.849
1262.0000	398.87
1263.0000	401.887
1264.0000	401.229
1265.0000	399.275
1266.0000	395.837
1267.0000	393.788
1268.0000	396.509
1269.0000	397.745
1270.0000	398.302
1271.0000	401.129
1272.0000	398.438
1273.0000	396.092
1274.0000	397.133
1275.0000	396.082
1276.0000	396.714
1277.0000	394.909
1278.0000	394.573
1279.0000	400.122
1280.0000	399.12
1281.0000	395.681
1282.0000	395.619
1283.0000	397.054
1284.0000	403.42
1285.0000	402.779
1286.0000	399.539
1287.0000	398.801
1288.0000	399.614
1289.0000	403.091
1290.0000	401.77
1291.0000	399.104
1292.0000	400.294
1293.0000	398.92
1294.0000	396.305
1295.0000	398.944
1296.0000	401.55
1297.0000	401.056
1298.0000	399.266
1299.0000	399.738
1300.0000	402.842
1301.0000	399.786
1302.0000	396.414
1303.0000	396.648
1304.0000	395.828
1305.0000	398.713
1306.0000	400.506
1307.0000	400.031
1308.0000	398.907
1309.0000	403.261
1310.0000	405.487
1311.0000	402.408
1312.0000	402.641
1313.0000	401.027
1314.0000	397.625
1315.0000	401.45
1316.0000	403.526
1317.0000	399.156
1318.0000	398.334
1319.0000	394.432
1320.0000	394.399
1321.0000	400.916
1322.0000	402.423
1323.0000	400.557
1324.0000	400.833
1325.0000	401.327
1326.0000	401.637
1327.0000	403.332
1328.0000	403.66
1329.0000	401.406
1330.0000	402.327
1331.0000	403.237
1332.0000	402.481
1333.0000	403.016
1334.0000	402.376
1335.0000	403.3
1336.0000	402.71
1337.0000	402.503
1338.0000	403.479
1339.0000	402.008
1340.0000	400.649
1341.0000	401.114
1342.0000	404.187
1343.0000	405.798
1344.0000	403.462
1345.0000	403.502
1346.0000	402.623
1347.0000	403.126
1348.0000	404.167
1349.0000	401.272
1350.0000	399.709
1351.0000	401.113
1352.0000	400.985
1353.0000	399.467
1354.0000	401.285
1355.0000	403.946
1356.0000	405.353
1357.0000	405.967
1358.0000	408.851
1359.0000	409.555
1360.0000	404.699
1361.0000	401.688
1362.0000	402.48
1363.0000	403.638
1364.0000	405.109
1365.0000	406.299
1366.0000	402.82
1367.0000	404.735
1368.0000	405.868
1369.0000	403.7
1370.0000	406.123
1371.0000	402.146
1372.0000	400.091
1373.0000	403.514
1374.0000	403.709
1375.0000	404.474
1376.0000	405.657
1377.0000	404.746
1378.0000	404.014
1379.0000	404.645
1380.0000	405.48
1381.0000	406.443
1382.0000	409.843
1383.0000	406.602
1384.0000	406.706
1385.0000	411.153
1386.0000	411.009
1387.0000	412.159
1388.0000	411.471
1389.0000	409.766
1390.0000	403.622
1391.0000	400.595
1392.0000	405.912
1393.0000	407.099
1394.0000	404.847
1395.0000	407.47
1396.0000	408.323
1397.0000	407.133
1398.0000	407.765
1399.0000	404.783
1400.0000	405.125
1401.0000	410.099
1402.0000	411.474
1403.0000	408.355
1404.0000	407.465
1405.0000	407.423
1406.0000	405.846
1407.0000	406.747
1408.0000	406.947
1409.0000	405.499
1410.0000	406.051
1411.0000	406.692
1412.0000	408.093
1413.0000	408.886
1414.0000	407.51
1415.0000	406.113
1416.0000	407.131
1417.0000	409.059
1418.0000	406.456
1419.0000	405.633
1420.0000	407.406
1421.0000	409.729
1422.0000	408.098
1423.0000	407.338
1424.0000	409.919
1425.0000	407.411
1426.0000	407.889
1427.0000	409.39
1428.0000	408.889
1429.0000	409.647
1430.0000	408.903
1431.0000	408.556
1432.0000	409.52
1433.0000	407.882
1434.0000	406.587
1435.0000	406.798
1436.0000	409.797
1437.0000	413.155
1438.0000	411.762
1439.0000	406.342
1440.0000	405.282
1441.0000	407.739
1442.0000	410.884
1443.0000	412.769
1444.0000	410.839
1445.0000	407.834
1446.0000	406.312
1447.0000	409.292
1448.0000	410.712
1449.0000	411.79
1450.0000	411.395
1451.0000	411.048
1452.0000	409.442
1453.0000	410.467
1454.0000	412.005
1455.0000	411.95
1456.0000	413.938
1457.0000	409.64
1458.0000	409.556
1459.0000	412.308
1460.0000	411.323
1461.0000	412.857
1462.0000	413.56
1463.0000	409.231
1464.0000	408.69
1465.0000	412.138
1466.0000	413.26
1467.0000	411.585
1468.0000	411.593
1469.0000	415.663
1470.0000	414.208
1471.0000	410.024
1472.0000	410.092
1473.0000	413.779
1474.0000	413.174
1475.0000	409.355
1476.0000	409.825
1477.0000	413.506
1478.0000	416.986
1479.0000	415.205
1480.0000	411.703
1481.0000	411.531
1482.0000	411.827
1483.0000	416.02
1484.0000	419.087
1485.0000	413.916
1486.0000	413.037
1487.0000	414.339
1488.0000	413.187
1489.0000	411.035
1490.0000	407.628
1491.0000	411.459
1492.0000	417.038
1493.0000	417.437
1494.0000	413.212
1495.0000	409.863
1496.0000	407.95
1497.0000	408.71
1498.0000	412.776
1499.0000	416.407
1500.0000	416.144
1501.0000	412.516
1502.0000	411.932
1503.0000	413.383
1504.0000	416.135
1505.0000	416.912
1506.0000	416.292
1507.0000	417.291
1508.0000	413.859
1509.0000	414.527
1510.0000	414.522
1511.0000	410.345
1512.0000	412.374
1513.0000	416.229
1514.0000	417.021
1515.0000	415.034
1516.0000	415.907
1517.0000	416.448
1518.0000	414.531
1519.0000	412.602
1520.0000	412.291
1521.0000	414.514
1522.0000	417.361
1523.0000	415.873
1524.0000	415.673
1525.0000	418.599
1526.0000	420.017
1527.0000	419.274
1528.0000	414.39
1529.0000	408.493
1530.0000	410.495
1531.0000	414.65
1532.0000	414.859
1533.0000	416.938
1534.0000	412.967
1535.0000	408.291
1536.0000	412.387
1537.0000	415.398
1538.0000	417.017
1539.0000	416.918
1540.0000	412.152
1541.0000	412.825
1542.0000	419.022
1543.0000	418.062
1544.0000	417.331
1545.0000	418.408
1546.0000	416.472
1547.0000	415.136
1548.0000	417.062
1549.0000	418.538
1550.0000	418.559
1551.0000	417.999
1552.0000	416.446
1553.0000	412.635
1554.0000	411.799
1555.0000	414.644
1556.0000	414.362
1557.0000	420.254
1558.0000	421.687
1559.0000	420.211
1560.0000	418.913
1561.0000	417.756
1562.0000	419.28
1563.0000	418.179
1564.0000	417.156
1565.0000	419.489
1566.0000	416.149
1567.0000	413.849
1568.0000	418.931
1569.0000	418.418
1570.0000	417.299
1571.0000	418.701
1572.0000	419.594
1573.0000	417.965
1574.0000	418.404
1575.0000	419.199
1576.0000	418.445
1577.0000	418.106
1578.0000	420.461
1579.0000	417.786
1580.0000	418.177
1581.0000	421.312
1582.0000	416.34
1583.0000	414.988
1584.0000	416.312
1585.0000	416.318
1586.0000	416.416
1587.0000	417.623
1588.0000	418.027
1589.0000	417.474
1590.0000	418.062
1591.0000	422.233
1592.0000	424.493
1593.0000	422.424
1594.0000	418.6
1595.0000	419.533
1596.0000	420.212
1597.0000	418.103
1598.0000	420.011
1599.0000	421.189
1600.0000	421.548
1601.0000	418.634
1602.0000	417.433
1603.0000	422.998
1604.0000	422.459
1605.0000	418.125
1606.0000	421.424
1607.0000	422.369
1608.0000	419.092
1609.0000	420.216
1610.0000	424.092
1611.0000	423.107
1612.0000	419.659
1613.0000	420.178
1614.0000	421.499
1615.0000	419.259
1616.0000	418.646
1617.0000	419.632
1618.0000	421.29
1619.0000	424.706
1620.0000	424.216
1621.0000	417.27
1622.0000	415.506
1623.0000	419.181
1624.0000	420.497
1625.0000	425.693
1626.0000	425.43
1627.0000	419.237
1628.0000	418.689
1629.0000	423.136
1630.0000	421.11
1631.0000	419.824
1632.0000	422.092
1633.0000	420.203
1634.0000	419.603
1635.0000	421.321
1636.0000	422.816
1637.0000	421.975
1638.0000	423.092
1639.0000	421.38
1640.0000	422.63
1641.0000	426.93
1642.0000	424.394
1643.0000	426.267
1644.0000	430.256
1645.0000	423.259
1646.0000	418.831
1647.0000	419.795
1648.0000	424.505
1649.0000	424.577
1650.0000	421.94
1651.0000	423.532
1652.0000	423.753
1653.0000	425.878
1654.0000	426.51
1655.0000	426.945
1656.0000	426.247
1657.0000	425.16
1658.0000	428.299
1659.0000	426.078
1660.0000	417.689
1661.0000	420.676
1662.0000	426.262
1663.0000	425.294
1664.0000	424.388
1665.0000	422.226
1666.0000	422.238
1667.0000	424.958
1668.0000	424.339
1669.0000	424.376
1670.0000	424.32
1671.0000	423.038
1672.0000	421.667
1673.0000	421.298
1674.0000	422.028
1675.0000	423.583
1676.0000	425.427
1677.0000	424.776
1678.0000	425.67
1679.0000	422.645
1680.0000	422.576
1681.0000	425.264
1682.0000	423.137
1683.0000	422.76
1684.0000	421.676
1685.0000	424.479
1686.0000	425.872
1687.0000	423.053
1688.0000	425.892
1689.0000	426.032
1690.0000	423.066
1691.0000	424.499
1692.0000	423.409
1693.0000	421.332
1694.0000	423.177
1695.0000	426.138
1696.0000	428.43
1697.0000	424.454
1698.0000	422.188
1699.0000	422.274
1700.0000	421.634
1701.0000	424.783
1702.0000	424.34
1703.0000	423.62
1704.0000	425.461
1705.0000	428.889
1706.0000	428.999
1707.0000	425.11
1708.0000	425.88
1709.0000	428.185
1710.0000	424.464
1711.0000	422.536
1712.0000	424.038
1713.0000	422.884
1714.0000	424.145
1715.0000	425.069
1716.0000	426.399
1717.0000	425.177
1718.0000	424.326
1719.0000	427.323
1720.0000	427.89
1721.0000	427.687
1722.0000	427.616
1723.0000	428.056
1724.0000	426.713
1725.0000	423.343
1726.0000	425.489
1727.0000	426.718
1728.0000	424.069
1729.0000	425.561
1730.0000	426.24
1731.0000	427.77
1732.0000	427.001
1733.0000	425.86
1734.0000	425.586
1735.0000	422.503
1736.0000	426.148
1737.0000	428.945
1738.0000	425.97
1739.0000	426.73
1740.0000	428.419
1741.0000	427.19
1742.0000	427.54
1743.0000	427.957
1744.0000	425.78
1745.0000	425.211
1746.0000	429.853
1747.0000	429.848
1748.0000	428.15
1749.0000	430.502
1750.0000	427.364
1751.0000	426.235
1752.0000	429.053
1753.0000	427.468
1754.0000	426.617
1755.0000	428.07
1756.0000	427.757
1757.0000	429.429
1758.0000	428.849
1759.0000	425.728
1760.0000	424.547
1761.0000	426.601
1762.0000	427.307
1763.0000	428.631
1764.0000	430.509
1765.0000	431.124
1766.0000	431.202
1767.0000	428.692
1768.0000	429.939
1769.0000	427.74
1770.0000	425.605
1771.0000	426.833
1772.0000	425.823
1773.0000	426.732
1774.0000	427.334
1775.0000	426.54
1776.0000	426.931
1777.0000	429.305
1778.0000	427.623
1779.0000	424.934
1780.0000	426.993
1781.0000	428.603
1782.0000	432.519
1783.0000	433.595
1784.0000	430.51
1785.0000	432.052
1786.0000	434.21
1787.0000	432.031
1788.0000	428.253
1789.0000	430.495
1790.0000	432.816
1791.0000	435.101
1792.0000	433.593
1793.0000	429.452
1794.0000	426.279
1795.0000	424.522
1796.0000	429.335
1797.0000	432.63
1798.0000	430.976
1799.0000	431.224
1800.0000	431.849
1801.0000	428.779
1802.0000	432.86
1803.0000	434.47
1804.0000	430.725
1805.0000	429.943
1806.0000	428.282
1807.0000	429.584
1808.0000	432.343
1809.0000	432.441
1810.0000	430.716
1811.0000	428.255
1812.0000	427.454
1813.0000	429.462
1814.0000	431.576
1815.0000	431.634
1816.0000	434.085
1817.0000	432.497
1818.0000	430.149
1819.0000	431.869
1820.0000	427.592
1821.0000	428.431
1822.0000	432.555
1823.0000	432.339
1824.0000	430.5
1825.0000	430.889
1826.0000	432.902
1827.0000	432.215
1828.0000	428.96
1829.0000	430.198
1830.0000	431.795
1831.0000	430.193
1832.0000	433.949
1833.0000	434.759
1834.0000	435.448
1835.0000	435.936
1836.0000	436.348
1837.0000	434.84
1838.0000	431.769
1839.0000	432.565
1840.0000	431.538
1841.0000	429.818
1842.0000	430.632
1843.0000	429.382
1844.0000	427.079
1845.0000	431.168
1846.0000	435.24
1847.0000	431.842
1848.0000	429.173
1849.0000	431.852
1850.0000	430.968
1851.0000	432.733
1852.0000	435.144
1853.0000	433.411
1854.0000	431.396
1855.0000	429.975
1856.0000	429.036
1857.0000	429.721
1858.0000	429.39
1859.0000	428.265
1860.0000	430.633
1861.0000	430.891
1862.0000	431.03
1863.0000	430.91
1864.0000	429.777
1865.0000	431.481
1866.0000	432.391
1867.0000	432.229
1868.0000	433.894
1869.0000	434.739
1870.0000	436.512
1871.0000	435.141
1872.0000	432.655
1873.0000	434.174
1874.0000	434.33
1875.0000	429.867
1876.0000	431.492
1877.0000	435.794
1878.0000	434.63
1879.0000	434.708
1880.0000	437.626
1881.0000	438.705
1882.0000	434.7
1883.0000	433.068
1884.0000	439.018
1885.0000	439.891
1886.0000	435.53
1887.0000	435.64
1888.0000	433.708
1889.0000	433.399
1890.0000	434.111
1891.0000	433.009
1892.0000	432.445
1893.0000	435.285
1894.0000	437.72
1895.0000	437.231
1896.0000	435.687
1897.0000	436.265
1898.0000	438.417
1899.0000	434.883
1900.0000	431.985
1901.0000	433.408
1902.0000	435.797
1903.0000	435.985
1904.0000	433.599
1905.0000	432.084
1906.0000	436.339
1907.0000	439.822
1908.0000	439.051
1909.0000	439.176
1910.0000	436.435
1911.0000	439.153
1912.0000	440.239
1913.0000	435.216
1914.0000	434.046
1915.0000	431.654
1916.0000	436.233
1917.0000	441.245
1918.0000	435.921
1919.0000	435.112
1920.0000	435.802
1921.0000	436.468
1922.0000	441.479
1923.0000	438.07
1924.0000	436.787
1925.0000	434.685
1926.0000	430.993
1927.0000	434.269
1928.0000	434.909
1929.0000	435.617
1930.0000	435.888
1931.0000	431.64
1932.0000	430.489
1933.0000	432.139
1934.0000	434.979
1935.0000	434.161
1936.0000	434.347
1937.0000	436.991
1938.0000	437.491
1939.0000	437.764
1940.0000	432.628
1941.0000	429.52
1942.0000	434.637
1943.0000	440.431
1944.0000	439.538
1945.0000	436.395
1946.0000	436.944
1947.0000	437.781
1948.0000	439.661
1949.0000	437.677
1950.0000	436.426
1951.0000	439.771
1952.0000	439.468
1953.0000	441.84
1954.0000	444.896
1955.0000	442.774
1956.0000	436.963
1957.0000	436.155
1958.0000	437.025
1959.0000	435.591
1960.0000	436.019
1961.0000	439.173
1962.0000	441.758
1963.0000	440.044
1964.0000	438.198
1965.0000	438.401
1966.0000	435.793
1967.0000	433.939
1968.0000	436.423
1969.0000	441.149
1970.0000	440.045
1971.0000	437.528
1972.0000	438.117
1973.0000	436.085
1974.0000	438.972
1975.0000	441.702
1976.0000	439.556
1977.0000	443.659
1978.0000	444.166
1979.0000	440.79
1980.0000	443.495
1981.0000	440.307
1982.0000	437.248
1983.0000	436.47
1984.0000	435.073
1985.0000	438.535
1986.0000	443.265
1987.0000	443.313
1988.0000	441.655
1989.0000	441.192
1990.0000	439.93
1991.0000	439.874
1992.0000	439.817
1993.0000	438.087
1994.0000	438.664
1995.0000	441.317
1996.0000	439.57
1997.0000	438.846
1998.0000	438.253
1999.0000	437.722
2000.0000	440.411
2001.0000	440.139
2002.0000	439.657
2003.0000	440.695
2004.0000	439.514
2005.0000	443.101
2006.0000	443.011
2007.0000	437.725
2008.0000	437.655
2009.0000	441.654
2010.0000	441.498
2011.0000	440.03
2012.0000	439.534
2013.0000	439.209
2014.0000	441.455
2015.0000	438.581
2016.0000	439.756
2017.0000	441.703
2018.0000	442.883
2019.0000	440.979
2020.0000	440.148
2021.0000	442.386
2022.0000	438.661
2023.0000	439.957
2024.0000	444.098
2025.0000	441.634
2026.0000	439.146
2027.0000	439.406
2028.0000	438.233
2029.0000	438.846
2030.0000	436.328
2031.0000	434.851
2032.0000	441.13
2033.0000	442.387
2034.0000	439.659
2035.0000	440.777
2036.0000	439.979
2037.0000	440.527
2038.0000	441.89
2039.0000	439.574
2040.0000	440.842
2041.0000	442.486
2042.0000	442.646
2043.0000	440.329
2044.0000	438.001
2045.0000	441.485
2046.0000	441.07
2047.0000	440.754
2048.0000	441.583
2049.0000	440.048
2050.0000	440.571
2051.0000	442.711
2052.0000	444.285
2053.0000	439.761
2054.0000	439.889
2055.0000	444.101
2056.0000	440.155
2057.0000	440.099
2058.0000	444.029
2059.0000	441.913
2060.0000	441.753
2061.0000	445.128
2062.0000	444.757
2063.0000	443.132
2064.0000	441.316
2065.0000	439.268
2066.0000	441.557
2067.0000	442.738
2068.0000	441.958
2069.0000	440.65
2070.0000	437.789
2071.0000	438.813
2072.0000	443.581
2073.0000	445.233
2074.0000	444.088
2075.0000	442.591
2076.0000	442.162
2077.0000	444.465
2078.0000	442.102
2079.0000	439.998
2080.0000	439.83
2081.0000	439.049
2082.0000	443.068
2083.0000	444
2084.0000	443.876
2085.0000	443.682
2086.0000	443.755
2087.0000	443.549
2088.0000	443.325
2089.0000	444.946
2090.0000	443.741
2091.0000	443.468
2092.0000	442.683
2093.0000	443.489
2094.0000	444.429
2095.0000	443.694
2096.0000	443.213
2097.0000	441.964
2098.0000	439.431
2099.0000	440.146
2100.0000	445.507
2101.0000	445.78
2102.0000	441.447
2103.0000	441.478
2104.0000	443.216
2105.0000	443.055
2106.0000	442.632
2107.0000	444.041
2108.0000	445.41
2109.0000	442.187
2110.0000	444.793
2111.0000	447.988
2112.0000	444.759
2113.0000	444.036
2114.0000	443.561
2115.0000	446.213
2116.0000	444.491
2117.0000	442.065
2118.0000	443.451
2119.0000	443.145
2120.0000	443.322
2121.0000	439.474
2122.0000	438.775
2123.0000	443.029
2124.0000	441.575
2125.0000	439.708
2126.0000	443.466
2127.0000	444.282
2128.0000	443.129
2129.0000	441.206
2130.0000	438.98
2131.0000	442.708
2132.0000	444.618
2133.0000	443.787
2134.0000	445.184
2135.0000	444.095
2136.0000	444.12
2137.0000	446.035
2138.0000	445.078
2139.0000	446.784
2140.0000	447.266
2141.0000	444.447
2142.0000	444.603
2143.0000	444.346
2144.0000	442.821
2145.0000	447.774
2146.0000	449.71
2147.0000	447.217
2148.0000	448.566
2149.0000	446.907
2150.0000	444.227
2151.0000	443.946
2152.0000	441.034
2153.0000	442.077
2154.0000	448.066
2155.0000	447.579
2156.0000	443.529
2157.0000	442.205
2158.0000	446.114
2159.0000	447.345
2160.0000	447.944
2161.0000	447.995
2162.0000	444.351
2163.0000	445.368
2164.0000	446.656
2165.0000	444.399
2166.0000	444.287
2167.0000	447.27
2168.0000	449.509
2169.0000	446.934
2170.0000	445.11
2171.0000	445.376
2172.0000	442.233
2173.0000	441.265
2174.0000	441.837
2175.0000	444.67
2176.0000	446.813
2177.0000	445.927
2178.0000	445.462
2179.0000	446.899
2180.0000	450.252
2181.0000	446.2
2182.0000	445.785
2183.0000	449.538
2184.0000	450.294
2185.0000	445.83
2186.0000	442.917
2187.0000	445.672
2188.0000	441.793
2189.0000	444.655
2190.0000	450.447
2191.0000	446.156
2192.0000	446.864
2193.0000	447.873
2194.0000	445.95
2195.0000	447.716
2196.0000	446.271
2197.0000	446.79
2198.0000	446.059
2199.0000	444.336
2200.0000	446.943
2201.0000	447.162
2202.0000	447.801
2203.0000	451.49
2204.0000	451.997
2205.0000	449.238
2206.0000	447.34
2207.0000	447.497
2208.0000	447.477
2209.0000	447.283
2210.0000	446.832
2211.0000	449.106
2212.0000	449.106
2213.0000	446.275
2214.0000	449.582
2215.0000	448.41
2216.0000	445.075
2217.0000	446.719
2218.0000	449.296
2219.0000	452.46
2220.0000	451.143
2221.0000	447.027
2222.0000	446.779
2223.0000	447.895
2224.0000	447.994
2225.0000	449.709
2226.0000	450.711
2227.0000	450.223
2228.0000	452.522
2229.0000	450.42
2230.0000	446.954
2231.0000	448.003
2232.0000	450.119
2233.0000	451.769
2234.0000	449.229
2235.0000	449.406
2236.0000	452.198
2237.0000	449.425
2238.0000	447.947
2239.0000	449.961
2240.0000	450.711
2241.0000	444.947
2242.0000	444.108
2243.0000	450.641
2244.0000	449.957
2245.0000	448.657
2246.0000	447.412
2247.0000	446.408
2248.0000	446.81
2249.0000	445.478
2250.0000	446.786
2251.0000	447.511
2252.0000	446.705
2253.0000	446.045
2254.0000	447.344
2255.0000	449.595
2256.0000	446.604
2257.0000	447.143
2258.0000	449.864
2259.0000	449.922
2260.0000	448.386
2261.0000	445.76
2262.0000	447.699
2263.0000	452.631
2264.0000	449.637
2265.0000	446.1
2266.0000	446.92
2267.0000	447.625
2268.0000	447.988
2269.0000	446.641
2270.0000	452.242
2271.0000	454.391
2272.0000	449.21
2273.0000	447.11
2274.0000	447.803
2275.0000	450.879
2276.0000	450.761
2277.0000	450.301
2278.0000	450.711
2279.0000	449.786
2280.0000	450.519
2281.0000	452.308
2282.0000	452.961
2283.0000	450.826
2284.0000	452.088
2285.0000	448.384
2286.0000	445.424
2287.0000	447.488
2288.0000	449.859
2289.0000	451.017
2290.0000	451.812
2291.0000	452.4
2292.0000	449.758
2293.0000	450.157
2294.0000	453.554
2295.0000	454.054
2296.0000	448.052
2297.0000	444.826
2298.0000	448.833
2299.0000	453.84
2300.0000	452.321
2301.0000	453.001
2302.0000	453.811
2303.0000	449.877
2304.0000	448.829
2305.0000	447.956
2306.0000	448.924
2307.0000	450.413
2308.0000	446.434
2309.0000	448.649
2310.0000	454.391
2311.0000	453.435
2312.0000	451.006
2313.0000	446.982
2314.0000	446.843
2315.0000	448.264
2316.0000	449.424
2317.0000	451.28
2318.0000	449.286
2319.0000	451.102
2320.0000	454.024
2321.0000	453.202
2322.0000	450.6
2323.0000	447.992
2324.0000	451.557
2325.0000	452.59
2326.0000	450.582
2327.0000	451.69
2328.0000	453.547
2329.0000	453.691
2330.0000	453.912
2331.0000	450.451
2332.0000	450.302
2333.0000	453.685
2334.0000	448.706
2335.0000	444.594
2336.0000	447.303
2337.0000	447.796
2338.0000	448.742
2339.0000	453.417
2340.0000	453.983
2341.0000	450.907
2342.0000	448.165
2343.0000	450.99
2344.0000	453.238
2345.0000	451.186
2346.0000	451.177
2347.0000	450.561
2348.0000	451.079
2349.0000	452.971
2350.0000	452.277
2351.0000	452.099
2352.0000	451.02
2353.0000	449.695
2354.0000	448.629
2355.0000	450.782
2356.0000	454.49
2357.0000	454.642
2358.0000	452.575
2359.0000	453.153
2360.0000	455.754
2361.0000	452.055
2362.0000	451.165
2363.0000	454.695
2364.0000	451.054
2365.0000	449.284
2366.0000	450.235
2367.0000	449.761
2368.0000	450.832
2369.0000	453.451
2370.0000	454.877
2371.0000	450.425
2372.0000	447.085
2373.0000	450.105
2374.0000	453.796
2375.0000	452.38
2376.0000	450.828
2377.0000	453.22
2378.0000	453.936
2379.0000	453.397
2380.0000	451.276
2381.0000	449.562
2382.0000	452.339
2383.0000	456.126
2384.0000	453.353
2385.0000	448.246
2386.0000	447.457
2387.0000	449.177
2388.0000	453.684
2389.0000	456.476
2390.0000	453.86
2391.0000	454.174
2392.0000	458.277
2393.0000	455.09
2394.0000	451.103
2395.0000	457.912
2396.0000	457.748
2397.0000	451.545
2398.0000	451.809
2399.0000	454.378
2400.0000	453.546
2401.0000	449.953
2402.0000	448.412
2403.0000	448.52
2404.0000	451.982
2405.0000	452.593
2406.0000	451.652
2407.0000	454.258
2408.0000	454.568
2409.0000	452.953
2410.0000	453.467
2411.0000	451.232
2412.0000	453.398
2413.0000	456.196
2414.0000	453.708
2415.0000	451.885
2416.0000	451.151
2417.0000	453.776
2418.0000	454.525
2419.0000	451.576
2420.0000	450.042
2421.0000	453.754
2422.0000	454.63
2423.0000	453.598
2424.0000	452.973
2425.0000	450.757
2426.0000	449.933
2427.0000	450.54
2428.0000	453.133
2429.0000	453.244
2430.0000	452.547
2431.0000	452.34
2432.0000	453.654
2433.0000	455.275
2434.0000	457.107
2435.0000	454.459
2436.0000	452.92
2437.0000	456.328
2438.0000	455.497
2439.0000	453.138
2440.0000	453.409
2441.0000	455.391
2442.0000	454.953
2443.0000	452.449
2444.0000	451.232
2445.0000	451.931
2446.0000	453.986
2447.0000	453.559
2448.0000	452.79
2449.0000	455.014
2450.0000	456.327
2451.0000	457.805
2452.0000	456.695
2453.0000	454.046
2454.0000	451.745
2455.0000	452.628
2456.0000	455.274
2457.0000	455.657
2458.0000	456.127
2459.0000	454.663
2460.0000	455.235
2461.0000	457.268
2462.0000	456.509
2463.0000	456.026
2464.0000	458.235
2465.0000	458.943
2466.0000	456.295
2467.0000	454.458
2468.0000	454.195
2469.0000	451.8
2470.0000	452.665
2471.0000	455.305
2472.0000	454.631
2473.0000	453.327
2474.0000	454.744
2475.0000	455.131
2476.0000	456.963
2477.0000	456.009
2478.0000	454.088
2479.0000	460.107
2480.0000	461.082
2481.0000	453.226
2482.0000	451.106
2483.0000	456.14
2484.0000	456.109
2485.0000	454.357
2486.0000	450.804
2487.0000	450.432
2488.0000	453.354
2489.0000	450.978
2490.0000	451.375
2491.0000	453.122
2492.0000	451.298
2493.0000	450.639
2494.0000	453.464
2495.0000	457.062
2496.0000	456.529
2497.0000	452.599
2498.0000	452.83
2499.0000	454.849
2500.0000	453.931
2501.0000	454.238
2502.0000	452.332
2503.0000	451.027
2504.0000	455.036
2505.0000	456.676
2506.0000	456.06
2507.0000	455.142
2508.0000	452.332
2509.0000	451.995
2510.0000	451.301
2511.0000	451.957
2512.0000	456.504
2513.0000	454.74
2514.0000	452.607
2515.0000	456.716
2516.0000	457.527
2517.0000	457.076
2518.0000	457.166
2519.0000	452.227
2520.0000	451.8
2521.0000	454.059
2522.0000	452.556
2523.0000	451.571
2524.0000	453.037
2525.0000	458.14
2526.0000	460.268
2527.0000	456.813
2528.0000	453.304
2529.0000	452.208
2530.0000	453.075
2531.0000	454.958
2532.0000	454.444
2533.0000	454.042
2534.0000	458.979
2535.0000	458.649
2536.0000	456.197
2537.0000	457.869
2538.0000	456.34
2539.0000	455.511
2540.0000	455.56
2541.0000	456.864
2542.0000	458.264
2543.0000	455.754
2544.0000	452.048
2545.0000	454.144
2546.0000	455.864
2547.0000	455.236
2548.0000	454.377
2549.0000	454.852
2550.0000	458.357
2551.0000	461.515
2552.0000	457.397
2553.0000	454.583
2554.0000	456.834
2555.0000	456.957
2556.0000	457.398
2557.0000	453.679
2558.0000	451.304
2559.0000	454.542
2560.0000	457.42
2561.0000	460.195
2562.0000	459.725
2563.0000	457.715
2564.0000	455.767
2565.0000	451.983
2566.0000	456.25
2567.0000	456.851
2568.0000	455.756
2569.0000	460.254
2570.0000	459.095
2571.0000	458.214
2572.0000	458.458
2573.0000	457.377
2574.0000	457.05
2575.0000	460.2
2576.0000	460.069
2577.0000	458.484
2578.0000	457.938
2579.0000	455.622
2580.0000	457.327
2581.0000	453.848
2582.0000	452.947
2583.0000	456.2
2584.0000	456.105
2585.0000	455.256
2586.0000	456.639
2587.0000	458.199
2588.0000	456.17
2589.0000	458.008
2590.0000	459.184
2591.0000	459.793
2592.0000	457.497
2593.0000	453.525
2594.0000	456.121
2595.0000	460.127
2596.0000	459.242
2597.0000	458.88
2598.0000	457.546
2599.0000	454.883
2600.0000	455.532
2601.0000	454.53
2602.0000	454.889
2603.0000	455.678
2604.0000	457.181
2605.0000	455.898
2606.0000	454.147
2607.0000	457.359
2608.0000	459.053
2609.0000	459.701
2610.0000	457.775
2611.0000	455.701
2612.0000	456.699
2613.0000	455.976
2614.0000	455.187
2615.0000	455.161
2616.0000	453.966
2617.0000	454.253
2618.0000	454.418
2619.0000	455.655
2620.0000	459.118
2621.0000	461.907
2622.0000	455.729
2623.0000	453.779
2624.0000	459.312
2625.0000	458.71
2626.0000	458.608
2627.0000	457.853
2628.0000	455.094
2629.0000	458.102
2630.0000	464.314
2631.0000	461.061
2632.0000	453.746
2633.0000	455.698
2634.0000	459.483
2635.0000	457.491
2636.0000	460.274
2637.0000	462.524
2638.0000	457.878
2639.0000	453.516
2640.0000	456.01
2641.0000	456.336
2642.0000	455.444
2643.0000	459.177
2644.0000	458.879
2645.0000	454.323
2646.0000	451.641
2647.0000	456.439
2648.0000	458.469
2649.0000	458.459
2650.0000	458.441
2651.0000	460.763
2652.0000	460.608
2653.0000	457.522
2654.0000	459.141
2655.0000	460.39
2656.0000	457.866
2657.0000	457.672
2658.0000	460.313
2659.0000	457.074
2660.0000	456.658
2661.0000	457.216
2662.0000	457.258
2663.0000	457.045
2664.0000	457.097
2665.0000	456.542
2666.0000	456.87
2667.0000	455.177
2668.0000	457.048
2669.0000	463.166
2670.0000	459.923
2671.0000	458.713
2672.0000	455.245
2673.0000	455.192
2674.0000	457.759
2675.0000	455.49
2676.0000	456.099
2677.0000	456.918
2678.0000	455.732
2679.0000	456.312
2680.0000	460.381
2681.0000	463.096
2682.0000	461.328
2683.0000	459.506
2684.0000	460.119
2685.0000	454.748
2686.0000	450.763
2687.0000	457.349
2688.0000	459.285
2689.0000	457.098
2690.0000	460.06
2691.0000	458.984
2692.0000	459.418
2693.0000	460.198
2694.0000	458.932
2695.0000	460.885
2696.0000	460
2697.0000	457.128
2698.0000	455.876
2699.0000	457.593
2700.0000	462.34
2701.0000	461.423
2702.0000	461.227
2703.0000	459.743
2704.0000	457.658
2705.0000	457.871
2706.0000	455.059
2707.0000	454.448
2708.0000	459.21
2709.0000	461.297
2710.0000	456.436
2711.0000	456.799
2712.0000	455.936
2713.0000	458.89
2714.0000	460.003
2715.0000	454.829
2716.0000	455.427
2717.0000	459.346
2718.0000	456.797
2719.0000	456.249
2720.0000	458.266
2721.0000	455.562
2722.0000	456.391
2723.0000	457.673
2724.0000	460.481
2725.0000	459.567
2726.0000	458.04
2727.0000	457.263
2728.0000	456.414
2729.0000	460.269
2730.0000	464.09
2731.0000	463.826
2732.0000	460.353
2733.0000	462.681
2734.0000	464.56
2735.0000	461.837
2736.0000	456.373
2737.0000	457.157
2738.0000	462.207
2739.0000	461.265
2740.0000	458.889
2741.0000	457.88
2742.0000	461.837
2743.0000	464.69
2744.0000	459.665
2745.0000	457.766
2746.0000	462.983
2747.0000	462.136
2748.0000	461.327
2749.0000	460.092
2750.0000	455.842
2751.0000	458.185
2752.0000	459.815
2753.0000	458.424
2754.0000	456.636
2755.0000	455.003
2756.0000	459.898
2757.0000	459.148
2758.0000	457.645
2759.0000	462.446
2760.0000	458.768
2761.0000	456.113
2762.0000	459.134
2763.0000	459.495
2764.0000	459.802
2765.0000	457.701
2766.0000	458.869
2767.0000	465.57
2768.0000	463.099
2769.0000	461.956
2770.0000	462.861
2771.0000	460.173
2772.0000	460.509
2773.0000	462.538
2774.0000	463.212
2775.0000	461.892
2776.0000	464.257
2777.0000	465.038
2778.0000	462.881
2779.0000	462.706
2780.0000	461.162
2781.0000	461.848
2782.0000	464.789
2783.0000	464.658
2784.0000	462.734
2785.0000	459.994
2786.0000	460.129
2787.0000	462.619
2788.0000	464.221
2789.0000	464.643
2790.0000	459.635
2791.0000	454.803
2792.0000	462.076
2793.0000	466.52
2794.0000	462.06
2795.0000	459.607
2796.0000	460.037
2797.0000	462.128
2798.0000	462.78
2799.0000	461.591
2800.0000	461.348
2801.0000	465.597
2802.0000	462.504
2803.0000	459.405
2804.0000	462.997
2805.0000	462.102
2806.0000	460.31
2807.0000	460.23
2808.0000	460.137
2809.0000	458.726
2810.0000	459.521
2811.0000	462.764
2812.0000	462.739
2813.0000	462.403
2814.0000	465.627
2815.0000	465.975
2816.0000	462.294
2817.0000	460.335
2818.0000	459.109
2819.0000	460.72
2820.0000	464
2821.0000	463.763
2822.0000	462.045
2823.0000	460.206
2824.0000	459.186
2825.0000	460.019
2826.0000	461.727
2827.0000	461.005
2828.0000	460.733
2829.0000	459.42
2830.0000	456.527
2831.0000	456.888
2832.0000	459.77
2833.0000	461.993
2834.0000	460.86
2835.0000	459.972
2836.0000	463.022
2837.0000	463.187
2838.0000	460.247
2839.0000	459.944
2840.0000	461.034
2841.0000	462.383
2842.0000	458.889
2843.0000	454.775
2844.0000	457.898
2845.0000	462.931
2846.0000	463.062
2847.0000	459.519
2848.0000	459.89
2849.0000	462.375
2850.0000	462.69
2851.0000	464.025
2852.0000	466.525
2853.0000	465.493
2854.0000	462.279
2855.0000	461.838
2856.0000	462.342
2857.0000	462.617
2858.0000	463.564
2859.0000	462.024
2860.0000	461.474
2861.0000	462.652
2862.0000	464.004
2863.0000	463.23
2864.0000	461.623
2865.0000	461.637
2866.0000	460.918
2867.0000	459.911
2868.0000	462.504
2869.0000	463.908
2870.0000	462.111
2871.0000	460.972
2872.0000	462.923
2873.0000	464.897
2874.0000	464.648
2875.0000	465.398
2876.0000	460.784
2877.0000	457.279
2878.0000	459.983
2879.0000	463.963
2880.0000	465.723
2881.0000	463.204
2882.0000	462.669
2883.0000	462.319
2884.0000	459.017
2885.0000	459.013
2886.0000	460.17
2887.0000	462.123
2888.0000	464.43
2889.0000	461.432
2890.0000	460.676
2891.0000	464.663
2892.0000	465.865
2893.0000	464.98
2894.0000	463.009
2895.0000	464.67
2896.0000	465.455
2897.0000	461.969
2898.0000	462.511
2899.0000	464.621
2900.0000	463.991
2901.0000	466.512
2902.0000	466.868
2903.0000	463.507
2904.0000	464.106
2905.0000	462.264
2906.0000	458.99
2907.0000	459.618
2908.0000	461.427
2909.0000	462.358
2910.0000	461.51
2911.0000	462.678
2912.0000	463.355
2913.0000	462.794
2914.0000	465.802
2915.0000	467.76
2916.0000	468.085
2917.0000	465.502
2918.0000	459.673
2919.0000	461.186
2920.0000	460.794
2921.0000	459.486
2922.0000	463.197
2923.0000	462.778
2924.0000	465.125
2925.0000	466.661
2926.0000	465.364
2927.0000	464.152
2928.0000	463.085
2929.0000	462.985
2930.0000	463.311
2931.0000	463.018
2932.0000	461.586
2933.0000	461.742
2934.0000	464.147
2935.0000	465.131
2936.0000	463.807
2937.0000	465.335
2938.0000	467.327
2939.0000	466.53
2940.0000	464.707
2941.0000	462.484
2942.0000	462.307
2943.0000	461.543
2944.0000	461.071
2945.0000	462.532
2946.0000	462.608
2947.0000	463.244
2948.0000	460.914
2949.0000	459.746
2950.0000	459.286
2951.0000	461.135
2952.0000	462.739
2953.0000	461.963
2954.0000	462.083
2955.0000	461.693
2956.0000	460.151
2957.0000	458.167
2958.0000	463.312
2959.0000	468.08
2960.0000	466.8
2961.0000	464.274
2962.0000	461.728
2963.0000	460.675
2964.0000	461.414
2965.0000	465.104
2966.0000	466.33
2967.0000	464.411
2968.0000	460.667
2969.0000	459.96
2970.0000	461.589
2971.0000	462.614
2972.0000	463.664
2973.0000	465.289
2974.0000	465.01
2975.0000	461.054
2976.0000	461.436
2977.0000	462.926
2978.0000	462.404
2979.0000	463.368
2980.0000	462.686
2981.0000	463.738
2982.0000	464.696
2983.0000	460.72
2984.0000	463.249
2985.0000	465.999
2986.0000	464.594
2987.0000	463.082
2988.0000	461.661
2989.0000	466.028
2990.0000	465.033
2991.0000	463.746
2992.0000	465.408
2993.0000	464.928
2994.0000	464.47
2995.0000	458.745
2996.0000	460.533
2997.0000	462.924
2998.0000	462.384
2999.0000	462.907
3000.0000	464.566
3001.0000	464.22
3002.0000	461.555
3003.0000	459.537
3004.0000	460.618
3005.0000	461.917
3006.0000	460.507
3007.0000	461.505
3008.0000	461.099
3009.0000	464.467
3010.0000	467.206
3011.0000	466.324
3012.0000	466.171
3013.0000	465.987
3014.0000	467.347
3015.0000	462.816
3016.0000	461.72
3017.0000	465.937
3018.0000	465.266
3019.0000	461.089
3020.0000	460.649
3021.0000	464.52
3022.0000	463.331
3023.0000	461.625
3024.0000	461.71
3025.0000	465.168
3026.0000	466.637
3027.0000	461.576
3028.0000	461.237
3029.0000	466.436
3030.0000	466.034
3031.0000	464.178
3032.0000	465.579
3033.0000	462.704
3034.0000	462.269
3035.0000	464.632
3036.0000	464.183
3037.0000	464.624
3038.0000	466.765
3039.0000	466.056
3040.0000	463.094
3041.0000	463.532
3042.0000	463.32
3043.0000	464.149
3044.0000	463.61
3045.0000	461.25
3046.0000	460.949
3047.0000	461.364
3048.0000	464.258
3049.0000	466.571
3050.0000	466.862
3051.0000	466.596
3052.0000	464.568
3053.0000	463.273
3054.0000	459.453
3055.0000	460.013
3056.0000	466.911
3057.0000	468.426
3058.0000	465.877
3059.0000	461.971
3060.0000	464.889
3061.0000	464.724
3062.0000	463.867
3063.0000	466.473
3064.0000	463.307
3065.0000	460.694
3066.0000	465.032
3067.0000	467.179
3068.0000	464.374
3069.0000	466.027
3070.0000	466.64
3071.0000	468.429
3072.0000	465.95
3073.0000	464.05
3074.0000	465.659
3075.0000	465.289
3076.0000	467.382
3077.0000	466.155
3078.0000	462.813
3079.0000	464.018
3080.0000	466.718
3081.0000	465.156
3082.0000	460.225
3083.0000	459.656
3084.0000	462.355
3085.0000	463.681
3086.0000	466.369
3087.0000	467.292
3088.0000	467.299
3089.0000	468.52
3090.0000	465.505
3091.0000	464.369
3092.0000	462.75
3093.0000	462.796
3094.0000	464.392
3095.0000	461.817
3096.0000	464.258
3097.0000	465.211
3098.0000	466.296
3099.0000	468.042
3100.0000	467.307
3101.0000	468
3102.0000	466.729
3103.0000	467.259
3104.0000	464.939
3105.0000	463.559
3106.0000	465.335
3107.0000	466.18
3108.0000	469.049
3109.0000	467.269
3110.0000	467.26
3111.0000	472.474
3112.0000	473.359
3113.0000	466.559
3114.0000	465.68
3115.0000	466.29
3116.0000	461.928
3117.0000	466.627
3118.0000	469.73
3119.0000	465.428
3120.0000	465.396
3121.0000	467.479
3122.0000	466.203
3123.0000	466.887
3124.0000	467.668
3125.0000	466.369
3126.0000	464.961
3127.0000	465.979
3128.0000	466.391
3129.0000	464.594
3130.0000	463.47
3131.0000	462.377
3132.0000	463.366
3133.0000	464.788
3134.0000	464.452
3135.0000	463.634
3136.0000	463.504
3137.0000	461.891
3138.0000	467.981
3139.0000	471.881
3140.0000	464.326
3141.0000	465.215
3142.0000	466.206
3143.0000	461.86
3144.0000	462.788
3145.0000	465.739
3146.0000	469.938
3147.0000	471.129
3148.0000	467.447
3149.0000	467.03
3150.0000	466.486
3151.0000	465.55
3152.0000	466.668
3153.0000	466.463
3154.0000	468.606
3155.0000	466.334
3156.0000	464.779
3157.0000	469.015
3158.0000	464.208
3159.0000	461.153
3160.0000	465.779
3161.0000	464.549
3162.0000	465.819
3163.0000	469.496
3164.0000	466.225
3165.0000	462.189
3166.0000	464.894
3167.0000	469.849
3168.0000	468.562
3169.0000	465.013
3170.0000	466.1
3171.0000	467.127
3172.0000	466.371
3173.0000	467.895
3174.0000	470.025
3175.0000	470.863
3176.0000	469.037
3177.0000	468.93
3178.0000	470.787
3179.0000	468.017
3180.0000	463.48
3181.0000	464.4
3182.0000	467.552
3183.0000	465.982
3184.0000	464.243
3185.0000	465.012
3186.0000	465.991
3187.0000	466.376
3188.0000	467.069
3189.0000	465.308
3190.0000	464.369
3191.0000	467.009
3192.0000	467.344
3193.0000	467.766
3194.0000	467.483
3195.0000	467.736
3196.0000	468.476
3197.0000	467.705
3198.0000	468.12
3199.0000	468.166
3200.0000	467.421
3201.0000	468.077
3202.0000	466.942
3203.0000	465.825
3204.0000	466.691
3205.0000	465.05
3206.0000	464.678
3207.0000	469.271
3208.0000	470.979
3209.0000	468.104
3210.0000	467.663
3211.0000	467.173
3212.0000	467.15
3213.0000	463.969
3214.0000	465.006
3215.0000	469.36
3216.0000	468.28
3217.0000	470.545
3218.0000	468.361
3219.0000	464.473
3220.0000	466.039
3221.0000	467.199
3222.0000	466.854
3223.0000	468.016
3224.0000	468.734
3225.0000	466.209
3226.0000	462.015
3227.0000	464.125
3228.0000	466.916
3229.0000	464.26
3230.0000	466.858
3231.0000	468.348
3232.0000	467.878
3233.0000	467.922
3234.0000	468.157
3235.0000	467.804
3236.0000	468.463
3237.0000	468.69
3238.0000	470.221
3239.0000	470.909
3240.0000	465.768
3241.0000	464.93
3242.0000	466.315
3243.0000	464.756
3244.0000	464.609
3245.0000	466.35
3246.0000	469.636
3247.0000	469.182
3248.0000	469.592
3249.0000	472.355
3250.0000	471.171
3251.0000	465.85
3252.0000	463.315
3253.0000	464.014
3254.0000	467.353
3255.0000	468.898
3256.0000	466.046
3257.0000	467.703
3258.0000	464.555
3259.0000	461.205
3260.0000	468.74
3261.0000	470.144
3262.0000	465.559
3263.0000	467.042
3264.0000	467.208
3265.0000	467.255
3266.0000	466.805
3267.0000	465.5
3268.0000	469.139
3269.0000	470.116
3270.0000	467.024
3271.0000	469.101
3272.0000	469.829
3273.0000	468.247
3274.0000	470.048
3275.0000	470.431
3276.0000	466.826
3277.0000	467.161
3278.0000	468.674
3279.0000	467.456
3280.0000	467.101
3281.0000	468.06
3282.0000	468.451
3283.0000	466.507
3284.0000	467.504
3285.0000	469.755
3286.0000	467.29
3287.0000	468.627
3288.0000	469.208
3289.0000	467.763
3290.0000	468.8
3291.0000	465.316
3292.0000	466.319
3293.0000	469.873
3294.0000	470.427
3295.0000	465.863
3296.0000	464.014
3297.0000	467.805
3298.0000	466.793
3299.0000	467.307
3300.0000	468.468
3301.0000	469.151
3302.0000	467.768
3303.0000	465.212
3304.0000	469.848
3305.0000	467.91
3306.0000	463.488
3307.0000	469.285
3308.0000	469.795
3309.0000	467.081
3310.0000	467.359
3311.0000	466.179
3312.0000	466.617
3313.0000	467.476
3314.0000	468.564
3315.0000	468.963
3316.0000	467.411
3317.0000	468.716
3318.0000	470.056
3319.0000	467.912
3320.0000	468.6
3321.0000	470.368
3322.0000	467.734
3323.0000	466.099
3324.0000	466.724
3325.0000	467.368
3326.0000	467.512
3327.0000	467.796
3328.0000	465.638
3329.0000	467.457
3330.0000	471.973
3331.0000	471.265
3332.0000	469.149
3333.0000	471.117
3334.0000	473.81
3335.0000	469.085
3336.0000	468.641
3337.0000	469.606
3338.0000	466.865
3339.0000	466.748
3340.0000	466.519
3341.0000	470.047
3342.0000	470.089
3343.0000	466.905
3344.0000	467.615
3345.0000	467.125
3346.0000	466.471
3347.0000	468.841
3348.0000	473.657
3349.0000	471.307
3350.0000	465.927
3351.0000	466.057
3352.0000	466.727
3353.0000	466.915
3354.0000	467.417
3355.0000	470.682
3356.0000	470.785
3357.0000	470.861
3358.0000	471.076
3359.0000	465.738
3360.0000	467.099
3361.0000	469.038
3362.0000	470.214
3363.0000	471.849
3364.0000	467.515
3365.0000	465.92
3366.0000	467.39
3367.0000	468.621
3368.0000	470.855
3369.0000	472.158
3370.0000	472.453
3371.0000	474.409
3372.0000	472.715
3373.0000	469.396
3374.0000	466.002
3375.0000	468.926
3376.0000	470.292
3377.0000	463.272
3378.0000	466.699
3379.0000	469.603
3380.0000	468.91
3381.0000	469.855
3382.0000	468.967
3383.0000	470.217
3384.0000	469.478
3385.0000	468.089
3386.0000	470.073
3387.0000	469.513
3388.0000	464.544
3389.0000	465.302
3390.0000	470.621
3391.0000	468.679
3392.0000	467.44
3393.0000	470.69
3394.0000	469.695
3395.0000	467.33
3396.0000	469.935
3397.0000	471.933
3398.0000	468.033
3399.0000	465.974
3400.0000	468.861
3401.0000	468.286
3402.0000	471.267
3403.0000	475.551
3404.0000	472.262
3405.0000	468.451
3406.0000	470.265
3407.0000	470.598
3408.0000	467.871
3409.0000	471.587
3410.0000	475.677
3411.0000	474.702
3412.0000	470.055
3413.0000	470.132
3414.0000	471.354
3415.0000	467.65
3416.0000	464.946
3417.0000	465.141
3418.0000	470.059
3419.0000	469.702
3420.0000	466.823
3421.0000	467.717
3422.0000	472.742
3423.0000	473.939
3424.0000	468.877
3425.0000	470.264
3426.0000	471.155
3427.0000	467.143
3428.0000	466.28
3429.0000	467.609
3430.0000	466.342
3431.0000	467.949
3432.0000	466.375
3433.0000	464.769
3434.0000	465.668
3435.0000	468.111
3436.0000	473.775
3437.0000	473.294
3438.0000	469.048
3439.0000	468.751
3440.0000	467.78
3441.0000	466.651
3442.0000	469.08
3443.0000	470.317
3444.0000	469.514
3445.0000	472.292
3446.0000	469.739
3447.0000	465.53
3448.0000	468.349
3449.0000	465.677
3450.0000	465.544
3451.0000	470.949
3452.0000	471.658
3453.0000	468.389
3454.0000	466.796
3455.0000	469.081
3456.0000	468.147
3457.0000	467.721
3458.0000	471.897
3459.0000	470.577
3460.0000	468.477
3461.0000	468.686
3462.0000	465.457
3463.0000	463.588
3464.0000	463.161
3465.0000	465.349
3466.0000	469.436
3467.0000	470.893
3468.0000	472.164
3469.0000	469.819
3470.0000	469.947
3471.0000	471.614
3472.0000	469.663
3473.0000	469.117
3474.0000	471.276
3475.0000	475.603
3476.0000	473.749
3477.0000	467.645
3478.0000	470.024
3479.0000	473.603
3480.0000	470.417
3481.0000	465.823
3482.0000	468.282
3483.0000	471.196
3484.0000	468.999
3485.0000	467.677
3486.0000	468.333
3487.0000	468.258
3488.0000	468.832
3489.0000	466.799
3490.0000	464.628
3491.0000	464.876
3492.0000	468.009
3493.0000	473.357
3494.0000	471.035
3495.0000	467.891
3496.0000	470.598
3497.0000	467.691
3498.0000	464.749
3499.0000	473.078
3500.0000	475.242
3501.0000	468.176
3502.0000	469.665
3503.0000	476.578
3504.0000	472.974
3505.0000	468.017
3506.0000	467.689
3507.0000	468.949
3508.0000	468.061
3509.0000	467.519
3510.0000	472.511
3511.0000	471.687
3512.0000	467.044
3513.0000	468.876
3514.0000	471.087
3515.0000	470.162
3516.0000	472.896
3517.0000	472.287
3518.0000	467.434
3519.0000	467.763
3520.0000	470.281
3521.0000	469.48
3522.0000	468.7
3523.0000	468.717
3524.0000	465.916
3525.0000	467.868
3526.0000	474.305
3527.0000	471.554
3528.0000	467.076
3529.0000	468.382
3530.0000	467.094
3531.0000	469.11
3532.0000	473.653
3533.0000	472.637
3534.0000	471.891
3535.0000	473.647
3536.0000	470.927
3537.0000	466.891
3538.0000	469.905
3539.0000	475.857
3540.0000	472.812
3541.0000	469.204
3542.0000	472.8
3543.0000	470.566
3544.0000	468.537
3545.0000	469.043
3546.0000	468.264
3547.0000	465.741
3548.0000	468.313
3549.0000	471.943
3550.0000	469.841
3551.0000	470.122
3552.0000	466.784
3553.0000	469.35
3554.0000	469.583
3555.0000	470.903
3556.0000	475.592
3557.0000	473.578
3558.0000	470.175
3559.0000	468.982
3560.0000	470.701
3561.0000	471.162
3562.0000	474.811
3563.0000	476.269
3564.0000	474.063
3565.0000	472.094
3566.0000	469.053
3567.0000	469.912
3568.0000	470.986
3569.0000	471.179
3570.0000	470.898
3571.0000	469.709
3572.0000	471.67
3573.0000	470.835
3574.0000	471.7
3575.0000	469.801
3576.0000	469.644
3577.0000	473.223
3578.0000	471.213
3579.0000	473.42
3580.0000	476.188
3581.0000	470.964
3582.0000	471.584
3583.0000	473.686
3584.0000	471.079
3585.0000	474.477
3586.0000	473.272
3587.0000	468.207
3588.0000	468.74
3589.0000	472.05
3590.0000	468.827
3591.0000	471.016
3592.0000	474.262
3593.0000	470.405
3594.0000	471.83
3595.0000	474.904
3596.0000	474.138
3597.0000	471.082
3598.0000	470.959
3599.0000	471.114
3600.0000	471.231
3601.0000	469.596
3602.0000	469.035
3603.0000	470.717
3604.0000	471.444
3605.0000	469.189
3606.0000	463.499
3607.0000	463.967
3608.0000	467.506
3609.0000	469.392
3610.0000	471.597
3611.0000	471.112
3612.0000	468.431
3613.0000	465.973
3614.0000	468.195
3615.0000	474.914
3616.0000	473.237
3617.0000	469.535
3618.0000	473.308
3619.0000	472.715
3620.0000	471.428
3621.0000	470.074
3622.0000	467.104
3623.0000	465.275
3624.0000	468.492
3625.0000	468.446
3626.0000	467.31
3627.0000	469.712
3628.0000	472.752
3629.0000	471.729
3630.0000	468.435
3631.0000	469.255
3632.0000	466.712
3633.0000	469.094
3634.0000	472.375
3635.0000	467.217
3636.0000	466.888
3637.0000	471.386
3638.0000	471.061
3639.0000	468.091
3640.0000	465.434
3641.0000	467.777
3642.0000	468.78
3643.0000	466.53
3644.0000	467.344
3645.0000	470.095
3646.0000	471.259
3647.0000	471.581
3648.0000	468.992
3649.0000	468.053
3650.0000	472.172
3651.0000	471.307
3652.0000	471.753
3653.0000	472.688
3654.0000	470.493
3655.0000	471.993
3656.0000	471.421
3657.0000	471.972
3658.0000	471.985
3659.0000	471.073
3660.0000	472.632
3661.0000	473.117
3662.0000	471.632
3663.0000	472.266
3664.0000	473.351
3665.0000	471.314
3666.0000	467.245
3667.0000	466.537
3668.0000	470.917
3669.0000	471.17
3670.0000	468.086
3671.0000	465.928
3672.0000	467.806
3673.0000	470.046
3674.0000	469.387
3675.0000	473.8
3676.0000	473.399
3677.0000	472.079
3678.0000	470.38
3679.0000	467.979
3680.0000	470.542
3681.0000	471.41
3682.0000	473.22
3683.0000	472.686
3684.0000	473.466
3685.0000	470.817
3686.0000	468.88
3687.0000	473.152
3688.0000	471.89
3689.0000	470.326
3690.0000	470.567
3691.0000	469.576
3692.0000	472.377
3693.0000	474.121
3694.0000	470.602
3695.0000	470.253
3696.0000	471.44
3697.0000	473.56
3698.0000	473.573
3699.0000	470.335
3700.0000	467.949
3701.0000	467.758
3702.0000	472.368
3703.0000	471.94
3704.0000	469.288
3705.0000	470.513
3706.0000	471.757
3707.0000	468.65
3708.0000	468.633
3709.0000	469.95
3710.0000	465.075
3711.0000	463.357
3712.0000	469.756
3713.0000	471.579
3714.0000	471.322
3715.0000	471.739
3716.0000	470.517
3717.0000	473.003
3718.0000	472.478
3719.0000	469.744
3720.0000	473.59
3721.0000	472.812
3722.0000	467.102
3723.0000	465.464
3724.0000	465.53
3725.0000	468.213
3726.0000	472.384
3727.0000	474.456
3728.0000	468.931
3729.0000	466.865
3730.0000	471.486
3731.0000	471.485
3732.0000	470.987
3733.0000	471.042
3734.0000	469.141
3735.0000	471.116
3736.0000	471.259
3737.0000	469.725
3738.0000	471.648
3739.0000	469.264
3740.0000	468.36
3741.0000	470.887
3742.0000	471.041
3743.0000	472.873
3744.0000	473.829
3745.0000	471.733
3746.0000	473.905
3747.0000	475.019
3748.0000	474.773
3749.0000	472.351
3750.0000	465.362
3751.0000	464.961
3752.0000	471.475
3753.0000	472.139
3754.0000	470.702
3755.0000	475.096
3756.0000	472.034
3757.0000	473.841
3758.0000	473.952
3759.0000	470.449
3760.0000	470.3
3761.0000	468.627
3762.0000	470.189
3763.0000	473.974
3764.0000	473.397
3765.0000	469.841
3766.0000	469.158
3767.0000	467.927
3768.0000	467.088
3769.0000	467.741
3770.0000	471.092
3771.0000	471.907
3772.0000	468.698
3773.0000	468.653
3774.0000	469.813
3775.0000	468.775
3776.0000	470.536
3777.0000	471.295
3778.0000	469.282
3779.0000	468.694
3780.0000	471.13
3781.0000	470.067
3782.0000	468.973
3783.0000	470.401
3784.0000	469.334
3785.0000	471.369
3786.0000	475.111
3787.0000	472.213
3788.0000	469.497
3789.0000	471.863
3790.0000	473.811
3791.0000	469.537
3792.0000	467.773
3793.0000	469.489
3794.0000	468.066
3795.0000	466.215
3796.0000	463.227
3797.0000	463.973
3798.0000	467.18
3799.0000	467.228
3800.0000	467.548
3801.0000	470.546
3802.0000	469.435
3803.0000	467.001
3804.0000	470.121
3805.0000	468.816
3806.0000	467.606
3807.0000	466.716
3808.0000	462.614
3809.0000	462.788
3810.0000	466.674
3811.0000	467.698
3812.0000	466.761
3813.0000	470.418
3814.0000	473.362
3815.0000	474.338
3816.0000	475.713
3817.0000	473.938
3818.0000	471.685
3819.0000	469.843
3820.0000	471.763
3821.0000	473.631
3822.0000	469.881
3823.0000	471.412
3824.0000	473.751
3825.0000	470.767
3826.0000	469.711
3827.0000	471.589
3828.0000	469.901
3829.0000	472.935
3830.0000	477.71
3831.0000	471.93
3832.0000	469.245
3833.0000	472.932
3834.0000	474.682
3835.0000	474.556
3836.0000	470.469
3837.0000	470.411
3838.0000	469.531
3839.0000	467.649
3840.0000	467.645
3841.0000	470.065
3842.0000	474.229
3843.0000	470.979
3844.0000	466.767
3845.0000	470.644
3846.0000	473.06
3847.0000	469.132
3848.0000	468.87
3849.0000	472.058
3850.0000	472.202
3851.0000	471.339
3852.0000	473.115
3853.0000	472.464
3854.0000	469.431
3855.0000	470.674
3856.0000	473.821
3857.0000	473.929
3858.0000	472.858
3859.0000	474.183
3860.0000	474.719
3861.0000	473.708
3862.0000	470.475
3863.0000	468.233
3864.0000	471.07
3865.0000	472.695
3866.0000	472.103
3867.0000	470.15
3868.0000	472.976
3869.0000	477.269
3870.0000	476.231
3871.0000	473.832
3872.0000	473.763
3873.0000	474.346
3874.0000	474.796
3875.0000	474.287
3876.0000	472.496
3877.0000	469.374
3878.0000	469.944
3879.0000	468.676
3880.0000	471.021
3881.0000	473.019
3882.0000	470.464
3883.0000	470.223
3884.0000	470.029
3885.0000	471.406
3886.0000	473.145
3887.0000	469.192
3888.0000	466.264
3889.0000	472.2
3890.0000	474.599
3891.0000	472.175
3892.0000	472.092
3893.0000	474.585
3894.0000	471.611
3895.0000	471.006
3896.0000	470.595
3897.0000	469.898
3898.0000	471.536
3899.0000	468.99
3900.0000	466.842
3901.0000	469.611
3902.0000	470.729
3903.0000	472.984
3904.0000	476.873
3905.0000	475.557
3906.0000	474.56
3907.0000	474.77
3908.0000	473.3
3909.0000	472.412
3910.0000	472.02
3911.0000	467.958
3912.0000	471.672
3913.0000	476.154
3914.0000	473.138
3915.0000	473.58
3916.0000	478.154
3917.0000	477.875
3918.0000	472.625
3919.0000	471.559
3920.0000	470.864
3921.0000	467.683
3922.0000	471.032
3923.0000	476.187
3924.0000	475.576
3925.0000	475.38
3926.0000	472.42
3927.0000	468.412
3928.0000	472.43
3929.0000	478.601
3930.0000	479.525
3931.0000	476.332
3932.0000	474.145
3933.0000	474.076
3934.0000	475.635
3935.0000	474.858
3936.0000	470.995
3937.0000	471.786
3938.0000	478.096
3939.0000	479.184
3940.0000	472.285
3941.0000	468.945
3942.0000	472.336
3943.0000	476.269
3944.0000	473.272
3945.0000	470.467
3946.0000	471.537
3947.0000	471.334
3948.0000	471.492
3949.0000	474.266
3950.0000	471.661
3951.0000	466.23
3952.0000	469.614
3953.0000	473.927
3954.0000	472.295
3955.0000	470.159
3956.0000	467.911
3957.0000	466.142
3958.0000	469.243
3959.0000	471.717
3960.0000	471.223
3961.0000	469.818
3962.0000	475.096
3963.0000	476.096
3964.0000	469.931
3965.0000	471.49
3966.0000	472.235
3967.0000	470.818
3968.0000	469.14
3969.0000	470.306
3970.0000	473.144
3971.0000	474.063
3972.0000	473.916
3973.0000	471.527
3974.0000	471.483
3975.0000	473.895
3976.0000	476.142
3977.0000	470.521
3978.0000	468.682
3979.0000	473.704
3980.0000	473.421
3981.0000	472.441
3982.0000	474.316
3983.0000	473.464
3984.0000	470.526
3985.0000	475.428
3986.0000	476.936
3987.0000	470.274
3988.0000	470.583
3989.0000	477.797
3990.0000	473.864
3991.0000	466.053
3992.0000	468.352
3993.0000	471.978
3994.0000	473.331
3995.0000	472.92
3996.0000	471.407
3997.0000	471.186
3998.0000	469.793
3999.0000	469.581
4000.0000	468.955
4001.0000	468.364
4002.0000	472.245
4003.0000	473.143
4004.0000	471.822
4005.0000	470.006
4006.0000	469.061
4007.0000	470.008
4008.0000	470.662
4009.0000	471.283
4010.0000	471.59
4011.0000	474.533
4012.0000	474.881
4013.0000	469.901
4014.0000	470.756
4015.0000	474.932
4016.0000	470.984
4017.0000	468.428
4018.0000	473.55
4019.0000	473.5
4020.0000	472.887
4021.0000	474.254
4022.0000	474.068
4023.0000	475.243
4024.0000	472.773
4025.0000	470.771
4026.0000	471.229
4027.0000	472
4028.0000	474.241
4029.0000	475.917
4030.0000	471.964
4031.0000	470.121
4032.0000	471.279
4033.0000	470.243
4034.0000	475.147
4035.0000	475.289
4036.0000	469.93
4037.0000	471.827
4038.0000	471.114
4039.0000	468.53
4040.0000	473.747
4041.0000	475.828
4042.0000	475.926
4043.0000	474.579
4044.0000	470.795
4045.0000	472.34
4046.0000	474.387
4047.0000	476.1
4048.0000	474.829
4049.0000	469.337
4050.0000	469.399
4051.0000	473.6
4052.0000	470.347
4053.0000	472.089
4054.0000	475.305
4055.0000	473.914
4056.0000	477.792
4057.0000	477.051
4058.0000	475.704
4059.0000	474.43
4060.0000	474.66
4061.0000	474.063
4062.0000	471.637
4063.0000	473.27
4064.0000	473.093
4065.0000	471.559
4066.0000	472.164
4067.0000	473.421
4068.0000	472.708
4069.0000	474.092
4070.0000	478.411
4071.0000	478.037
4072.0000	475.347
4073.0000	472.748
4074.0000	468.86
4075.0000	471.573
4076.0000	472.832
4077.0000	471.918
4078.0000	472.85
4079.0000	472.855
4080.0000	474.919
4081.0000	472.975
4082.0000	470.828
4083.0000	473.097
4084.0000	470.801
4085.0000	470.648
4086.0000	473.576
4087.0000	472.453
4088.0000	471.788
4089.0000	469.047
4090.0000	471.523
4091.0000	477.2
4092.0000	475.198
4093.0000	474.183
4094.0000	472.641
4095.0000	474.449
4096.0000	474.033
4097.0000	469.563
4098.0000	471.04
4099.0000	470.479
4100.0000	470.456
4101.0000	468.694
4102.0000	469.154
4103.0000	472.598
4104.0000	471.658
4105.0000	469.696
4106.0000	469.514
4107.0000	474.33
4108.0000	476.696
4109.0000	476.946
4110.0000	473.373
4111.0000	469.315
4112.0000	471.653
4113.0000	472.524
4114.0000	473.947
4115.0000	474.042
4116.0000	466.805
4117.0000	468.602
4118.0000	476.911
4119.0000	474.459
