TITLE	
DATA TYPE	
ORIGIN	JASCO
OWNER	
DATE	22/08/24
TIME	18:47:13
SPECTROMETER/DATA SYSTEM	
RESOLUTION	
DELTAX	0.5
XUNITS	SEC
YUNITS	INTENSITY
FIRSTX	0.0000
LASTX	5000.0000
NPOINTS	10001
FIRSTY	498.94583
MAXY	498.94583
MINY	-91.08554
XYDATA
0.0000	498.946
0.5000	498.892
1.0000	498.857
1.5000	498.717
2.0000	498.677
2.5000	498.688
3.0000	498.697
3.5000	498.7
4.0000	498.67
4.5000	498.684
5.0000	498.606
5.5000	498.516
6.0000	498.455
6.5000	498.375
7.0000	498.33
7.5000	498.32
8.0000	498.367
8.5000	498.386
9.0000	498.352
9.5000	498.283
10.0000	498.259
10.5000	498.134
11.0000	498.083
11.5000	498.077
12.0000	497.937
12.5000	497.917
13.0000	497.835
13.5000	497.794
14.0000	497.832
14.5000	497.809
15.0000	497.765
15.5000	497.751
16.0000	497.707
16.5000	497.733
17.0000	497.716
17.5000	497.692
18.0000	497.678
18.5000	497.597
19.0000	497.596
19.5000	497.553
20.0000	497.588
20.5000	497.505
21.0000	497.512
21.5000	497.456
22.0000	497.294
22.5000	497.352
23.0000	497.307
23.5000	497.313
24.0000	497.314
24.5000	497.264
25.0000	497.193
25.5000	497.164
26.0000	497.197
26.5000	497.201
27.0000	497.197
27.5000	497.207
28.0000	497.107
28.5000	497.048
29.0000	497.014
29.5000	496.92
30.0000	496.909
30.5000	496.965
31.0000	496.9
31.5000	496.838
32.0000	496.783
32.5000	493.274
33.0000	479.704
33.5000	454.114
34.0000	360.33
34.5000	-91.0855
35.0000	-45.4023
35.5000	-36.5659
36.0000	-33.8372
36.5000	-32.5587
37.0000	-31.716
37.5000	-31.2031
38.0000	-30.932
38.5000	-30.4085
39.0000	-30.0052
39.5000	-17.8691
40.0000	222.453
40.5000	216.697
41.0000	215.508
41.5000	214.336
42.0000	201.297
42.5000	201.977
43.0000	202.2
43.5000	202.486
44.0000	202.801
44.5000	203.12
45.0000	203.476
45.5000	203.853
46.0000	204.223
46.5000	204.641
47.0000	205.08
47.5000	205.455
48.0000	205.82
48.5000	206.163
49.0000	206.473
49.5000	206.84
50.0000	207.221
50.5000	207.582
51.0000	207.923
51.5000	208.293
52.0000	208.667
52.5000	209.046
53.0000	209.454
53.5000	209.819
54.0000	210.194
54.5000	210.558
55.0000	210.924
55.5000	211.299
56.0000	211.66
56.5000	212.049
57.0000	212.395
57.5000	212.748
58.0000	213.138
58.5000	213.504
59.0000	213.878
59.5000	214.298
60.0000	214.616
60.5000	214.968
61.0000	215.33
61.5000	215.667
62.0000	216.037
62.5000	216.366
63.0000	216.705
63.5000	217.039
64.0000	217.419
64.5000	217.778
65.0000	218.139
65.5000	218.492
66.0000	218.817
66.5000	219.159
67.0000	219.527
67.5000	219.894
68.0000	220.228
68.5000	220.61
69.0000	220.982
69.5000	221.359
70.0000	221.759
70.5000	222.107
71.0000	222.443
71.5000	222.755
72.0000	223.08
72.5000	223.451
73.0000	223.778
73.5000	224.155
74.0000	224.519
74.5000	224.839
75.0000	225.203
75.5000	225.528
76.0000	225.869
76.5000	226.23
77.0000	226.536
77.5000	226.903
78.0000	227.245
78.5000	227.587
79.0000	227.956
79.5000	228.251
80.0000	228.556
80.5000	228.895
81.0000	229.227
81.5000	229.553
82.0000	229.91
82.5000	230.202
83.0000	230.535
83.5000	230.875
84.0000	231.197
84.5000	231.541
85.0000	231.854
85.5000	232.178
86.0000	232.503
86.5000	232.838
87.0000	233.173
87.5000	233.531
88.0000	233.861
88.5000	234.184
89.0000	234.518
89.5000	234.813
90.0000	235.159
90.5000	235.47
91.0000	235.793
91.5000	236.133
92.0000	236.441
92.5000	236.812
93.0000	237.136
93.5000	237.444
94.0000	237.754
94.5000	238.055
95.0000	238.357
95.5000	238.667
96.0000	239.034
96.5000	239.332
97.0000	239.654
97.5000	240.011
98.0000	240.274
98.5000	240.595
99.0000	240.928
99.5000	241.204
100.0000	241.515
100.5000	241.832
101.0000	242.175
101.5000	242.509
102.0000	242.864
102.5000	243.183
103.0000	243.404
103.5000	243.717
104.0000	243.987
104.5000	244.326
105.0000	244.672
105.5000	244.981
106.0000	245.263
106.5000	245.499
107.0000	245.839
107.5000	246.114
108.0000	246.427
108.5000	246.733
109.0000	247.046
109.5000	247.358
110.0000	247.694
110.5000	248.028
111.0000	248.284
111.5000	248.576
112.0000	248.892
112.5000	249.163
113.0000	249.485
113.5000	249.787
114.0000	250.033
114.5000	250.341
115.0000	250.596
115.5000	250.898
116.0000	251.22
116.5000	251.506
117.0000	251.806
117.5000	252.125
118.0000	252.406
118.5000	252.701
119.0000	252.996
119.5000	253.284
120.0000	253.596
120.5000	253.881
121.0000	254.219
121.5000	254.514
122.0000	254.83
122.5000	255.153
123.0000	255.399
123.5000	255.666
124.0000	255.885
124.5000	256.174
125.0000	256.497
125.5000	256.793
126.0000	257.141
126.5000	257.394
127.0000	257.658
127.5000	257.923
128.0000	258.178
128.5000	258.484
129.0000	258.767
129.5000	259.087
130.0000	259.387
130.5000	259.641
131.0000	259.901
131.5000	260.173
132.0000	260.415
132.5000	260.708
133.0000	261.012
133.5000	261.288
134.0000	261.609
134.5000	261.892
135.0000	262.182
135.5000	262.47
136.0000	262.761
136.5000	263.042
137.0000	263.31
137.5000	263.592
138.0000	263.825
138.5000	264.118
139.0000	264.373
139.5000	264.628
140.0000	264.921
140.5000	265.155
141.0000	265.423
141.5000	265.679
142.0000	265.892
142.5000	266.174
143.0000	266.458
143.5000	266.745
144.0000	267.038
144.5000	267.279
145.0000	267.56
145.5000	267.839
146.0000	268.114
146.5000	268.403
147.0000	268.629
147.5000	268.876
148.0000	269.126
148.5000	269.381
149.0000	269.634
149.5000	269.877
150.0000	270.141
150.5000	270.386
151.0000	270.663
151.5000	270.921
152.0000	271.202
152.5000	271.449
153.0000	271.724
153.5000	271.997
154.0000	272.229
154.5000	272.482
155.0000	272.703
155.5000	272.936
156.0000	273.218
156.5000	273.528
157.0000	273.808
157.5000	274.111
158.0000	274.332
158.5000	274.572
159.0000	274.802
159.5000	275.009
160.0000	275.315
160.5000	275.597
161.0000	275.889
161.5000	276.119
162.0000	276.296
162.5000	276.53
163.0000	276.746
163.5000	276.974
164.0000	277.276
164.5000	277.475
165.0000	277.72
165.5000	278.024
166.0000	278.265
166.5000	278.503
167.0000	278.774
167.5000	278.984
168.0000	279.23
168.5000	279.482
169.0000	279.738
169.5000	280.022
170.0000	280.218
170.5000	280.489
171.0000	280.703
171.5000	280.911
172.0000	281.207
172.5000	281.44
173.0000	281.665
173.5000	281.905
174.0000	282.106
174.5000	282.332
175.0000	282.566
175.5000	282.797
176.0000	283.053
176.5000	283.331
177.0000	283.567
177.5000	283.815
178.0000	284.015
178.5000	284.225
179.0000	284.495
179.5000	284.777
180.0000	285.039
180.5000	285.247
181.0000	285.459
181.5000	285.653
182.0000	285.869
182.5000	286.109
183.0000	286.309
183.5000	286.534
184.0000	286.765
184.5000	287.047
185.0000	287.319
185.5000	287.514
186.0000	287.769
186.5000	287.942
187.0000	288.144
187.5000	288.4
188.0000	288.615
188.5000	288.849
189.0000	289.09
189.5000	289.316
190.0000	289.542
190.5000	289.741
191.0000	289.989
191.5000	290.179
192.0000	290.426
192.5000	290.662
193.0000	290.881
193.5000	291.166
194.0000	291.399
194.5000	291.703
195.0000	291.886
195.5000	292.087
196.0000	292.282
196.5000	292.437
197.0000	292.645
197.5000	292.854
198.0000	293.045
198.5000	293.322
199.0000	293.576
199.5000	293.82
200.0000	294.104
200.5000	294.229
201.0000	294.449
201.5000	294.689
202.0000	294.864
202.5000	295.127
203.0000	295.319
203.5000	295.503
204.0000	295.709
204.5000	295.938
205.0000	296.198
205.5000	296.402
206.0000	296.687
206.5000	296.937
207.0000	297.159
207.5000	297.413
208.0000	297.57
208.5000	297.702
209.0000	297.954
209.5000	298.117
210.0000	298.35
210.5000	298.591
211.0000	298.764
211.5000	298.954
212.0000	299.156
212.5000	299.35
213.0000	299.554
213.5000	299.787
214.0000	299.981
214.5000	300.207
215.0000	300.409
215.5000	300.665
216.0000	300.917
216.5000	301.152
217.0000	301.351
217.5000	301.536
218.0000	301.696
218.5000	301.89
219.0000	302.129
219.5000	302.338
220.0000	302.547
220.5000	302.73
221.0000	302.825
221.5000	303.032
222.0000	303.232
222.5000	303.415
223.0000	303.709
223.5000	303.911
224.0000	304.086
224.5000	304.3
225.0000	304.497
225.5000	304.612
226.0000	304.805
226.5000	305.038
227.0000	305.196
227.5000	305.42
228.0000	305.629
228.5000	305.806
229.0000	305.991
229.5000	306.212
230.0000	306.395
230.5000	306.617
231.0000	306.837
231.5000	307.041
232.0000	307.257
232.5000	307.428
233.0000	307.593
233.5000	307.792
234.0000	307.959
234.5000	308.113
235.0000	308.359
235.5000	308.557
236.0000	308.744
236.5000	308.959
237.0000	309.108
237.5000	309.295
238.0000	309.499
238.5000	309.678
239.0000	309.927
239.5000	310.123
240.0000	310.328
240.5000	310.537
241.0000	310.649
241.5000	310.814
242.0000	310.958
242.5000	311.08
243.0000	311.315
243.5000	311.517
244.0000	311.794
244.5000	311.985
245.0000	312.148
245.5000	312.293
246.0000	312.447
246.5000	312.638
247.0000	312.835
247.5000	313.055
248.0000	313.197
248.5000	313.418
249.0000	313.553
249.5000	313.698
250.0000	313.924
250.5000	314.101
251.0000	314.285
251.5000	314.495
252.0000	314.62
252.5000	314.786
253.0000	315
253.5000	315.171
254.0000	315.4
254.5000	315.588
255.0000	315.771
255.5000	315.898
256.0000	316.046
256.5000	316.228
257.0000	316.409
257.5000	316.651
258.0000	316.857
258.5000	317.048
259.0000	317.157
259.5000	317.276
260.0000	317.444
260.5000	317.58
261.0000	317.841
261.5000	318.066
262.0000	318.217
262.5000	318.441
263.0000	318.584
263.5000	318.743
264.0000	318.92
264.5000	319.094
265.0000	319.237
265.5000	319.381
266.0000	319.581
266.5000	319.782
267.0000	319.986
267.5000	320.188
268.0000	320.357
268.5000	320.472
269.0000	320.622
269.5000	320.798
270.0000	320.922
270.5000	321.102
271.0000	321.312
271.5000	321.524
272.0000	321.751
272.5000	321.95
273.0000	322.073
273.5000	322.211
274.0000	322.351
274.5000	322.519
275.0000	322.724
275.5000	322.907
276.0000	323.088
276.5000	323.258
277.0000	323.454
277.5000	323.665
278.0000	323.816
278.5000	323.985
279.0000	324.119
279.5000	324.28
280.0000	324.47
280.5000	324.59
281.0000	324.779
281.5000	324.909
282.0000	325.12
282.5000	325.35
283.0000	325.517
283.5000	325.653
284.0000	325.742
284.5000	325.878
285.0000	326.063
285.5000	326.225
286.0000	326.433
286.5000	326.617
287.0000	326.786
287.5000	326.984
288.0000	327.088
288.5000	327.234
289.0000	327.328
289.5000	327.471
290.0000	327.7
290.5000	327.851
291.0000	328.035
291.5000	328.24
292.0000	328.359
292.5000	328.519
293.0000	328.712
293.5000	328.851
294.0000	328.979
294.5000	329.181
295.0000	329.284
295.5000	329.448
296.0000	329.636
296.5000	329.797
297.0000	330.011
297.5000	330.153
298.0000	330.344
298.5000	330.496
299.0000	330.605
299.5000	330.798
300.0000	330.978
300.5000	331.141
301.0000	331.32
301.5000	331.442
302.0000	331.574
302.5000	331.708
303.0000	331.894
303.5000	332.043
304.0000	332.177
304.5000	332.314
305.0000	332.42
305.5000	332.542
306.0000	332.723
306.5000	332.871
307.0000	333.057
307.5000	333.237
308.0000	333.324
308.5000	333.469
309.0000	333.686
309.5000	333.834
310.0000	334.029
310.5000	334.204
311.0000	334.274
311.5000	334.392
312.0000	334.54
312.5000	334.674
313.0000	334.819
313.5000	335.018
314.0000	335.195
314.5000	335.353
315.0000	335.477
315.5000	335.673
316.0000	335.806
316.5000	335.976
317.0000	336.183
317.5000	336.275
318.0000	336.414
318.5000	336.498
319.0000	336.653
319.5000	336.81
320.0000	336.963
320.5000	337.146
321.0000	337.274
321.5000	337.399
322.0000	337.533
322.5000	337.677
323.0000	337.805
323.5000	337.973
324.0000	338.153
324.5000	338.283
325.0000	338.443
325.5000	338.578
326.0000	338.742
326.5000	338.951
327.0000	339.088
327.5000	339.271
328.0000	339.379
328.5000	339.457
329.0000	339.636
329.5000	339.739
330.0000	339.884
330.5000	340.079
331.0000	340.18
331.5000	340.303
332.0000	340.408
332.5000	340.494
333.0000	340.618
333.5000	340.789
334.0000	340.976
334.5000	341.042
335.0000	341.183
335.5000	341.305
336.0000	341.374
336.5000	341.608
337.0000	341.724
337.5000	341.81
338.0000	341.983
338.5000	342.115
339.0000	342.324
339.5000	342.491
340.0000	342.657
340.5000	342.768
341.0000	342.895
341.5000	342.98
342.0000	343.116
342.5000	343.241
343.0000	343.319
343.5000	343.509
344.0000	343.554
344.5000	343.657
345.0000	343.805
345.5000	343.97
346.0000	344.174
346.5000	344.342
347.0000	344.442
347.5000	344.589
348.0000	344.698
348.5000	344.808
349.0000	344.969
349.5000	345.095
350.0000	345.249
350.5000	345.411
351.0000	345.522
351.5000	345.577
352.0000	345.701
352.5000	345.825
353.0000	345.994
353.5000	346.169
354.0000	346.299
354.5000	346.453
355.0000	346.563
355.5000	346.65
356.0000	346.718
356.5000	346.811
357.0000	346.989
357.5000	347.184
358.0000	347.358
358.5000	347.567
359.0000	347.638
359.5000	347.704
360.0000	347.788
360.5000	347.858
361.0000	347.976
361.5000	348.129
362.0000	348.306
362.5000	348.441
363.0000	348.568
363.5000	348.704
364.0000	348.824
364.5000	348.915
365.0000	349.111
365.5000	349.249
366.0000	349.356
366.5000	349.535
367.0000	349.579
367.5000	349.715
368.0000	349.846
368.5000	349.933
369.0000	350.025
369.5000	350.129
370.0000	350.236
370.5000	350.36
371.0000	350.519
371.5000	350.614
372.0000	350.724
372.5000	350.837
373.0000	350.969
373.5000	351.092
374.0000	351.246
374.5000	351.378
375.0000	351.445
375.5000	351.59
376.0000	351.715
376.5000	351.82
377.0000	351.974
377.5000	352.109
378.0000	352.245
378.5000	352.355
379.0000	352.489
379.5000	352.554
380.0000	352.649
380.5000	352.759
381.0000	352.918
381.5000	353.067
382.0000	353.179
382.5000	353.327
383.0000	353.404
383.5000	353.481
384.0000	353.627
384.5000	353.729
385.0000	353.815
385.5000	353.977
386.0000	354.08
386.5000	354.203
387.0000	354.346
387.5000	354.441
388.0000	354.532
388.5000	354.634
389.0000	354.749
389.5000	354.853
390.0000	354.989
390.5000	355.101
391.0000	355.23
391.5000	355.405
392.0000	355.519
392.5000	355.682
393.0000	355.766
393.5000	355.864
394.0000	355.95
394.5000	356.026
395.0000	356.137
395.5000	356.21
396.0000	356.306
396.5000	356.412
397.0000	356.513
397.5000	356.666
398.0000	356.817
398.5000	356.892
399.0000	357.033
399.5000	357.123
400.0000	357.22
400.5000	357.342
401.0000	357.434
401.5000	357.536
402.0000	357.656
402.5000	357.781
403.0000	357.917
403.5000	357.985
404.0000	358.108
404.5000	358.215
405.0000	358.291
405.5000	358.421
406.0000	358.484
406.5000	358.636
407.0000	358.773
407.5000	358.891
408.0000	359.017
408.5000	359.154
409.0000	359.236
409.5000	359.385
410.0000	359.491
410.5000	359.516
411.0000	359.653
411.5000	359.755
412.0000	359.876
412.5000	359.997
413.0000	360.151
413.5000	360.214
414.0000	360.328
414.5000	360.425
415.0000	360.423
415.5000	360.501
416.0000	360.564
416.5000	360.702
417.0000	360.922
417.5000	361.05
418.0000	361.19
418.5000	361.311
419.0000	361.38
419.5000	361.454
420.0000	361.574
420.5000	361.719
421.0000	361.777
421.5000	361.907
422.0000	361.959
422.5000	362.061
423.0000	362.184
423.5000	362.37
424.0000	362.508
424.5000	362.57
425.0000	362.667
425.5000	362.748
426.0000	362.916
426.5000	362.99
427.0000	363.138
427.5000	363.175
428.0000	363.175
428.5000	363.266
429.0000	363.353
429.5000	363.494
430.0000	363.625
430.5000	363.749
431.0000	363.779
431.5000	363.84
432.0000	363.942
432.5000	364.065
433.0000	364.216
433.5000	364.303
434.0000	364.388
434.5000	364.445
435.0000	364.568
435.5000	364.709
436.0000	364.796
436.5000	364.886
437.0000	364.91
437.5000	365.028
438.0000	365.179
438.5000	365.255
439.0000	365.419
439.5000	365.532
440.0000	365.56
440.5000	365.718
441.0000	365.783
441.5000	365.812
442.0000	365.988
442.5000	366.093
443.0000	366.214
443.5000	366.338
444.0000	366.358
444.5000	366.409
445.0000	366.476
445.5000	366.543
446.0000	366.686
446.5000	366.867
447.0000	366.98
447.5000	367.146
448.0000	367.263
448.5000	367.269
449.0000	367.336
449.5000	367.409
450.0000	367.473
450.5000	367.615
451.0000	367.783
451.5000	367.899
452.0000	368.053
452.5000	368.129
453.0000	368.181
453.5000	368.233
454.0000	368.287
454.5000	368.435
455.0000	368.547
455.5000	368.66
456.0000	368.733
456.5000	368.803
457.0000	368.865
457.5000	368.929
458.0000	369.042
458.5000	369.085
459.0000	369.16
459.5000	369.225
460.0000	369.277
460.5000	369.37
461.0000	369.473
461.5000	369.622
462.0000	369.761
462.5000	369.909
463.0000	370.003
463.5000	370.1
464.0000	370.142
464.5000	370.173
465.0000	370.281
465.5000	370.371
466.0000	370.507
466.5000	370.635
467.0000	370.732
467.5000	370.791
468.0000	370.823
468.5000	370.869
469.0000	370.962
469.5000	371.063
470.0000	371.232
470.5000	371.384
471.0000	371.508
471.5000	371.582
472.0000	371.654
472.5000	371.764
473.0000	371.825
473.5000	371.885
474.0000	371.933
474.5000	371.997
475.0000	372.078
475.5000	372.198
476.0000	372.278
476.5000	372.375
477.0000	372.465
477.5000	372.644
478.0000	372.77
478.5000	372.8
479.0000	372.917
479.5000	372.974
480.0000	373.042
480.5000	373.127
481.0000	373.162
481.5000	373.23
482.0000	373.37
482.5000	373.472
483.0000	373.528
483.5000	373.608
484.0000	373.672
484.5000	373.72
485.0000	373.811
485.5000	373.875
486.0000	373.912
486.5000	374.022
487.0000	374.131
487.5000	374.231
488.0000	374.348
488.5000	374.489
489.0000	374.559
489.5000	374.636
490.0000	374.676
490.5000	374.709
491.0000	374.774
491.5000	374.841
492.0000	374.975
492.5000	375.051
493.0000	375.188
493.5000	375.305
494.0000	375.364
494.5000	375.474
495.0000	375.546
495.5000	375.647
496.0000	375.736
496.5000	375.802
497.0000	375.884
497.5000	375.915
498.0000	375.958
498.5000	376.035
499.0000	376.09
499.5000	376.159
500.0000	376.247
500.5000	376.398
501.0000	376.459
501.5000	376.579
502.0000	376.689
502.5000	376.742
503.0000	376.874
503.5000	376.93
504.0000	377.04
504.5000	377.11
505.0000	377.187
505.5000	377.211
506.0000	377.295
506.5000	377.393
507.0000	377.497
507.5000	377.641
508.0000	377.702
508.5000	377.681
509.0000	377.7
509.5000	377.798
510.0000	377.845
510.5000	377.987
511.0000	378.126
511.5000	378.135
512.0000	378.257
512.5000	378.395
513.0000	378.438
513.5000	378.617
514.0000	378.65
514.5000	378.731
515.0000	378.797
515.5000	378.809
516.0000	378.923
516.5000	378.94
517.0000	379.013
517.5000	379.047
518.0000	379.101
518.5000	379.208
519.0000	379.32
519.5000	379.474
520.0000	379.521
520.5000	379.592
521.0000	379.701
521.5000	379.803
522.0000	379.898
522.5000	379.958
523.0000	380.012
523.5000	379.999
524.0000	380.081
524.5000	380.144
525.0000	380.191
525.5000	380.341
526.0000	380.451
526.5000	380.517
527.0000	380.602
527.5000	380.629
528.0000	380.652
528.5000	380.698
529.0000	380.741
529.5000	380.808
530.0000	380.913
530.5000	380.98
531.0000	381.126
531.5000	381.218
532.0000	381.309
532.5000	381.474
533.0000	381.505
533.5000	381.557
534.0000	381.607
534.5000	381.641
535.0000	381.708
535.5000	381.853
536.0000	381.982
536.5000	382.036
537.0000	382.106
537.5000	382.045
538.0000	382.114
538.5000	382.238
539.0000	382.288
539.5000	382.432
540.0000	382.456
540.5000	382.51
541.0000	382.577
541.5000	382.693
542.0000	382.807
542.5000	382.819
543.0000	382.975
543.5000	383.008
544.0000	383.064
544.5000	383.195
545.0000	383.195
545.5000	383.295
546.0000	383.359
546.5000	383.436
547.0000	383.562
547.5000	383.603
548.0000	383.673
548.5000	383.747
549.0000	383.81
549.5000	383.853
550.0000	383.889
550.5000	383.942
551.0000	384.03
551.5000	384.125
552.0000	384.214
552.5000	384.274
553.0000	384.302
553.5000	384.343
554.0000	384.391
554.5000	384.487
555.0000	384.558
555.5000	384.627
556.0000	384.708
556.5000	384.783
557.0000	384.849
557.5000	384.944
558.0000	384.995
558.5000	385.004
559.0000	385.026
559.5000	385.141
560.0000	385.203
560.5000	385.259
561.0000	385.36
561.5000	385.363
562.0000	385.433
562.5000	385.525
563.0000	385.515
563.5000	385.607
564.0000	385.705
564.5000	385.744
565.0000	385.915
565.5000	385.987
566.0000	386.048
566.5000	386.163
567.0000	386.16
567.5000	386.194
568.0000	386.211
568.5000	386.233
569.0000	386.354
569.5000	386.404
570.0000	386.484
570.5000	386.539
571.0000	386.568
571.5000	386.643
572.0000	386.661
572.5000	386.743
573.0000	386.845
573.5000	386.915
574.0000	387.008
574.5000	387.084
575.0000	387.167
575.5000	387.243
576.0000	387.326
576.5000	387.365
577.0000	387.388
577.5000	387.525
578.0000	387.598
578.5000	387.658
579.0000	387.726
579.5000	387.707
580.0000	387.76
580.5000	387.814
581.0000	387.896
581.5000	388.017
582.0000	388.093
582.5000	388.146
583.0000	388.142
583.5000	388.163
584.0000	388.212
584.5000	388.33
585.0000	388.449
585.5000	388.513
586.0000	388.552
586.5000	388.584
587.0000	388.602
587.5000	388.594
588.0000	388.671
588.5000	388.716
589.0000	388.812
589.5000	388.844
590.0000	388.906
590.5000	388.969
591.0000	388.969
591.5000	389.121
592.0000	389.206
592.5000	389.256
593.0000	389.36
593.5000	389.423
594.0000	389.47
594.5000	389.58
595.0000	389.649
595.5000	389.721
596.0000	389.744
596.5000	389.811
597.0000	389.888
597.5000	389.941
598.0000	390.09
598.5000	390.109
599.0000	390.135
599.5000	390.174
600.0000	390.188
600.5000	390.276
601.0000	390.385
601.5000	390.48
602.0000	390.573
602.5000	390.604
603.0000	390.608
603.5000	390.64
604.0000	390.671
604.5000	390.692
605.0000	390.772
605.5000	390.81
606.0000	390.835
606.5000	390.954
607.0000	391.016
607.5000	391.148
608.0000	391.185
608.5000	391.24
609.0000	391.259
609.5000	391.284
610.0000	391.45
610.5000	391.532
611.0000	391.576
611.5000	391.559
612.0000	391.533
612.5000	391.597
613.0000	391.72
613.5000	391.84
614.0000	391.881
614.5000	391.966
615.0000	392.005
615.5000	392.025
616.0000	392.089
616.5000	392.102
617.0000	392.194
617.5000	392.281
618.0000	392.414
618.5000	392.531
619.0000	392.495
619.5000	392.592
620.0000	392.628
620.5000	392.647
621.0000	392.77
621.5000	392.823
622.0000	392.829
622.5000	392.877
623.0000	392.942
623.5000	392.976
624.0000	393.019
624.5000	393.061
625.0000	393.15
625.5000	393.189
626.0000	393.281
626.5000	393.386
627.0000	393.409
627.5000	393.462
628.0000	393.516
628.5000	393.557
629.0000	393.624
629.5000	393.69
630.0000	393.752
630.5000	393.757
631.0000	393.738
631.5000	393.744
632.0000	393.756
632.5000	393.776
633.0000	393.89
633.5000	394.03
634.0000	394.144
634.5000	394.257
635.0000	394.257
635.5000	394.302
636.0000	394.34
636.5000	394.388
637.0000	394.459
637.5000	394.476
638.0000	394.557
638.5000	394.576
639.0000	394.712
639.5000	394.792
640.0000	394.846
640.5000	394.922
641.0000	394.95
641.5000	395.054
642.0000	395.09
642.5000	395.194
643.0000	395.249
643.5000	395.278
644.0000	395.334
644.5000	395.365
645.0000	395.442
645.5000	395.465
646.0000	395.547
646.5000	395.632
647.0000	395.62
647.5000	395.621
648.0000	395.606
648.5000	395.601
649.0000	395.692
649.5000	395.792
650.0000	395.936
650.5000	396.029
651.0000	396.066
651.5000	396.108
652.0000	396.143
652.5000	396.192
653.0000	396.272
653.5000	396.339
654.0000	396.363
654.5000	396.397
655.0000	396.426
655.5000	396.466
656.0000	396.505
656.5000	396.582
657.0000	396.638
657.5000	396.704
658.0000	396.786
658.5000	396.836
659.0000	396.826
659.5000	396.839
660.0000	396.862
660.5000	396.863
661.0000	396.996
661.5000	397.064
662.0000	397.072
662.5000	397.199
663.0000	397.264
663.5000	397.308
664.0000	397.373
664.5000	397.37
665.0000	397.396
665.5000	397.481
666.0000	397.617
666.5000	397.711
667.0000	397.768
667.5000	397.859
668.0000	397.832
668.5000	397.877
669.0000	397.92
669.5000	397.89
670.0000	397.976
670.5000	397.997
671.0000	398.049
671.5000	398.112
672.0000	398.133
672.5000	398.223
673.0000	398.222
673.5000	398.366
674.0000	398.426
674.5000	398.45
675.0000	398.559
675.5000	398.536
676.0000	398.596
676.5000	398.657
677.0000	398.682
677.5000	398.74
678.0000	398.761
678.5000	398.753
679.0000	398.842
679.5000	398.93
680.0000	398.956
680.5000	398.997
681.0000	398.981
681.5000	398.961
682.0000	399.049
682.5000	399.15
683.0000	399.247
683.5000	399.273
684.0000	399.334
684.5000	399.315
685.0000	399.339
685.5000	399.419
686.0000	399.485
686.5000	399.583
687.0000	399.61
687.5000	399.663
688.0000	399.723
688.5000	399.705
689.0000	399.763
689.5000	399.766
690.0000	399.786
690.5000	399.88
691.0000	399.944
691.5000	400.055
692.0000	400.117
692.5000	400.189
693.0000	400.173
693.5000	400.18
694.0000	400.202
694.5000	400.268
695.0000	400.369
695.5000	400.421
696.0000	400.439
696.5000	400.44
697.0000	400.539
697.5000	400.567
698.0000	400.633
698.5000	400.664
699.0000	400.642
699.5000	400.728
700.0000	400.783
700.5000	400.872
701.0000	401.001
701.5000	401.004
702.0000	401.042
702.5000	401.076
703.0000	401.116
703.5000	401.228
704.0000	401.344
704.5000	401.38
705.0000	401.359
705.5000	401.366
706.0000	401.37
706.5000	401.428
707.0000	401.434
707.5000	401.43
708.0000	401.482
708.5000	401.545
709.0000	401.652
709.5000	401.776
710.0000	401.808
710.5000	401.829
711.0000	401.841
711.5000	401.875
712.0000	401.861
712.5000	401.871
713.0000	401.958
713.5000	401.952
714.0000	402.072
714.5000	402.168
715.0000	402.214
715.5000	402.287
716.0000	402.364
716.5000	402.44
717.0000	402.441
717.5000	402.501
718.0000	402.56
718.5000	402.563
719.0000	402.673
719.5000	402.734
720.0000	402.719
720.5000	402.865
721.0000	402.914
721.5000	402.959
722.0000	403.005
722.5000	403.009
723.0000	403.009
723.5000	403.042
724.0000	403.094
724.5000	403.13
725.0000	403.174
725.5000	403.229
726.0000	403.255
726.5000	403.235
727.0000	403.264
727.5000	403.329
728.0000	403.369
728.5000	403.458
729.0000	403.556
729.5000	403.554
730.0000	403.586
730.5000	403.692
731.0000	403.712
731.5000	403.797
732.0000	403.828
732.5000	403.865
733.0000	403.905
733.5000	403.936
734.0000	404.03
734.5000	404.072
735.0000	404.131
735.5000	404.175
736.0000	404.274
736.5000	404.216
737.0000	404.255
737.5000	404.285
738.0000	404.286
738.5000	404.362
739.0000	404.393
739.5000	404.477
740.0000	404.525
740.5000	404.617
741.0000	404.664
741.5000	404.674
742.0000	404.698
742.5000	404.729
743.0000	404.704
743.5000	404.735
744.0000	404.803
744.5000	404.841
745.0000	404.941
745.5000	405.013
746.0000	405.033
746.5000	405.017
747.0000	405.061
747.5000	405.124
748.0000	405.172
748.5000	405.226
749.0000	405.327
749.5000	405.352
750.0000	405.383
750.5000	405.469
751.0000	405.451
751.5000	405.459
752.0000	405.514
752.5000	405.61
753.0000	405.624
753.5000	405.635
754.0000	405.703
754.5000	405.695
755.0000	405.849
755.5000	406
756.0000	405.985
756.5000	405.974
757.0000	405.938
757.5000	405.892
758.0000	405.963
758.5000	406.04
759.0000	406.091
759.5000	406.178
760.0000	406.219
760.5000	406.274
761.0000	406.372
761.5000	406.395
762.0000	406.449
762.5000	406.404
763.0000	406.388
763.5000	406.432
764.0000	406.494
764.5000	406.562
765.0000	406.611
765.5000	406.696
766.0000	406.748
766.5000	406.809
767.0000	406.786
767.5000	406.771
768.0000	406.779
768.5000	406.859
769.0000	407.028
769.5000	407.104
770.0000	407.283
770.5000	407.358
771.0000	407.372
771.5000	407.432
772.0000	407.37
772.5000	407.393
773.0000	407.411
773.5000	407.485
774.0000	407.491
774.5000	407.557
775.0000	407.571
775.5000	407.531
776.0000	407.599
776.5000	407.604
777.0000	407.7
777.5000	407.77
778.0000	407.788
778.5000	407.852
779.0000	407.849
779.5000	407.86
780.0000	407.943
780.5000	407.919
781.0000	407.965
781.5000	408.065
782.0000	408.103
782.5000	408.174
783.0000	408.163
783.5000	408.198
784.0000	408.197
784.5000	408.312
785.0000	408.425
785.5000	408.42
786.0000	408.492
786.5000	408.487
787.0000	408.539
787.5000	408.586
788.0000	408.627
788.5000	408.731
789.0000	408.75
789.5000	408.799
790.0000	408.811
790.5000	408.718
791.0000	408.768
791.5000	408.911
792.0000	408.99
792.5000	409.038
793.0000	409.082
793.5000	409.063
794.0000	409.077
794.5000	409.21
795.0000	409.243
795.5000	409.312
796.0000	409.289
796.5000	409.27
797.0000	409.305
797.5000	409.333
798.0000	409.416
798.5000	409.43
799.0000	409.446
799.5000	409.434
800.0000	409.419
800.5000	409.473
801.0000	409.469
801.5000	409.493
802.0000	409.571
802.5000	409.609
803.0000	409.705
803.5000	409.784
804.0000	409.871
804.5000	409.889
805.0000	409.967
805.5000	409.991
806.0000	410.023
806.5000	410.12
807.0000	410.134
807.5000	410.237
808.0000	410.28
808.5000	410.29
809.0000	410.287
809.5000	410.233
810.0000	410.265
810.5000	410.331
811.0000	410.4
811.5000	410.49
812.0000	410.514
812.5000	410.532
813.0000	410.536
813.5000	410.521
814.0000	410.632
814.5000	410.672
815.0000	410.756
815.5000	410.8
816.0000	410.747
816.5000	410.788
817.0000	410.78
817.5000	410.818
818.0000	410.89
818.5000	410.947
819.0000	411.104
819.5000	411.126
820.0000	411.147
820.5000	411.181
821.0000	411.127
821.5000	411.212
822.0000	411.3
822.5000	411.282
823.0000	411.323
823.5000	411.36
824.0000	411.356
824.5000	411.477
825.0000	411.555
825.5000	411.592
826.0000	411.642
826.5000	411.671
827.0000	411.686
827.5000	411.697
828.0000	411.706
828.5000	411.684
829.0000	411.707
829.5000	411.809
830.0000	411.921
830.5000	412.023
831.0000	412.111
831.5000	412.112
832.0000	412.153
832.5000	412.093
833.0000	412.083
833.5000	412.036
834.0000	412.04
834.5000	412.167
835.0000	412.252
835.5000	412.345
836.0000	412.299
836.5000	412.305
837.0000	412.325
837.5000	412.336
838.0000	412.452
838.5000	412.532
839.0000	412.589
839.5000	412.693
840.0000	412.697
840.5000	412.682
841.0000	412.653
841.5000	412.672
842.0000	412.721
842.5000	412.757
843.0000	412.83
843.5000	412.895
844.0000	412.952
844.5000	412.968
845.0000	412.983
845.5000	413.044
846.0000	413.031
846.5000	413.104
847.0000	413.128
847.5000	413.101
848.0000	413.174
848.5000	413.237
849.0000	413.311
849.5000	413.347
850.0000	413.388
850.5000	413.437
851.0000	413.45
851.5000	413.552
852.0000	413.594
852.5000	413.55
853.0000	413.657
853.5000	413.7
854.0000	413.734
854.5000	413.86
855.0000	413.849
855.5000	413.798
856.0000	413.822
856.5000	413.913
857.0000	413.938
857.5000	413.975
858.0000	414.002
858.5000	413.98
859.0000	414.087
859.5000	414.163
860.0000	414.228
860.5000	414.26
861.0000	414.266
861.5000	414.217
862.0000	414.172
862.5000	414.173
863.0000	414.113
863.5000	414.196
864.0000	414.375
864.5000	414.457
865.0000	414.611
865.5000	414.723
866.0000	414.702
866.5000	414.761
867.0000	414.721
867.5000	414.681
868.0000	414.821
868.5000	414.816
869.0000	414.916
869.5000	415.032
870.0000	414.935
870.5000	414.92
871.0000	414.95
871.5000	414.959
872.0000	415.05
872.5000	415.053
873.0000	415.039
873.5000	415.063
874.0000	415.078
874.5000	415.187
875.0000	415.378
875.5000	415.467
876.0000	415.537
876.5000	415.598
877.0000	415.55
877.5000	415.537
878.0000	415.552
878.5000	415.628
879.0000	415.635
879.5000	415.68
880.0000	415.736
880.5000	415.735
881.0000	415.836
881.5000	415.906
882.0000	415.957
882.5000	415.978
883.0000	415.988
883.5000	415.984
884.0000	416.01
884.5000	416.099
885.0000	416.101
885.5000	416.203
886.0000	416.247
886.5000	416.264
887.0000	416.323
887.5000	416.362
888.0000	416.37
888.5000	416.438
889.0000	416.488
889.5000	416.527
890.0000	416.598
890.5000	416.633
891.0000	416.664
891.5000	416.686
892.0000	416.695
892.5000	416.639
893.0000	416.71
893.5000	416.77
894.0000	416.877
894.5000	417.011
895.0000	417.108
895.5000	417.176
896.0000	417.194
896.5000	417.195
897.0000	417.202
897.5000	417.245
898.0000	417.285
898.5000	417.355
899.0000	417.325
899.5000	417.364
900.0000	417.377
900.5000	417.458
901.0000	417.555
901.5000	417.588
902.0000	417.689
902.5000	417.703
903.0000	417.715
903.5000	417.725
904.0000	417.756
904.5000	417.761
905.0000	417.898
905.5000	417.931
906.0000	417.955
906.5000	418.052
907.0000	418.036
907.5000	418.137
908.0000	418.169
908.5000	418.145
909.0000	418.17
909.5000	418.181
910.0000	418.223
910.5000	418.336
911.0000	418.385
911.5000	418.396
912.0000	418.454
912.5000	418.52
913.0000	418.61
913.5000	418.698
914.0000	418.762
914.5000	418.778
915.0000	418.746
915.5000	418.71
916.0000	418.701
916.5000	418.753
917.0000	418.766
917.5000	418.872
918.0000	418.954
918.5000	418.97
919.0000	419.048
919.5000	419.115
920.0000	419.146
920.5000	419.207
921.0000	419.303
921.5000	419.289
922.0000	419.357
922.5000	419.461
923.0000	419.482
923.5000	419.508
924.0000	419.467
924.5000	419.489
925.0000	419.544
925.5000	419.674
926.0000	419.777
926.5000	419.751
927.0000	419.811
927.5000	419.78
928.0000	419.791
928.5000	419.859
929.0000	419.902
929.5000	419.951
930.0000	419.975
930.5000	420.071
931.0000	420.048
931.5000	420.149
932.0000	420.232
932.5000	420.2
933.0000	420.327
933.5000	420.363
934.0000	420.368
934.5000	420.428
935.0000	420.421
935.5000	420.429
936.0000	420.504
936.5000	420.532
937.0000	420.528
937.5000	420.577
938.0000	420.661
938.5000	420.696
939.0000	420.797
939.5000	420.854
940.0000	420.831
940.5000	420.895
941.0000	420.895
941.5000	420.874
942.0000	420.95
942.5000	420.985
943.0000	421.037
943.5000	421.127
944.0000	421.214
944.5000	421.257
945.0000	421.299
945.5000	421.327
946.0000	421.316
946.5000	421.349
947.0000	421.37
947.5000	421.495
948.0000	421.556
948.5000	421.648
949.0000	421.717
949.5000	421.71
950.0000	421.678
950.5000	421.579
951.0000	421.648
951.5000	421.663
952.0000	421.826
952.5000	421.953
953.0000	421.991
953.5000	421.979
954.0000	421.949
954.5000	421.962
955.0000	421.901
955.5000	421.956
956.0000	421.989
956.5000	422.105
957.0000	422.251
957.5000	422.332
958.0000	422.394
958.5000	422.354
959.0000	422.31
959.5000	422.341
960.0000	422.418
960.5000	422.427
961.0000	422.569
961.5000	422.679
962.0000	422.668
962.5000	422.739
963.0000	422.783
963.5000	422.779
964.0000	422.817
964.5000	422.888
965.0000	422.832
965.5000	422.823
966.0000	422.88
966.5000	422.93
967.0000	422.981
967.5000	423.056
968.0000	423.052
968.5000	423.053
969.0000	423.137
969.5000	423.118
970.0000	423.208
970.5000	423.252
971.0000	423.282
971.5000	423.37
972.0000	423.398
972.5000	423.456
973.0000	423.492
973.5000	423.528
974.0000	423.548
974.5000	423.621
975.0000	423.623
975.5000	423.663
976.0000	423.74
976.5000	423.762
977.0000	423.89
977.5000	423.98
978.0000	424.011
978.5000	424.043
979.0000	424.011
979.5000	424.095
980.0000	424.167
980.5000	424.181
981.0000	424.284
981.5000	424.253
982.0000	424.288
982.5000	424.302
983.0000	424.32
983.5000	424.335
984.0000	424.327
984.5000	424.446
985.0000	424.543
985.5000	424.57
986.0000	424.677
986.5000	424.713
987.0000	424.621
987.5000	424.665
988.0000	424.722
988.5000	424.859
989.0000	424.945
989.5000	425.011
990.0000	425.051
990.5000	425.038
991.0000	425.131
991.5000	425.214
992.0000	425.233
992.5000	425.263
993.0000	425.268
993.5000	425.273
994.0000	425.25
994.5000	425.233
995.0000	425.325
995.5000	425.384
996.0000	425.44
996.5000	425.547
997.0000	425.539
997.5000	425.555
998.0000	425.702
998.5000	425.736
999.0000	425.855
999.5000	425.969
1000.0000	425.945
1000.5000	425.978
1001.0000	426
1001.5000	426.034
1002.0000	426.161
1002.5000	426.181
1003.0000	426.202
1003.5000	426.165
1004.0000	426.141
1004.5000	426.21
1005.0000	426.271
1005.5000	426.377
1006.0000	426.464
1006.5000	426.567
1007.0000	426.596
1007.5000	426.602
1008.0000	426.628
1008.5000	426.634
1009.0000	426.671
1009.5000	426.749
1010.0000	426.78
1010.5000	426.777
1011.0000	426.847
1011.5000	426.889
1012.0000	426.94
1012.5000	427.018
1013.0000	427.033
1013.5000	427.114
1014.0000	427.171
1014.5000	427.212
1015.0000	427.313
1015.5000	427.285
1016.0000	427.367
1016.5000	427.484
1017.0000	427.507
1017.5000	427.615
1018.0000	427.549
1018.5000	427.474
1019.0000	427.585
1019.5000	427.573
1020.0000	427.682
1020.5000	427.791
1021.0000	427.762
1021.5000	427.816
1022.0000	427.787
1022.5000	427.849
1023.0000	427.889
1023.5000	427.942
1024.0000	428.023
1024.5000	428.013
1025.0000	428.027
1025.5000	428.068
1026.0000	428.128
1026.5000	428.172
1027.0000	428.292
1027.5000	428.246
1028.0000	428.247
1028.5000	428.343
1029.0000	428.331
1029.5000	428.401
1030.0000	428.525
1030.5000	428.523
1031.0000	428.54
1031.5000	428.659
1032.0000	428.649
1032.5000	428.751
1033.0000	428.786
1033.5000	428.861
1034.0000	428.887
1034.5000	428.862
1035.0000	428.894
1035.5000	428.914
1036.0000	428.955
1036.5000	428.988
1037.0000	429.067
1037.5000	429.089
1038.0000	429.187
1038.5000	429.265
1039.0000	429.316
1039.5000	429.38
1040.0000	429.384
1040.5000	429.401
1041.0000	429.457
1041.5000	429.534
1042.0000	429.544
1042.5000	429.563
1043.0000	429.615
1043.5000	429.648
1044.0000	429.72
1044.5000	429.805
1045.0000	429.781
1045.5000	429.801
1046.0000	429.853
1046.5000	429.88
1047.0000	429.977
1047.5000	430.042
1048.0000	429.996
1048.5000	430.043
1049.0000	430.084
1049.5000	430.144
1050.0000	430.271
1050.5000	430.292
1051.0000	430.331
1051.5000	430.334
1052.0000	430.337
1052.5000	430.393
1053.0000	430.418
1053.5000	430.521
1054.0000	430.546
1054.5000	430.549
1055.0000	430.621
1055.5000	430.559
1056.0000	430.637
1056.5000	430.667
1057.0000	430.692
1057.5000	430.752
1058.0000	430.831
1058.5000	430.905
1059.0000	430.938
1059.5000	430.964
1060.0000	430.997
1060.5000	431.1
1061.0000	431.08
1061.5000	431.121
1062.0000	431.18
1062.5000	431.193
1063.0000	431.246
1063.5000	431.32
1064.0000	431.33
1064.5000	431.33
1065.0000	431.464
1065.5000	431.456
1066.0000	431.505
1066.5000	431.569
1067.0000	431.499
1067.5000	431.577
1068.0000	431.629
1068.5000	431.672
1069.0000	431.72
1069.5000	431.792
1070.0000	431.81
1070.5000	431.824
1071.0000	431.935
1071.5000	431.908
1072.0000	431.978
1072.5000	432.086
1073.0000	432.026
1073.5000	432.035
1074.0000	432.036
1074.5000	432.046
1075.0000	432.186
1075.5000	432.27
1076.0000	432.296
1076.5000	432.304
1077.0000	432.278
1077.5000	432.281
1078.0000	432.299
1078.5000	432.406
1079.0000	432.478
1079.5000	432.466
1080.0000	432.5
1080.5000	432.479
1081.0000	432.54
1081.5000	432.661
1082.0000	432.707
1082.5000	432.727
1083.0000	432.716
1083.5000	432.726
1084.0000	432.782
1084.5000	432.815
1085.0000	432.939
1085.5000	433.035
1086.0000	433.092
1086.5000	433.126
1087.0000	433.081
1087.5000	433.113
1088.0000	433.129
1088.5000	433.128
1089.0000	433.214
1089.5000	433.222
1090.0000	433.282
1090.5000	433.356
1091.0000	433.328
1091.5000	433.393
1092.0000	433.44
1092.5000	433.47
1093.0000	433.523
1093.5000	433.598
1094.0000	433.655
1094.5000	433.768
1095.0000	433.804
1095.5000	433.797
1096.0000	433.775
1096.5000	433.822
1097.0000	433.926
1097.5000	434.02
1098.0000	434.089
1098.5000	434.016
1099.0000	434.039
1099.5000	434.042
1100.0000	434.054
1100.5000	434.217
1101.0000	434.247
1101.5000	434.268
1102.0000	434.363
1102.5000	434.338
1103.0000	434.365
1103.5000	434.394
1104.0000	434.371
1104.5000	434.352
1105.0000	434.41
1105.5000	434.42
1106.0000	434.496
1106.5000	434.604
1107.0000	434.644
1107.5000	434.731
1108.0000	434.708
1108.5000	434.809
1109.0000	434.817
1109.5000	434.868
1110.0000	434.937
1110.5000	434.879
1111.0000	434.959
1111.5000	434.946
1112.0000	434.995
1112.5000	435.031
1113.0000	435.042
1113.5000	435.118
1114.0000	435.214
1114.5000	435.251
1115.0000	435.277
1115.5000	435.315
1116.0000	435.265
1116.5000	435.29
1117.0000	435.352
1117.5000	435.362
1118.0000	435.495
1118.5000	435.563
1119.0000	435.563
1119.5000	435.567
1120.0000	435.61
1120.5000	435.656
1121.0000	435.705
1121.5000	435.841
1122.0000	435.842
1122.5000	435.84
1123.0000	435.893
1123.5000	435.837
1124.0000	435.853
1124.5000	435.923
1125.0000	435.895
1125.5000	435.966
1126.0000	435.995
1126.5000	436.104
1127.0000	436.169
1127.5000	436.217
1128.0000	436.285
1128.5000	436.272
1129.0000	436.351
1129.5000	436.354
1130.0000	436.376
1130.5000	436.46
1131.0000	436.517
1131.5000	436.55
1132.0000	436.541
1132.5000	436.56
1133.0000	436.574
1133.5000	436.561
1134.0000	436.613
1134.5000	436.623
1135.0000	436.736
1135.5000	436.807
1136.0000	436.861
1136.5000	436.853
1137.0000	436.787
1137.5000	436.914
1138.0000	436.963
1138.5000	437.069
1139.0000	437.152
1139.5000	437.158
1140.0000	437.215
1140.5000	437.215
1141.0000	437.201
1141.5000	437.24
1142.0000	437.282
1142.5000	437.329
1143.0000	437.4
1143.5000	437.446
1144.0000	437.453
1144.5000	437.518
1145.0000	437.577
1145.5000	437.682
1146.0000	437.682
1146.5000	437.687
1147.0000	437.674
1147.5000	437.565
1148.0000	437.647
1148.5000	437.664
1149.0000	437.721
1149.5000	437.784
1150.0000	437.827
1150.5000	437.882
1151.0000	437.909
1151.5000	437.948
1152.0000	437.991
1152.5000	438.035
1153.0000	438.089
1153.5000	438.119
1154.0000	438.146
1154.5000	438.152
1155.0000	438.169
1155.5000	438.255
1156.0000	438.276
1156.5000	438.271
1157.0000	438.321
1157.5000	438.371
1158.0000	438.378
1158.5000	438.404
1159.0000	438.45
1159.5000	438.408
1160.0000	438.525
1160.5000	438.657
1161.0000	438.718
1161.5000	438.771
1162.0000	438.744
1162.5000	438.691
1163.0000	438.762
1163.5000	438.872
1164.0000	438.921
1164.5000	439.09
1165.0000	439.031
1165.5000	439.038
1166.0000	439.074
1166.5000	439.068
1167.0000	439.14
1167.5000	439.087
1168.0000	439.118
1168.5000	439.134
1169.0000	439.112
1169.5000	439.192
1170.0000	439.239
1170.5000	439.268
1171.0000	439.375
1171.5000	439.404
1172.0000	439.431
1172.5000	439.547
1173.0000	439.566
1173.5000	439.61
1174.0000	439.697
1174.5000	439.651
1175.0000	439.699
1175.5000	439.781
1176.0000	439.736
1176.5000	439.797
1177.0000	439.803
1177.5000	439.778
1178.0000	439.834
1178.5000	439.845
1179.0000	439.867
1179.5000	439.888
1180.0000	439.892
1180.5000	439.894
1181.0000	439.944
1181.5000	440.068
1182.0000	440.139
1182.5000	440.097
1183.0000	440.065
1183.5000	440.09
1184.0000	440.036
1184.5000	440.118
1185.0000	440.299
1185.5000	440.263
1186.0000	440.329
1186.5000	440.441
1187.0000	440.397
1187.5000	440.425
1188.0000	440.505
1188.5000	440.567
1189.0000	440.626
1189.5000	440.666
1190.0000	440.728
1190.5000	440.713
1191.0000	440.685
1191.5000	440.745
1192.0000	440.697
1192.5000	440.731
1193.0000	440.83
1193.5000	440.903
1194.0000	440.999
1194.5000	441.05
1195.0000	441.029
1195.5000	441.041
1196.0000	441.084
1196.5000	441.032
1197.0000	441.168
1197.5000	441.202
1198.0000	441.208
1198.5000	441.368
1199.0000	441.346
1199.5000	441.317
1200.0000	441.347
1200.5000	441.373
1201.0000	441.426
1201.5000	441.465
1202.0000	441.514
1202.5000	441.542
1203.0000	441.571
1203.5000	441.647
1204.0000	441.694
1204.5000	441.691
1205.0000	441.681
1205.5000	441.687
1206.0000	441.785
1206.5000	441.891
1207.0000	441.956
1207.5000	441.993
1208.0000	441.972
1208.5000	441.936
1209.0000	442.02
1209.5000	442.133
1210.0000	442.086
1210.5000	442.088
1211.0000	442.016
1211.5000	442.03
1212.0000	442.091
1212.5000	442.167
1213.0000	442.263
1213.5000	442.282
1214.0000	442.363
1214.5000	442.427
1215.0000	442.44
1215.5000	442.433
1216.0000	442.488
1216.5000	442.505
1217.0000	442.523
1217.5000	442.623
1218.0000	442.642
1218.5000	442.669
1219.0000	442.704
1219.5000	442.722
1220.0000	442.784
1220.5000	442.762
1221.0000	442.813
1221.5000	442.859
1222.0000	442.83
1222.5000	442.884
1223.0000	442.944
1223.5000	442.988
1224.0000	443.047
1224.5000	443.137
1225.0000	443.129
1225.5000	443.144
1226.0000	443.216
1226.5000	443.255
1227.0000	443.379
1227.5000	443.459
1228.0000	443.509
1228.5000	443.505
1229.0000	443.456
1229.5000	443.451
1230.0000	443.453
1230.5000	443.554
1231.0000	443.608
1231.5000	443.656
1232.0000	443.722
1232.5000	443.678
1233.0000	443.715
1233.5000	443.657
1234.0000	443.683
1234.5000	443.728
1235.0000	443.753
1235.5000	443.818
1236.0000	443.819
1236.5000	443.859
1237.0000	443.927
1237.5000	444.005
1238.0000	444.057
1238.5000	444.134
1239.0000	444.134
1239.5000	444.167
1240.0000	444.243
1240.5000	444.236
1241.0000	444.28
1241.5000	444.322
1242.0000	444.332
1242.5000	444.385
1243.0000	444.405
1243.5000	444.453
1244.0000	444.471
1244.5000	444.48
1245.0000	444.536
1245.5000	444.55
1246.0000	444.583
1246.5000	444.574
1247.0000	444.61
1247.5000	444.658
1248.0000	444.67
1248.5000	444.768
1249.0000	444.751
1249.5000	444.781
1250.0000	444.779
1250.5000	444.73
1251.0000	444.784
1251.5000	444.801
1252.0000	444.857
1252.5000	444.912
1253.0000	444.93
1253.5000	444.961
1254.0000	444.985
1254.5000	445.079
1255.0000	445.074
1255.5000	445.085
1256.0000	445.137
1256.5000	445.104
1257.0000	445.139
1257.5000	445.099
1258.0000	445.188
1258.5000	445.261
1259.0000	445.307
1259.5000	445.512
1260.0000	445.513
1260.5000	445.588
1261.0000	445.66
1261.5000	445.583
1262.0000	445.563
1262.5000	445.585
1263.0000	445.595
1263.5000	445.586
1264.0000	445.557
1264.5000	445.543
1265.0000	445.533
1265.5000	445.626
1266.0000	445.79
1266.5000	445.857
1267.0000	446.005
1267.5000	446.046
1268.0000	446.035
1268.5000	446.107
1269.0000	446.099
1269.5000	446.093
1270.0000	446.104
1270.5000	446.079
1271.0000	446.125
1271.5000	446.095
1272.0000	446.094
1272.5000	446.105
1273.0000	446.156
1273.5000	446.301
1274.0000	446.321
1274.5000	446.395
1275.0000	446.386
1275.5000	446.445
1276.0000	446.58
1276.5000	446.53
1277.0000	446.485
1277.5000	446.43
1278.0000	446.442
1278.5000	446.436
1279.0000	446.487
1279.5000	446.54
1280.0000	446.538
1280.5000	446.671
1281.0000	446.662
1281.5000	446.66
1282.0000	446.638
1282.5000	446.645
1283.0000	446.696
1283.5000	446.734
1284.0000	446.751
1284.5000	446.759
1285.0000	446.879
1285.5000	446.953
1286.0000	446.99
1286.5000	447.07
1287.0000	447.034
1287.5000	447.067
1288.0000	447.118
1288.5000	447.133
1289.0000	447.131
1289.5000	447.107
1290.0000	447.133
1290.5000	447.099
1291.0000	447.135
1291.5000	447.161
1292.0000	447.22
1292.5000	447.24
1293.0000	447.299
1293.5000	447.289
1294.0000	447.258
1294.5000	447.304
1295.0000	447.307
1295.5000	447.363
1296.0000	447.458
1296.5000	447.427
1297.0000	447.453
1297.5000	447.474
1298.0000	447.428
1298.5000	447.505
1299.0000	447.49
1299.5000	447.503
1300.0000	447.523
1300.5000	447.545
1301.0000	447.615
1301.5000	447.632
1302.0000	447.653
1302.5000	447.652
1303.0000	447.605
1303.5000	447.624
1304.0000	447.675
1304.5000	447.721
1305.0000	447.801
1305.5000	447.877
1306.0000	447.878
1306.5000	447.891
1307.0000	447.922
1307.5000	447.9
1308.0000	447.934
1308.5000	447.999
1309.0000	448.051
1309.5000	448.06
1310.0000	448.059
1310.5000	448.031
1311.0000	448.002
1311.5000	448.039
1312.0000	448.097
1312.5000	448.218
1313.0000	448.207
1313.5000	448.258
1314.0000	448.255
1314.5000	448.198
1315.0000	448.245
1315.5000	448.315
1316.0000	448.389
1316.5000	448.38
1317.0000	448.435
1317.5000	448.432
1318.0000	448.37
1318.5000	448.331
1319.0000	448.404
1319.5000	448.361
1320.0000	448.435
1320.5000	448.514
1321.0000	448.449
1321.5000	448.505
1322.0000	448.502
1322.5000	448.582
1323.0000	448.627
1323.5000	448.682
1324.0000	448.686
1324.5000	448.69
1325.0000	448.723
1325.5000	448.665
1326.0000	448.797
1326.5000	448.837
1327.0000	448.793
1327.5000	448.936
1328.0000	448.966
1328.5000	448.936
1329.0000	449.015
1329.5000	449.025
1330.0000	448.959
1330.5000	449.046
1331.0000	449.098
1331.5000	449.11
1332.0000	449.134
1332.5000	449.091
1333.0000	449.085
1333.5000	449.054
1334.0000	449.026
1334.5000	449.088
1335.0000	449.172
1335.5000	449.197
1336.0000	449.281
1336.5000	449.225
1337.0000	449.236
1337.5000	449.262
1338.0000	449.272
1338.5000	449.37
1339.0000	449.395
1339.5000	449.4
1340.0000	449.437
1340.5000	449.411
1341.0000	449.423
1341.5000	449.438
1342.0000	449.43
1342.5000	449.53
1343.0000	449.505
1343.5000	449.597
1344.0000	449.682
1344.5000	449.689
1345.0000	449.764
1345.5000	449.743
1346.0000	449.766
1346.5000	449.761
1347.0000	449.711
1347.5000	449.712
1348.0000	449.709
1348.5000	449.771
1349.0000	449.845
1349.5000	449.812
1350.0000	449.844
1350.5000	449.83
1351.0000	449.824
1351.5000	449.896
1352.0000	449.914
1352.5000	449.945
1353.0000	450.041
1353.5000	450.046
1354.0000	450.07
1354.5000	450.069
1355.0000	450.029
1355.5000	450.093
1356.0000	450.09
1356.5000	450.107
1357.0000	450.136
1357.5000	450.087
1358.0000	450.113
1358.5000	450.112
1359.0000	450.053
1359.5000	450.159
1360.0000	450.202
1360.5000	450.252
1361.0000	450.321
1361.5000	450.281
1362.0000	450.321
1362.5000	450.351
1363.0000	450.339
1363.5000	450.4
1364.0000	450.4
1364.5000	450.451
1365.0000	450.464
1365.5000	450.442
1366.0000	450.48
1366.5000	450.461
1367.0000	450.558
1367.5000	450.606
1368.0000	450.552
1368.5000	450.549
1369.0000	450.492
1369.5000	450.513
1370.0000	450.591
1370.5000	450.601
1371.0000	450.665
1371.5000	450.734
1372.0000	450.746
1372.5000	450.821
1373.0000	450.837
1373.5000	450.869
1374.0000	450.906
1374.5000	450.933
1375.0000	450.977
1375.5000	450.913
1376.0000	450.93
1376.5000	450.93
1377.0000	450.899
1377.5000	450.976
1378.0000	451.002
1378.5000	451.047
1379.0000	451.124
1379.5000	451.107
1380.0000	451.075
1380.5000	451.094
1381.0000	451.114
1381.5000	451.15
1382.0000	451.166
1382.5000	451.21
1383.0000	451.192
1383.5000	451.206
1384.0000	451.307
1384.5000	451.243
1385.0000	451.218
1385.5000	451.188
1386.0000	451.193
1386.5000	451.256
1387.0000	451.298
1387.5000	451.33
1388.0000	451.306
1388.5000	451.322
1389.0000	451.367
1389.5000	451.453
1390.0000	451.476
1390.5000	451.453
1391.0000	451.538
1391.5000	451.518
1392.0000	451.511
1392.5000	451.553
1393.0000	451.506
1393.5000	451.476
1394.0000	451.525
1394.5000	451.557
1395.0000	451.589
1395.5000	451.625
1396.0000	451.588
1396.5000	451.581
1397.0000	451.587
1397.5000	451.632
1398.0000	451.697
1398.5000	451.711
1399.0000	451.699
1399.5000	451.685
1400.0000	451.696
1400.5000	451.793
1401.0000	451.846
1401.5000	451.906
1402.0000	451.916
1402.5000	451.873
1403.0000	451.901
1403.5000	451.842
1404.0000	451.863
1404.5000	451.884
1405.0000	451.845
1405.5000	451.866
1406.0000	451.861
1406.5000	451.801
1407.0000	451.9
1407.5000	451.994
1408.0000	452.029
1408.5000	452.133
1409.0000	452.116
1409.5000	452.049
1410.0000	452.045
1410.5000	452.024
1411.0000	451.988
1411.5000	452.016
1412.0000	452.039
1412.5000	452.023
1413.0000	452.112
1413.5000	452.127
1414.0000	452.093
1414.5000	452.075
1415.0000	452.111
1415.5000	452.225
1416.0000	452.268
1416.5000	452.365
1417.0000	452.332
1417.5000	452.325
1418.0000	452.375
1418.5000	452.336
1419.0000	452.345
1419.5000	452.299
1420.0000	452.354
1420.5000	452.41
1421.0000	452.42
1421.5000	452.495
1422.0000	452.505
1422.5000	452.514
1423.0000	452.571
1423.5000	452.594
1424.0000	452.589
1424.5000	452.616
1425.0000	452.566
1425.5000	452.584
1426.0000	452.631
1426.5000	452.711
1427.0000	452.77
1427.5000	452.81
1428.0000	452.792
1428.5000	452.708
1429.0000	452.71
1429.5000	452.647
1430.0000	452.639
1430.5000	452.69
1431.0000	452.739
1431.5000	452.788
1432.0000	452.819
1432.5000	452.783
1433.0000	452.822
1433.5000	452.792
1434.0000	452.775
1434.5000	452.857
1435.0000	452.859
1435.5000	452.922
1436.0000	452.933
1436.5000	452.946
1437.0000	452.88
1437.5000	452.841
1438.0000	452.932
1438.5000	452.933
1439.0000	453.013
1439.5000	453.043
1440.0000	452.984
1440.5000	452.993
1441.0000	453.013
1441.5000	453.072
1442.0000	453.092
1442.5000	453.132
1443.0000	453.118
1443.5000	453.053
1444.0000	453.055
1444.5000	453.008
1445.0000	453.034
1445.5000	453.08
1446.0000	453.127
1446.5000	453.148
1447.0000	453.099
1447.5000	453.107
1448.0000	453.107
1448.5000	453.1
1449.0000	453.179
1449.5000	453.17
1450.0000	453.199
1450.5000	453.237
1451.0000	453.236
1451.5000	453.237
1452.0000	453.25
1452.5000	453.293
1453.0000	453.251
1453.5000	453.326
1454.0000	453.332
1454.5000	453.266
1455.0000	453.372
1455.5000	453.315
1456.0000	453.317
1456.5000	453.408
1457.0000	453.335
1457.5000	453.364
1458.0000	453.385
1458.5000	453.43
1459.0000	453.465
1459.5000	453.517
1460.0000	453.523
1460.5000	453.472
1461.0000	453.488
1461.5000	453.493
1462.0000	453.552
1462.5000	453.528
1463.0000	453.563
1463.5000	453.571
1464.0000	453.553
1464.5000	453.645
1465.0000	453.575
1465.5000	453.539
1466.0000	453.503
1466.5000	453.463
1467.0000	453.529
1467.5000	453.549
1468.0000	453.635
1468.5000	453.658
1469.0000	453.684
1469.5000	453.695
1470.0000	453.635
1470.5000	453.675
1471.0000	453.672
1471.5000	453.652
1472.0000	453.728
1472.5000	453.754
1473.0000	453.828
1473.5000	453.908
1474.0000	453.916
1474.5000	453.904
1475.0000	453.801
1475.5000	453.777
1476.0000	453.74
1476.5000	453.756
1477.0000	453.827
1477.5000	453.93
1478.0000	454.001
1478.5000	453.987
1479.0000	453.971
1479.5000	453.955
1480.0000	453.911
1480.5000	453.921
1481.0000	454.034
1481.5000	454.017
1482.0000	453.993
1482.5000	453.993
1483.0000	453.922
1483.5000	453.958
1484.0000	453.989
1484.5000	454.058
1485.0000	454.059
1485.5000	454.016
1486.0000	454.036
1486.5000	454.016
1487.0000	454.024
1487.5000	454.109
1488.0000	454.174
1488.5000	454.193
1489.0000	454.225
1489.5000	454.225
1490.0000	454.222
1490.5000	454.21
1491.0000	454.191
1491.5000	454.247
1492.0000	454.264
1492.5000	454.307
1493.0000	454.39
1493.5000	454.28
1494.0000	454.325
1494.5000	454.288
1495.0000	454.232
1495.5000	454.392
1496.0000	454.356
1496.5000	454.437
1497.0000	454.515
1497.5000	454.499
1498.0000	454.458
1498.5000	454.382
1499.0000	454.259
1499.5000	454.175
1500.0000	454.218
1500.5000	454.274
1501.0000	454.347
1501.5000	454.404
1502.0000	454.376
1502.5000	454.42
1503.0000	454.452
1503.5000	454.455
1504.0000	454.475
1504.5000	454.44
1505.0000	454.441
1505.5000	454.375
1506.0000	454.42
1506.5000	454.376
1507.0000	454.41
1507.5000	454.491
1508.0000	454.548
1508.5000	454.528
1509.0000	454.556
1509.5000	454.54
1510.0000	454.566
1510.5000	454.64
1511.0000	454.613
1511.5000	454.613
1512.0000	454.582
1512.5000	454.585
1513.0000	454.598
1513.5000	454.608
1514.0000	454.57
1514.5000	454.595
1515.0000	454.628
1515.5000	454.722
1516.0000	454.664
1516.5000	454.661
1517.0000	454.624
1517.5000	454.597
1518.0000	454.696
1518.5000	454.685
1519.0000	454.668
1519.5000	454.683
1520.0000	454.678
1520.5000	454.694
1521.0000	454.727
1521.5000	454.649
1522.0000	454.621
1522.5000	454.688
1523.0000	454.649
1523.5000	454.693
1524.0000	454.726
1524.5000	454.665
1525.0000	454.695
1525.5000	454.631
1526.0000	454.627
1526.5000	454.692
1527.0000	454.763
1527.5000	454.839
1528.0000	454.846
1528.5000	454.77
1529.0000	454.72
1529.5000	454.749
1530.0000	454.719
1530.5000	454.81
1531.0000	454.85
1531.5000	454.857
1532.0000	454.917
1532.5000	454.858
1533.0000	454.901
1533.5000	454.932
1534.0000	454.887
1534.5000	454.934
1535.0000	454.941
1535.5000	454.862
1536.0000	454.927
1536.5000	454.973
1537.0000	454.915
1537.5000	454.96
1538.0000	454.993
1538.5000	455.009
1539.0000	455.059
1539.5000	455.091
1540.0000	455.115
1540.5000	455.123
1541.0000	455.08
1541.5000	455.073
1542.0000	455.061
1542.5000	455.002
1543.0000	455.077
1543.5000	455.103
1544.0000	455.066
1544.5000	455.112
1545.0000	455.082
1545.5000	455.07
1546.0000	455.193
1546.5000	455.196
1547.0000	455.198
1547.5000	455.252
1548.0000	455.128
1548.5000	455.165
1549.0000	455.167
1549.5000	455.097
1550.0000	455.177
1550.5000	455.109
1551.0000	455.107
1551.5000	455.147
1552.0000	455.158
1552.5000	455.134
1553.0000	455.257
1553.5000	455.271
1554.0000	455.286
1554.5000	455.464
1555.0000	455.408
1555.5000	455.417
1556.0000	455.459
1556.5000	455.423
1557.0000	455.404
1557.5000	455.401
1558.0000	455.348
1558.5000	455.312
1559.0000	455.357
1559.5000	455.335
1560.0000	455.37
1560.5000	455.378
1561.0000	455.409
1561.5000	455.461
1562.0000	455.457
1562.5000	455.484
1563.0000	455.472
1563.5000	455.444
1564.0000	455.437
1564.5000	455.435
1565.0000	455.466
1565.5000	455.537
1566.0000	455.552
1566.5000	455.589
1567.0000	455.509
1567.5000	455.476
1568.0000	455.445
1568.5000	455.481
1569.0000	455.536
1569.5000	455.535
1570.0000	455.536
1570.5000	455.491
1571.0000	455.515
1571.5000	455.521
1572.0000	455.532
1572.5000	455.526
1573.0000	455.509
1573.5000	455.503
1574.0000	455.513
1574.5000	455.466
1575.0000	455.504
1575.5000	455.538
1576.0000	455.545
1576.5000	455.629
1577.0000	455.614
1577.5000	455.681
1578.0000	455.701
1578.5000	455.748
1579.0000	455.739
1579.5000	455.742
1580.0000	455.766
1580.5000	455.704
1581.0000	455.754
1581.5000	455.692
1582.0000	455.698
1582.5000	455.772
1583.0000	455.748
1583.5000	455.815
1584.0000	455.851
1584.5000	455.763
1585.0000	455.801
1585.5000	455.754
1586.0000	455.722
1586.5000	455.766
1587.0000	455.806
1587.5000	455.875
1588.0000	455.84
1588.5000	455.769
1589.0000	455.761
1589.5000	455.762
1590.0000	455.824
1590.5000	455.927
1591.0000	455.92
1591.5000	455.912
1592.0000	455.89
1592.5000	455.858
1593.0000	455.791
1593.5000	455.739
1594.0000	455.763
1594.5000	455.749
1595.0000	455.811
1595.5000	455.859
1596.0000	455.846
1596.5000	455.845
1597.0000	455.892
1597.5000	455.908
1598.0000	455.927
1598.5000	455.966
1599.0000	455.824
1599.5000	455.844
1600.0000	455.818
1600.5000	455.788
1601.0000	455.941
1601.5000	455.889
1602.0000	455.937
1602.5000	455.992
1603.0000	455.934
1603.5000	455.999
1604.0000	455.966
1604.5000	455.914
1605.0000	455.957
1605.5000	455.922
1606.0000	455.978
1606.5000	456.085
1607.0000	456.081
1607.5000	456.132
1608.0000	456.114
1608.5000	456.025
1609.0000	456.01
1609.5000	455.968
1610.0000	455.97
1610.5000	455.959
1611.0000	455.999
1611.5000	455.983
1612.0000	456.011
1612.5000	456.128
1613.0000	456.107
1613.5000	456.159
1614.0000	456.153
1614.5000	456.089
1615.0000	456.045
1615.5000	456.079
1616.0000	456.071
1616.5000	456.07
1617.0000	456.106
1617.5000	456.091
1618.0000	456.13
1618.5000	456.155
1619.0000	456.175
1619.5000	456.142
1620.0000	456.168
1620.5000	456.158
1621.0000	456.188
1621.5000	456.235
1622.0000	456.182
1622.5000	456.226
1623.0000	456.227
1623.5000	456.17
1624.0000	456.251
1624.5000	456.273
1625.0000	456.229
1625.5000	456.305
1626.0000	456.243
1626.5000	456.207
1627.0000	456.262
1627.5000	456.248
1628.0000	456.234
1628.5000	456.181
1629.0000	456.119
1629.5000	456.103
1630.0000	456.118
1630.5000	456.194
1631.0000	456.25
1631.5000	456.261
1632.0000	456.297
1632.5000	456.366
1633.0000	456.453
1633.5000	456.481
1634.0000	456.452
1634.5000	456.424
1635.0000	456.356
1635.5000	456.304
1636.0000	456.4
1636.5000	456.417
1637.0000	456.344
1637.5000	456.446
1638.0000	456.403
1638.5000	456.33
1639.0000	456.413
1639.5000	456.351
1640.0000	456.35
1640.5000	456.446
1641.0000	456.391
1641.5000	456.41
1642.0000	456.303
1642.5000	456.267
1643.0000	456.37
1643.5000	456.35
1644.0000	456.46
1644.5000	456.416
1645.0000	456.4
1645.5000	456.399
1646.0000	456.353
1646.5000	456.372
1647.0000	456.367
1647.5000	456.385
1648.0000	456.434
1648.5000	456.496
1649.0000	456.524
1649.5000	456.544
1650.0000	456.564
1650.5000	456.546
1651.0000	456.508
1651.5000	456.517
1652.0000	456.517
1652.5000	456.529
1653.0000	456.546
1653.5000	456.582
1654.0000	456.588
1654.5000	456.666
1655.0000	456.711
1655.5000	456.722
1656.0000	456.743
1656.5000	456.633
1657.0000	456.625
1657.5000	456.623
1658.0000	456.619
1658.5000	456.64
1659.0000	456.624
1659.5000	456.608
1660.0000	456.626
1660.5000	456.57
1661.0000	456.596
1661.5000	456.572
1662.0000	456.525
1662.5000	456.544
1663.0000	456.498
1663.5000	456.467
1664.0000	456.463
1664.5000	456.498
1665.0000	456.464
1665.5000	456.475
1666.0000	456.557
1666.5000	456.557
1667.0000	456.539
1667.5000	456.594
1668.0000	456.589
1668.5000	456.629
1669.0000	456.722
1669.5000	456.654
1670.0000	456.638
1670.5000	456.526
1671.0000	456.536
1671.5000	456.545
1672.0000	456.488
1672.5000	456.56
1673.0000	456.488
1673.5000	456.485
1674.0000	456.508
1674.5000	456.542
1675.0000	456.604
1675.5000	456.615
1676.0000	456.664
1676.5000	456.615
1677.0000	456.531
1677.5000	456.638
1678.0000	456.535
1678.5000	456.576
1679.0000	456.643
1679.5000	456.524
1680.0000	456.591
1680.5000	456.591
1681.0000	456.567
1681.5000	456.61
1682.0000	456.649
1682.5000	456.554
1683.0000	456.617
1683.5000	456.66
1684.0000	456.612
1684.5000	456.752
1685.0000	456.687
1685.5000	456.58
1686.0000	456.601
1686.5000	456.617
1687.0000	456.656
1687.5000	456.66
1688.0000	456.71
1688.5000	456.666
1689.0000	456.603
1689.5000	456.662
1690.0000	456.591
1690.5000	456.57
1691.0000	456.637
1691.5000	456.694
1692.0000	456.711
1692.5000	456.734
1693.0000	456.732
1693.5000	456.703
1694.0000	456.712
1694.5000	456.697
1695.0000	456.687
1695.5000	456.692
1696.0000	456.679
1696.5000	456.694
1697.0000	456.744
1697.5000	456.723
1698.0000	456.727
1698.5000	456.75
1699.0000	456.757
1699.5000	456.773
1700.0000	456.786
1700.5000	456.745
1701.0000	456.631
1701.5000	456.631
1702.0000	456.614
1702.5000	456.625
1703.0000	456.634
1703.5000	456.587
1704.0000	456.562
1704.5000	456.595
1705.0000	456.616
1705.5000	456.596
1706.0000	456.58
1706.5000	456.553
1707.0000	456.615
1707.5000	456.652
1708.0000	456.73
1708.5000	456.734
1709.0000	456.627
1709.5000	456.569
1710.0000	456.487
1710.5000	456.464
1711.0000	456.52
1711.5000	456.567
1712.0000	456.573
1712.5000	456.523
1713.0000	456.524
1713.5000	456.536
1714.0000	456.563
1714.5000	456.582
1715.0000	456.559
1715.5000	456.545
1716.0000	456.544
1716.5000	456.494
1717.0000	456.53
1717.5000	456.554
1718.0000	456.508
1718.5000	456.63
1719.0000	456.618
1719.5000	456.62
1720.0000	456.619
1720.5000	456.586
1721.0000	456.53
1721.5000	456.527
1722.0000	456.64
1722.5000	456.631
1723.0000	456.675
1723.5000	456.72
1724.0000	456.667
1724.5000	456.72
1725.0000	456.694
1725.5000	456.685
1726.0000	456.646
1726.5000	456.557
1727.0000	456.62
1727.5000	456.603
1728.0000	456.666
1728.5000	456.769
1729.0000	456.799
1729.5000	456.765
1730.0000	456.745
1730.5000	456.664
1731.0000	456.669
1731.5000	456.68
1732.0000	456.713
1732.5000	456.733
1733.0000	456.678
1733.5000	456.648
1734.0000	456.714
1734.5000	456.713
1735.0000	456.812
1735.5000	456.83
1736.0000	456.69
1736.5000	456.673
1737.0000	456.545
1737.5000	456.602
1738.0000	456.614
1738.5000	456.631
1739.0000	456.64
1739.5000	456.606
1740.0000	456.66
1740.5000	456.699
1741.0000	456.725
1741.5000	456.684
1742.0000	456.643
1742.5000	456.583
1743.0000	456.622
1743.5000	456.642
1744.0000	456.621
1744.5000	456.643
1745.0000	456.576
1745.5000	456.628
1746.0000	456.664
1746.5000	456.739
1747.0000	456.836
1747.5000	456.841
1748.0000	456.879
1748.5000	456.816
1749.0000	456.808
1749.5000	456.806
1750.0000	456.784
1750.5000	456.756
1751.0000	456.758
1751.5000	456.759
1752.0000	456.77
1752.5000	456.825
1753.0000	456.816
1753.5000	456.79
1754.0000	456.821
1754.5000	456.789
1755.0000	456.747
1755.5000	456.789
1756.0000	456.742
1756.5000	456.825
1757.0000	456.846
1757.5000	456.772
1758.0000	456.785
1758.5000	456.745
1759.0000	456.716
1759.5000	456.778
1760.0000	456.797
1760.5000	456.853
1761.0000	456.906
1761.5000	456.956
1762.0000	456.875
1762.5000	456.791
1763.0000	456.736
1763.5000	456.622
1764.0000	456.729
1764.5000	456.717
1765.0000	456.744
1765.5000	456.761
1766.0000	456.649
1766.5000	456.601
1767.0000	456.579
1767.5000	456.6
1768.0000	456.703
1768.5000	456.756
1769.0000	456.803
1769.5000	456.83
1770.0000	456.834
1770.5000	456.838
1771.0000	456.804
1771.5000	456.702
1772.0000	456.635
1772.5000	456.689
1773.0000	456.693
1773.5000	456.81
1774.0000	456.813
1774.5000	456.779
1775.0000	456.842
1775.5000	456.812
1776.0000	456.805
1776.5000	456.821
1777.0000	456.734
1777.5000	456.816
1778.0000	456.961
1778.5000	456.982
1779.0000	457.016
1779.5000	456.961
1780.0000	456.878
1780.5000	456.851
1781.0000	456.869
1781.5000	456.793
1782.0000	456.782
1782.5000	456.717
1783.0000	456.672
1783.5000	456.766
1784.0000	456.757
1784.5000	456.786
1785.0000	456.842
1785.5000	456.802
1786.0000	456.766
1786.5000	456.738
1787.0000	456.701
1787.5000	456.691
1788.0000	456.686
1788.5000	456.751
1789.0000	456.781
1789.5000	456.802
1790.0000	456.832
1790.5000	456.875
1791.0000	456.859
1791.5000	456.847
1792.0000	456.879
1792.5000	456.787
1793.0000	456.726
1793.5000	456.794
1794.0000	456.823
1794.5000	456.832
1795.0000	456.938
1795.5000	456.937
1796.0000	456.899
1796.5000	457.021
1797.0000	456.998
1797.5000	456.894
1798.0000	456.905
1798.5000	456.86
1799.0000	456.893
1799.5000	456.972
1800.0000	456.97
1800.5000	456.996
1801.0000	456.949
1801.5000	456.934
1802.0000	457
1802.5000	456.938
1803.0000	456.929
1803.5000	456.984
1804.0000	456.857
1804.5000	456.867
1805.0000	456.956
1805.5000	456.934
1806.0000	457.04
1806.5000	457.091
1807.0000	457.016
1807.5000	456.991
1808.0000	457.002
1808.5000	456.948
1809.0000	456.905
1809.5000	456.926
1810.0000	456.894
1810.5000	456.933
1811.0000	457.038
1811.5000	457.025
1812.0000	457.085
1812.5000	457.031
1813.0000	456.989
1813.5000	457.016
1814.0000	456.979
1814.5000	457.052
1815.0000	457.098
1815.5000	457.096
1816.0000	457.113
1816.5000	457.053
1817.0000	456.99
1817.5000	456.992
1818.0000	456.997
1818.5000	457
1819.0000	457.123
1819.5000	457.055
1820.0000	457.068
1820.5000	457.067
1821.0000	456.994
1821.5000	456.989
1822.0000	456.925
1822.5000	456.939
1823.0000	456.946
1823.5000	456.982
1824.0000	457.012
1824.5000	457.066
1825.0000	457.029
1825.5000	457.051
1826.0000	457.053
1826.5000	456.974
1827.0000	457.038
1827.5000	457.001
1828.0000	456.993
1828.5000	457.094
1829.0000	457.101
1829.5000	457.144
1830.0000	457.133
1830.5000	457.048
1831.0000	456.981
1831.5000	456.973
1832.0000	457.027
1832.5000	457.102
1833.0000	457.19
1833.5000	457.223
1834.0000	457.156
1834.5000	457.175
1835.0000	457.118
1835.5000	457.109
1836.0000	457.063
1836.5000	457.011
1837.0000	456.953
1837.5000	456.892
1838.0000	456.928
1838.5000	456.953
1839.0000	456.976
1839.5000	457.064
1840.0000	457.126
1840.5000	457.054
1841.0000	457.065
1841.5000	457.067
1842.0000	456.985
1842.5000	457.037
1843.0000	457.042
1843.5000	456.995
1844.0000	457.052
1844.5000	457.054
1845.0000	457.086
1845.5000	457.162
1846.0000	457.172
1846.5000	457.164
1847.0000	457.192
1847.5000	457.136
1848.0000	457.171
1848.5000	457.09
1849.0000	457.031
1849.5000	457.068
1850.0000	457.024
1850.5000	457.071
1851.0000	457.115
1851.5000	457.193
1852.0000	457.2
1852.5000	457.194
1853.0000	457.161
1853.5000	457.024
1854.0000	457.039
1854.5000	457.078
1855.0000	457.044
1855.5000	456.993
1856.0000	457.023
1856.5000	457.072
1857.0000	457.101
1857.5000	457.191
1858.0000	457.14
1858.5000	457.118
1859.0000	457.162
1859.5000	457.134
1860.0000	457.117
1860.5000	457.171
1861.0000	457.131
1861.5000	457.163
1862.0000	457.185
1862.5000	457.108
1863.0000	457.095
1863.5000	457.105
1864.0000	457.111
1864.5000	457.115
1865.0000	457.048
1865.5000	457.016
1866.0000	457.037
1866.5000	457.07
1867.0000	457.172
1867.5000	457.189
1868.0000	457.14
1868.5000	457.048
1869.0000	457.08
1869.5000	457.016
1870.0000	457.075
1870.5000	457.128
1871.0000	457.087
1871.5000	457.123
1872.0000	457.099
1872.5000	457.07
1873.0000	457.041
1873.5000	457.008
1874.0000	456.977
1874.5000	457.027
1875.0000	457.063
1875.5000	457.011
1876.0000	456.967
1876.5000	456.955
1877.0000	456.928
1877.5000	457.033
1878.0000	457.101
1878.5000	457.075
1879.0000	457.02
1879.5000	456.985
1880.0000	456.998
1880.5000	457.016
1881.0000	457.063
1881.5000	457.126
1882.0000	457.083
1882.5000	457.085
1883.0000	457.088
1883.5000	456.956
1884.0000	456.98
1884.5000	456.964
1885.0000	456.985
1885.5000	457.094
1886.0000	457.062
1886.5000	457.127
1887.0000	457.159
1887.5000	457.149
1888.0000	457.128
1888.5000	457.064
1889.0000	457.012
1889.5000	457.012
1890.0000	457.084
1890.5000	457.113
1891.0000	457.143
1891.5000	457.199
1892.0000	457.132
1892.5000	457.157
1893.0000	457.146
1893.5000	457.054
1894.0000	457.125
1894.5000	457.11
1895.0000	457.103
1895.5000	457.146
1896.0000	457.145
1896.5000	457.105
1897.0000	457.135
1897.5000	457.077
1898.0000	457.067
1898.5000	457.147
1899.0000	457.197
1899.5000	457.243
1900.0000	457.185
1900.5000	457.111
1901.0000	457.062
1901.5000	457.097
1902.0000	457.13
1902.5000	457.215
1903.0000	457.239
1903.5000	457.221
1904.0000	457.214
1904.5000	457.237
1905.0000	457.185
1905.5000	457.185
1906.0000	457.165
1906.5000	457.145
1907.0000	457.163
1907.5000	457.141
1908.0000	457.199
1908.5000	457.132
1909.0000	457.176
1909.5000	457.187
1910.0000	457.123
1910.5000	457.123
1911.0000	457.112
1911.5000	457.135
1912.0000	457.283
1912.5000	457.327
1913.0000	457.226
1913.5000	457.182
1914.0000	457.095
1914.5000	457.054
1915.0000	457.197
1915.5000	457.274
1916.0000	457.259
1916.5000	457.287
1917.0000	457.195
1917.5000	457.128
1918.0000	457.213
1918.5000	457.249
1919.0000	457.29
1919.5000	457.329
1920.0000	457.283
1920.5000	457.257
1921.0000	457.228
1921.5000	457.24
1922.0000	457.192
1922.5000	457.22
1923.0000	457.237
1923.5000	457.218
1924.0000	457.252
1924.5000	457.171
1925.0000	457.239
1925.5000	457.28
1926.0000	457.332
1926.5000	457.357
1927.0000	457.308
1927.5000	457.237
1928.0000	457.222
1928.5000	457.248
1929.0000	457.247
1929.5000	457.322
1930.0000	457.288
1930.5000	457.307
1931.0000	457.359
1931.5000	457.328
1932.0000	457.389
1932.5000	457.339
1933.0000	457.243
1933.5000	457.31
1934.0000	457.258
1934.5000	457.257
1935.0000	457.29
1935.5000	457.254
1936.0000	457.298
1936.5000	457.328
1937.0000	457.288
1937.5000	457.298
1938.0000	457.333
1938.5000	457.304
1939.0000	457.354
1939.5000	457.395
1940.0000	457.336
1940.5000	457.393
1941.0000	457.497
1941.5000	457.448
1942.0000	457.465
1942.5000	457.552
1943.0000	457.525
1943.5000	457.557
1944.0000	457.518
1944.5000	457.426
1945.0000	457.373
1945.5000	457.309
1946.0000	457.392
1946.5000	457.34
1947.0000	457.366
1947.5000	457.445
1948.0000	457.423
1948.5000	457.468
1949.0000	457.404
1949.5000	457.371
1950.0000	457.376
1950.5000	457.421
1951.0000	457.51
1951.5000	457.545
1952.0000	457.556
1952.5000	457.586
1953.0000	457.52
1953.5000	457.482
1954.0000	457.518
1954.5000	457.412
1955.0000	457.442
1955.5000	457.406
1956.0000	457.329
1956.5000	457.366
1957.0000	457.386
1957.5000	457.4
1958.0000	457.394
1958.5000	457.502
1959.0000	457.506
1959.5000	457.489
1960.0000	457.453
1960.5000	457.391
1961.0000	457.317
1961.5000	457.29
1962.0000	457.312
1962.5000	457.31
1963.0000	457.33
1963.5000	457.454
1964.0000	457.525
1964.5000	457.535
1965.0000	457.561
1965.5000	457.467
1966.0000	457.432
1966.5000	457.369
1967.0000	457.344
1967.5000	457.279
1968.0000	457.312
1968.5000	457.396
1969.0000	457.43
1969.5000	457.545
1970.0000	457.48
1970.5000	457.415
1971.0000	457.417
1971.5000	457.337
1972.0000	457.392
1972.5000	457.425
1973.0000	457.369
1973.5000	457.409
1974.0000	457.351
1974.5000	457.316
1975.0000	457.391
1975.5000	457.37
1976.0000	457.359
1976.5000	457.37
1977.0000	457.299
1977.5000	457.345
1978.0000	457.385
1978.5000	457.396
1979.0000	457.515
1979.5000	457.469
1980.0000	457.445
1980.5000	457.448
1981.0000	457.361
1981.5000	457.395
1982.0000	457.419
1982.5000	457.432
1983.0000	457.408
1983.5000	457.385
1984.0000	457.312
1984.5000	457.281
1985.0000	457.338
1985.5000	457.379
1986.0000	457.505
1986.5000	457.525
1987.0000	457.462
1987.5000	457.394
1988.0000	457.346
1988.5000	457.329
1989.0000	457.374
1989.5000	457.404
1990.0000	457.386
1990.5000	457.404
1991.0000	457.447
1991.5000	457.424
1992.0000	457.429
1992.5000	457.413
1993.0000	457.379
1993.5000	457.428
1994.0000	457.464
1994.5000	457.491
1995.0000	457.545
1995.5000	457.561
1996.0000	457.573
1996.5000	457.519
1997.0000	457.462
1997.5000	457.385
1998.0000	457.375
1998.5000	457.437
1999.0000	457.472
1999.5000	457.488
2000.0000	457.425
2000.5000	457.348
2001.0000	457.294
2001.5000	457.326
2002.0000	457.327
2002.5000	457.382
2003.0000	457.384
2003.5000	457.305
2004.0000	457.371
2004.5000	457.396
2005.0000	457.395
2005.5000	457.441
2006.0000	457.431
2006.5000	457.423
2007.0000	457.532
2007.5000	457.574
2008.0000	457.548
2008.5000	457.509
2009.0000	457.426
2009.5000	457.426
2010.0000	457.419
2010.5000	457.366
2011.0000	457.322
2011.5000	457.334
2012.0000	457.316
2012.5000	457.386
2013.0000	457.449
2013.5000	457.393
2014.0000	457.386
2014.5000	457.364
2015.0000	457.33
2015.5000	457.357
2016.0000	457.411
2016.5000	457.411
2017.0000	457.374
2017.5000	457.441
2018.0000	457.423
2018.5000	457.488
2019.0000	457.524
2019.5000	457.472
2020.0000	457.488
2020.5000	457.474
2021.0000	457.452
2021.5000	457.435
2022.0000	457.446
2022.5000	457.363
2023.0000	457.402
2023.5000	457.424
2024.0000	457.36
2024.5000	457.421
2025.0000	457.489
2025.5000	457.541
2026.0000	457.599
2026.5000	457.625
2027.0000	457.593
2027.5000	457.507
2028.0000	457.49
2028.5000	457.472
2029.0000	457.335
2029.5000	457.303
2030.0000	457.325
2030.5000	457.345
2031.0000	457.406
2031.5000	457.507
2032.0000	457.514
2032.5000	457.504
2033.0000	457.55
2033.5000	457.558
2034.0000	457.532
2034.5000	457.538
2035.0000	457.525
2035.5000	457.502
2036.0000	457.477
2036.5000	457.448
2037.0000	457.475
2037.5000	457.439
2038.0000	457.511
2038.5000	457.512
2039.0000	457.5
2039.5000	457.502
2040.0000	457.521
2040.5000	457.492
2041.0000	457.472
2041.5000	457.486
2042.0000	457.497
2042.5000	457.523
2043.0000	457.498
2043.5000	457.486
2044.0000	457.511
2044.5000	457.419
2045.0000	457.481
2045.5000	457.512
2046.0000	457.342
2046.5000	457.484
2047.0000	457.461
2047.5000	457.461
2048.0000	457.577
2048.5000	457.482
2049.0000	457.539
2049.5000	457.604
2050.0000	457.563
2050.5000	457.579
2051.0000	457.567
2051.5000	457.499
2052.0000	457.455
2052.5000	457.503
2053.0000	457.482
2053.5000	457.486
2054.0000	457.491
2054.5000	457.494
2055.0000	457.529
2055.5000	457.569
2056.0000	457.649
2056.5000	457.612
2057.0000	457.524
2057.5000	457.49
2058.0000	457.481
2058.5000	457.502
2059.0000	457.57
2059.5000	457.533
2060.0000	457.529
2060.5000	457.556
2061.0000	457.492
2061.5000	457.506
2062.0000	457.519
2062.5000	457.494
2063.0000	457.547
2063.5000	457.626
2064.0000	457.723
2064.5000	457.671
2065.0000	457.701
2065.5000	457.701
2066.0000	457.6
2066.5000	457.715
2067.0000	457.633
2067.5000	457.61
2068.0000	457.647
2068.5000	457.547
2069.0000	457.589
2069.5000	457.607
2070.0000	457.507
2070.5000	457.573
2071.0000	457.59
2071.5000	457.543
2072.0000	457.602
2072.5000	457.58
2073.0000	457.637
2073.5000	457.722
2074.0000	457.703
2074.5000	457.758
2075.0000	457.673
2075.5000	457.616
2076.0000	457.675
2076.5000	457.641
2077.0000	457.692
2077.5000	457.673
2078.0000	457.64
2078.5000	457.636
2079.0000	457.668
2079.5000	457.664
2080.0000	457.702
2080.5000	457.686
2081.0000	457.644
2081.5000	457.633
2082.0000	457.531
2082.5000	457.55
2083.0000	457.579
2083.5000	457.668
2084.0000	457.713
2084.5000	457.711
2085.0000	457.736
2085.5000	457.759
2086.0000	457.753
2086.5000	457.766
2087.0000	457.68
2087.5000	457.624
2088.0000	457.637
2088.5000	457.588
2089.0000	457.592
2089.5000	457.604
2090.0000	457.574
2090.5000	457.663
2091.0000	457.722
2091.5000	457.695
2092.0000	457.785
2092.5000	457.808
2093.0000	457.857
2093.5000	457.85
2094.0000	457.829
2094.5000	457.847
2095.0000	457.829
2095.5000	457.806
2096.0000	457.83
2096.5000	457.83
2097.0000	457.839
2097.5000	457.887
2098.0000	457.86
2098.5000	457.818
2099.0000	457.813
2099.5000	457.776
2100.0000	457.769
2100.5000	457.793
2101.0000	457.781
2101.5000	457.805
2102.0000	457.863
2102.5000	457.889
2103.0000	457.888
2103.5000	457.868
2104.0000	457.83
2104.5000	457.781
2105.0000	457.742
2105.5000	457.801
2106.0000	457.77
2106.5000	457.749
2107.0000	457.802
2107.5000	457.781
2108.0000	457.789
2108.5000	457.81
2109.0000	457.775
2109.5000	457.807
2110.0000	457.946
2110.5000	457.963
2111.0000	457.966
2111.5000	457.971
2112.0000	457.857
2112.5000	457.837
2113.0000	457.854
2113.5000	457.789
2114.0000	457.864
2114.5000	457.89
2115.0000	457.949
2115.5000	457.992
2116.0000	457.96
2116.5000	457.973
2117.0000	457.891
2117.5000	457.902
2118.0000	457.9
2118.5000	457.852
2119.0000	457.905
2119.5000	457.953
2120.0000	457.957
2120.5000	457.97
2121.0000	457.983
2121.5000	457.969
2122.0000	457.946
2122.5000	457.978
2123.0000	458.013
2123.5000	457.959
2124.0000	457.983
2124.5000	457.984
2125.0000	457.92
2125.5000	457.944
2126.0000	457.919
2126.5000	457.963
2127.0000	458.001
2127.5000	457.983
2128.0000	457.98
2128.5000	457.99
2129.0000	457.968
2129.5000	458.007
2130.0000	458.077
2130.5000	458.089
2131.0000	458.124
2131.5000	458.211
2132.0000	458.245
2132.5000	458.219
2133.0000	458.207
2133.5000	458.099
2134.0000	458.036
2134.5000	458.043
2135.0000	458.038
2135.5000	458.099
2136.0000	458.12
2136.5000	458.104
2137.0000	458.118
2137.5000	458.085
2138.0000	458.098
2138.5000	458.094
2139.0000	458.097
2139.5000	458.112
2140.0000	458.129
2140.5000	458.129
2141.0000	458.098
2141.5000	458.116
2142.0000	458.102
2142.5000	458.16
2143.0000	458.222
2143.5000	458.253
2144.0000	458.279
2144.5000	458.264
2145.0000	458.258
2145.5000	458.307
2146.0000	458.253
2146.5000	458.216
2147.0000	458.259
2147.5000	458.181
2148.0000	458.234
2148.5000	458.241
2149.0000	458.178
2149.5000	458.267
2150.0000	458.277
2150.5000	458.342
2151.0000	458.341
2151.5000	458.251
2152.0000	458.243
2152.5000	458.207
2153.0000	458.294
2153.5000	458.342
2154.0000	458.36
2154.5000	458.392
2155.0000	458.323
2155.5000	458.33
2156.0000	458.286
2156.5000	458.299
2157.0000	458.252
2157.5000	458.231
2158.0000	458.327
2158.5000	458.402
2159.0000	458.456
2159.5000	458.509
2160.0000	458.427
2160.5000	458.357
2161.0000	458.338
2161.5000	458.261
2162.0000	458.296
2162.5000	458.329
2163.0000	458.349
2163.5000	458.374
2164.0000	458.438
2164.5000	458.345
2165.0000	458.365
2165.5000	458.396
2166.0000	458.385
2166.5000	458.39
2167.0000	458.369
2167.5000	458.366
2168.0000	458.333
2168.5000	458.401
2169.0000	458.477
2169.5000	458.418
2170.0000	458.356
2170.5000	458.322
2171.0000	458.272
2171.5000	458.298
2172.0000	458.354
2172.5000	458.407
2173.0000	458.341
2173.5000	458.372
2174.0000	458.358
2174.5000	458.346
2175.0000	458.438
2175.5000	458.463
2176.0000	458.481
2176.5000	458.458
2177.0000	458.416
2177.5000	458.411
2178.0000	458.37
2178.5000	458.405
2179.0000	458.432
2179.5000	458.403
2180.0000	458.47
2180.5000	458.488
2181.0000	458.529
2181.5000	458.598
2182.0000	458.542
2182.5000	458.461
2183.0000	458.479
2183.5000	458.484
2184.0000	458.474
2184.5000	458.5
2185.0000	458.436
2185.5000	458.366
2186.0000	458.452
2186.5000	458.465
2187.0000	458.526
2187.5000	458.572
2188.0000	458.504
2188.5000	458.49
2189.0000	458.5
2189.5000	458.521
2190.0000	458.536
2190.5000	458.562
2191.0000	458.541
2191.5000	458.53
2192.0000	458.557
2192.5000	458.58
2193.0000	458.565
2193.5000	458.547
2194.0000	458.517
2194.5000	458.521
2195.0000	458.499
2195.5000	458.509
2196.0000	458.515
2196.5000	458.501
2197.0000	458.515
2197.5000	458.518
2198.0000	458.547
2198.5000	458.622
2199.0000	458.688
2199.5000	458.659
2200.0000	458.658
2200.5000	458.598
2201.0000	458.516
2201.5000	458.542
2202.0000	458.51
2202.5000	458.52
2203.0000	458.562
2203.5000	458.57
2204.0000	458.642
2204.5000	458.654
2205.0000	458.645
2205.5000	458.635
2206.0000	458.621
2206.5000	458.639
2207.0000	458.638
2207.5000	458.66
2208.0000	458.655
2208.5000	458.582
2209.0000	458.627
2209.5000	458.588
2210.0000	458.56
2210.5000	458.65
2211.0000	458.677
2211.5000	458.718
2212.0000	458.783
2212.5000	458.736
2213.0000	458.714
2213.5000	458.743
2214.0000	458.729
2214.5000	458.702
2215.0000	458.694
2215.5000	458.671
2216.0000	458.659
2216.5000	458.7
2217.0000	458.735
2217.5000	458.722
2218.0000	458.684
2218.5000	458.645
2219.0000	458.632
2219.5000	458.627
2220.0000	458.675
2220.5000	458.777
2221.0000	458.708
2221.5000	458.728
2222.0000	458.752
2222.5000	458.687
2223.0000	458.653
2223.5000	458.709
2224.0000	458.652
2224.5000	458.639
2225.0000	458.736
2225.5000	458.712
2226.0000	458.72
2226.5000	458.793
2227.0000	458.799
2227.5000	458.742
2228.0000	458.754
2228.5000	458.741
2229.0000	458.745
2229.5000	458.674
2230.0000	458.612
2230.5000	458.576
2231.0000	458.595
2231.5000	458.669
2232.0000	458.781
2232.5000	458.853
2233.0000	458.805
2233.5000	458.889
2234.0000	458.857
2234.5000	458.813
2235.0000	458.812
2235.5000	458.724
2236.0000	458.748
2236.5000	458.722
2237.0000	458.707
2237.5000	458.698
2238.0000	458.658
2238.5000	458.6
2239.0000	458.614
2239.5000	458.651
2240.0000	458.592
2240.5000	458.628
2241.0000	458.628
2241.5000	458.709
2242.0000	458.761
2242.5000	458.74
2243.0000	458.746
2243.5000	458.644
2244.0000	458.659
2244.5000	458.689
2245.0000	458.735
2245.5000	458.766
2246.0000	458.791
2246.5000	458.789
2247.0000	458.747
2247.5000	458.77
2248.0000	458.798
2248.5000	458.832
2249.0000	458.845
2249.5000	458.826
2250.0000	458.765
2250.5000	458.773
2251.0000	458.719
2251.5000	458.724
2252.0000	458.762
2252.5000	458.742
2253.0000	458.763
2253.5000	458.785
2254.0000	458.81
2254.5000	458.743
2255.0000	458.723
2255.5000	458.727
2256.0000	458.723
2256.5000	458.826
2257.0000	458.808
2257.5000	458.799
2258.0000	458.742
2258.5000	458.695
2259.0000	458.691
2259.5000	458.668
2260.0000	458.699
2260.5000	458.649
2261.0000	458.666
2261.5000	458.608
2262.0000	458.586
2262.5000	458.613
2263.0000	458.668
2263.5000	458.681
2264.0000	458.646
2264.5000	458.618
2265.0000	458.607
2265.5000	458.66
2266.0000	458.629
2266.5000	458.707
2267.0000	458.739
2267.5000	458.734
2268.0000	458.783
2268.5000	458.757
2269.0000	458.706
2269.5000	458.704
2270.0000	458.694
2270.5000	458.692
2271.0000	458.779
2271.5000	458.78
2272.0000	458.827
2272.5000	458.837
2273.0000	458.721
2273.5000	458.753
2274.0000	458.72
2274.5000	458.678
2275.0000	458.759
2275.5000	458.744
2276.0000	458.753
2276.5000	458.832
2277.0000	458.719
2277.5000	458.707
2278.0000	458.652
2278.5000	458.635
2279.0000	458.733
2279.5000	458.708
2280.0000	458.786
2280.5000	458.692
2281.0000	458.652
2281.5000	458.664
2282.0000	458.63
2282.5000	458.763
2283.0000	458.82
2283.5000	458.769
2284.0000	458.723
2284.5000	458.67
2285.0000	458.643
2285.5000	458.64
2286.0000	458.735
2286.5000	458.73
2287.0000	458.719
2287.5000	458.727
2288.0000	458.644
2288.5000	458.631
2289.0000	458.583
2289.5000	458.663
2290.0000	458.662
2290.5000	458.635
2291.0000	458.61
2291.5000	458.579
2292.0000	458.62
2292.5000	458.635
2293.0000	458.708
2293.5000	458.756
2294.0000	458.774
2294.5000	458.752
2295.0000	458.755
2295.5000	458.677
2296.0000	458.63
2296.5000	458.61
2297.0000	458.562
2297.5000	458.581
2298.0000	458.649
2298.5000	458.73
2299.0000	458.721
2299.5000	458.713
2300.0000	458.649
2300.5000	458.649
2301.0000	458.691
2301.5000	458.618
2302.0000	458.652
2302.5000	458.587
2303.0000	458.57
2303.5000	458.633
2304.0000	458.562
2304.5000	458.553
2305.0000	458.562
2305.5000	458.578
2306.0000	458.658
2306.5000	458.713
2307.0000	458.645
2307.5000	458.584
2308.0000	458.595
2308.5000	458.558
2309.0000	458.613
2309.5000	458.657
2310.0000	458.618
2310.5000	458.637
2311.0000	458.638
2311.5000	458.6
2312.0000	458.566
2312.5000	458.537
2313.0000	458.618
2313.5000	458.692
2314.0000	458.778
2314.5000	458.869
2315.0000	458.737
2315.5000	458.664
2316.0000	458.578
2316.5000	458.508
2317.0000	458.58
2317.5000	458.647
2318.0000	458.771
2318.5000	458.718
2319.0000	458.649
2319.5000	458.656
2320.0000	458.551
2320.5000	458.588
2321.0000	458.653
2321.5000	458.583
2322.0000	458.633
2322.5000	458.686
2323.0000	458.657
2323.5000	458.735
2324.0000	458.745
2324.5000	458.711
2325.0000	458.777
2325.5000	458.743
2326.0000	458.695
2326.5000	458.662
2327.0000	458.582
2327.5000	458.64
2328.0000	458.668
2328.5000	458.726
2329.0000	458.734
2329.5000	458.7
2330.0000	458.734
2330.5000	458.773
2331.0000	458.781
2331.5000	458.721
2332.0000	458.675
2332.5000	458.574
2333.0000	458.616
2333.5000	458.626
2334.0000	458.638
2334.5000	458.662
2335.0000	458.653
2335.5000	458.671
2336.0000	458.694
2336.5000	458.712
2337.0000	458.687
2337.5000	458.737
2338.0000	458.668
2338.5000	458.66
2339.0000	458.687
2339.5000	458.74
2340.0000	458.72
2340.5000	458.726
2341.0000	458.743
2341.5000	458.639
2342.0000	458.641
2342.5000	458.657
2343.0000	458.602
2343.5000	458.692
2344.0000	458.753
2344.5000	458.696
2345.0000	458.716
2345.5000	458.638
2346.0000	458.686
2346.5000	458.738
2347.0000	458.778
2347.5000	458.801
2348.0000	458.722
2348.5000	458.717
2349.0000	458.685
2349.5000	458.615
2350.0000	458.62
2350.5000	458.612
2351.0000	458.691
2351.5000	458.735
2352.0000	458.733
2352.5000	458.771
2353.0000	458.772
2353.5000	458.797
2354.0000	458.791
2354.5000	458.757
2355.0000	458.73
2355.5000	458.655
2356.0000	458.674
2356.5000	458.731
2357.0000	458.688
2357.5000	458.781
2358.0000	458.825
2358.5000	458.775
2359.0000	458.803
2359.5000	458.753
2360.0000	458.698
2360.5000	458.659
2361.0000	458.628
2361.5000	458.644
2362.0000	458.61
2362.5000	458.669
2363.0000	458.697
2363.5000	458.672
2364.0000	458.792
2364.5000	458.724
2365.0000	458.668
2365.5000	458.714
2366.0000	458.684
2366.5000	458.702
2367.0000	458.686
2367.5000	458.699
2368.0000	458.621
2368.5000	458.676
2369.0000	458.643
2369.5000	458.572
2370.0000	458.629
2370.5000	458.598
2371.0000	458.658
2371.5000	458.662
2372.0000	458.644
2372.5000	458.656
2373.0000	458.702
2373.5000	458.728
2374.0000	458.76
2374.5000	458.778
2375.0000	458.743
2375.5000	458.769
2376.0000	458.75
2376.5000	458.717
2377.0000	458.797
2377.5000	458.748
2378.0000	458.766
2378.5000	458.79
2379.0000	458.693
2379.5000	458.714
2380.0000	458.668
2380.5000	458.607
2381.0000	458.626
2381.5000	458.696
2382.0000	458.729
2382.5000	458.761
2383.0000	458.779
2383.5000	458.681
2384.0000	458.606
2384.5000	458.636
2385.0000	458.606
2385.5000	458.689
2386.0000	458.73
2386.5000	458.696
2387.0000	458.771
2387.5000	458.677
2388.0000	458.702
2388.5000	458.674
2389.0000	458.624
2389.5000	458.683
2390.0000	458.658
2390.5000	458.731
2391.0000	458.701
2391.5000	458.667
2392.0000	458.724
2392.5000	458.699
2393.0000	458.739
2393.5000	458.723
2394.0000	458.661
2394.5000	458.623
2395.0000	458.643
2395.5000	458.696
2396.0000	458.698
2396.5000	458.733
2397.0000	458.664
2397.5000	458.664
2398.0000	458.714
2398.5000	458.774
2399.0000	458.702
2399.5000	458.731
2400.0000	458.734
2400.5000	458.606
2401.0000	458.679
2401.5000	458.574
2402.0000	458.565
2402.5000	458.634
2403.0000	458.724
2403.5000	458.756
2404.0000	458.771
2404.5000	458.699
2405.0000	458.608
2405.5000	458.552
2406.0000	458.491
2406.5000	458.551
2407.0000	458.618
2407.5000	458.705
2408.0000	458.649
2408.5000	458.669
2409.0000	458.614
2409.5000	458.57
2410.0000	458.624
2410.5000	458.562
2411.0000	458.57
2411.5000	458.638
2412.0000	458.633
2412.5000	458.566
2413.0000	458.529
2413.5000	458.497
2414.0000	458.556
2414.5000	458.617
2415.0000	458.667
2415.5000	458.681
2416.0000	458.646
2416.5000	458.651
2417.0000	458.655
2417.5000	458.647
2418.0000	458.683
2418.5000	458.702
2419.0000	458.738
2419.5000	458.704
2420.0000	458.664
2420.5000	458.65
2421.0000	458.585
2421.5000	458.561
2422.0000	458.569
2422.5000	458.582
2423.0000	458.549
2423.5000	458.543
2424.0000	458.565
2424.5000	458.604
2425.0000	458.636
2425.5000	458.733
2426.0000	458.718
2426.5000	458.703
2427.0000	458.722
2427.5000	458.71
2428.0000	458.624
2428.5000	458.63
2429.0000	458.639
2429.5000	458.587
2430.0000	458.689
2430.5000	458.647
2431.0000	458.592
2431.5000	458.582
2432.0000	458.514
2432.5000	458.437
2433.0000	458.458
2433.5000	458.487
2434.0000	458.487
2434.5000	458.61
2435.0000	458.555
2435.5000	458.595
2436.0000	458.621
2436.5000	458.506
2437.0000	458.575
2437.5000	458.491
2438.0000	458.489
2438.5000	458.58
2439.0000	458.623
2439.5000	458.66
2440.0000	458.682
2440.5000	458.641
2441.0000	458.573
2441.5000	458.562
2442.0000	458.567
2442.5000	458.661
2443.0000	458.607
2443.5000	458.647
2444.0000	458.655
2444.5000	458.553
2445.0000	458.622
2445.5000	458.681
2446.0000	458.711
2446.5000	458.739
2447.0000	458.712
2447.5000	458.643
2448.0000	458.546
2448.5000	458.524
2449.0000	458.561
2449.5000	458.502
2450.0000	458.502
2450.5000	458.612
2451.0000	458.504
2451.5000	458.494
2452.0000	458.469
2452.5000	458.412
2453.0000	458.516
2453.5000	458.535
2454.0000	458.585
2454.5000	458.561
2455.0000	458.558
2455.5000	458.58
2456.0000	458.538
2456.5000	458.517
2457.0000	458.49
2457.5000	458.397
2458.0000	458.402
2458.5000	458.38
2459.0000	458.391
2459.5000	458.493
2460.0000	458.538
2460.5000	458.53
2461.0000	458.523
2461.5000	458.513
2462.0000	458.482
2462.5000	458.512
2463.0000	458.563
2463.5000	458.517
2464.0000	458.536
2464.5000	458.596
2465.0000	458.538
2465.5000	458.545
2466.0000	458.542
2466.5000	458.497
2467.0000	458.477
2467.5000	458.451
2468.0000	458.465
2468.5000	458.455
2469.0000	458.509
2469.5000	458.579
2470.0000	458.513
2470.5000	458.543
2471.0000	458.528
2471.5000	458.511
2472.0000	458.529
2472.5000	458.489
2473.0000	458.432
2473.5000	458.464
2474.0000	458.493
2474.5000	458.474
2475.0000	458.496
2475.5000	458.453
2476.0000	458.419
2476.5000	458.376
2477.0000	458.415
2477.5000	458.459
2478.0000	458.461
2478.5000	458.473
2479.0000	458.481
2479.5000	458.411
2480.0000	458.505
2480.5000	458.492
2481.0000	458.438
2481.5000	458.51
2482.0000	458.436
2482.5000	458.517
2483.0000	458.525
2483.5000	458.505
2484.0000	458.492
2484.5000	458.505
2485.0000	458.567
2485.5000	458.491
2486.0000	458.465
2486.5000	458.419
2487.0000	458.387
2487.5000	458.457
2488.0000	458.457
2488.5000	458.448
2489.0000	458.442
2489.5000	458.442
2490.0000	458.491
2490.5000	458.502
2491.0000	458.474
2491.5000	458.49
2492.0000	458.426
2492.5000	458.424
2493.0000	458.395
2493.5000	458.303
2494.0000	458.306
2494.5000	458.323
2495.0000	458.382
2495.5000	458.442
2496.0000	458.463
2496.5000	458.455
2497.0000	458.395
2497.5000	458.401
2498.0000	458.445
2498.5000	458.47
2499.0000	458.561
2499.5000	458.537
2500.0000	458.461
2500.5000	458.377
2501.0000	458.338
2501.5000	458.301
2502.0000	458.375
2502.5000	458.441
2503.0000	458.419
2503.5000	458.469
2504.0000	458.429
2504.5000	458.401
2505.0000	458.369
2505.5000	458.307
2506.0000	458.339
2506.5000	458.343
2507.0000	458.437
2507.5000	458.52
2508.0000	458.523
2508.5000	458.481
2509.0000	458.311
2509.5000	458.319
2510.0000	458.299
2510.5000	458.405
2511.0000	458.554
2511.5000	458.539
2512.0000	458.556
2512.5000	458.568
2513.0000	458.594
2513.5000	458.626
2514.0000	458.622
2514.5000	458.577
2515.0000	458.579
2515.5000	458.585
2516.0000	458.569
2516.5000	458.531
2517.0000	458.439
2517.5000	458.311
2518.0000	458.358
2518.5000	458.403
2519.0000	458.443
2519.5000	458.418
2520.0000	458.337
2520.5000	458.305
2521.0000	458.345
2521.5000	458.452
2522.0000	458.508
2522.5000	458.536
2523.0000	458.517
2523.5000	458.503
2524.0000	458.54
2524.5000	458.547
2525.0000	458.59
2525.5000	458.571
2526.0000	458.571
2526.5000	458.531
2527.0000	458.451
2527.5000	458.459
2528.0000	458.402
2528.5000	458.419
2529.0000	458.45
2529.5000	458.463
2530.0000	458.525
2530.5000	458.538
2531.0000	458.496
2531.5000	458.506
2532.0000	458.513
2532.5000	458.45
2533.0000	458.424
2533.5000	458.481
2534.0000	458.432
2534.5000	458.499
2535.0000	458.527
2535.5000	458.48
2536.0000	458.483
2536.5000	458.512
2537.0000	458.547
2537.5000	458.595
2538.0000	458.599
2538.5000	458.531
2539.0000	458.571
2539.5000	458.509
2540.0000	458.523
2540.5000	458.601
2541.0000	458.564
2541.5000	458.532
2542.0000	458.465
2542.5000	458.522
2543.0000	458.582
2543.5000	458.605
2544.0000	458.619
2544.5000	458.501
2545.0000	458.353
2545.5000	458.395
2546.0000	458.41
2546.5000	458.462
2547.0000	458.526
2547.5000	458.496
2548.0000	458.53
2548.5000	458.49
2549.0000	458.606
2549.5000	458.595
2550.0000	458.559
2550.5000	458.56
2551.0000	458.489
2551.5000	458.545
2552.0000	458.605
2552.5000	458.636
2553.0000	458.636
2553.5000	458.638
2554.0000	458.627
2554.5000	458.582
2555.0000	458.563
2555.5000	458.55
2556.0000	458.457
2556.5000	458.532
2557.0000	458.551
2557.5000	458.543
2558.0000	458.604
2558.5000	458.594
2559.0000	458.594
2559.5000	458.592
2560.0000	458.685
2560.5000	458.715
2561.0000	458.73
2561.5000	458.762
2562.0000	458.666
2562.5000	458.653
2563.0000	458.588
2563.5000	458.554
2564.0000	458.57
2564.5000	458.56
2565.0000	458.584
2565.5000	458.622
2566.0000	458.62
2566.5000	458.681
2567.0000	458.638
2567.5000	458.655
2568.0000	458.7
2568.5000	458.629
2569.0000	458.718
2569.5000	458.679
2570.0000	458.773
2570.5000	458.742
2571.0000	458.756
2571.5000	458.727
2572.0000	458.571
2572.5000	458.606
2573.0000	458.584
2573.5000	458.643
2574.0000	458.665
2574.5000	458.637
2575.0000	458.634
2575.5000	458.565
2576.0000	458.623
2576.5000	458.621
2577.0000	458.612
2577.5000	458.64
2578.0000	458.613
2578.5000	458.61
2579.0000	458.588
2579.5000	458.627
2580.0000	458.654
2580.5000	458.644
2581.0000	458.672
2581.5000	458.622
2582.0000	458.572
2582.5000	458.638
2583.0000	458.633
2583.5000	458.628
2584.0000	458.626
2584.5000	458.597
2585.0000	458.562
2585.5000	458.571
2586.0000	458.572
2586.5000	458.579
2587.0000	458.612
2587.5000	458.627
2588.0000	458.603
2588.5000	458.607
2589.0000	458.641
2589.5000	458.651
2590.0000	458.684
2590.5000	458.68
2591.0000	458.713
2591.5000	458.708
2592.0000	458.658
2592.5000	458.595
2593.0000	458.563
2593.5000	458.586
2594.0000	458.631
2594.5000	458.676
2595.0000	458.69
2595.5000	458.672
2596.0000	458.705
2596.5000	458.718
2597.0000	458.675
2597.5000	458.701
2598.0000	458.639
2598.5000	458.736
2599.0000	458.705
2599.5000	458.67
2600.0000	458.686
2600.5000	458.582
2601.0000	458.578
2601.5000	458.639
2602.0000	458.663
2602.5000	458.674
2603.0000	458.711
2603.5000	458.697
2604.0000	458.723
2604.5000	458.712
2605.0000	458.689
2605.5000	458.617
2606.0000	458.588
2606.5000	458.557
2607.0000	458.572
2607.5000	458.609
2608.0000	458.569
2608.5000	458.577
2609.0000	458.559
2609.5000	458.611
2610.0000	458.604
2610.5000	458.664
2611.0000	458.66
2611.5000	458.617
2612.0000	458.64
2612.5000	458.615
2613.0000	458.612
2613.5000	458.587
2614.0000	458.665
2614.5000	458.658
2615.0000	458.623
2615.5000	458.646
2616.0000	458.574
2616.5000	458.549
2617.0000	458.583
2617.5000	458.512
2618.0000	458.552
2618.5000	458.555
2619.0000	458.59
2619.5000	458.589
2620.0000	458.617
2620.5000	458.585
2621.0000	458.571
2621.5000	458.603
2622.0000	458.485
2622.5000	458.554
2623.0000	458.559
2623.5000	458.607
2624.0000	458.656
2624.5000	458.59
2625.0000	458.552
2625.5000	458.508
2626.0000	458.462
2626.5000	458.496
2627.0000	458.545
2627.5000	458.513
2628.0000	458.558
2628.5000	458.53
2629.0000	458.509
2629.5000	458.571
2630.0000	458.513
2630.5000	458.525
2631.0000	458.548
2631.5000	458.507
2632.0000	458.577
2632.5000	458.528
2633.0000	458.508
2633.5000	458.538
2634.0000	458.578
2634.5000	458.651
2635.0000	458.651
2635.5000	458.67
2636.0000	458.665
2636.5000	458.711
2637.0000	458.681
2637.5000	458.685
2638.0000	458.673
2638.5000	458.638
2639.0000	458.702
2639.5000	458.697
2640.0000	458.649
2640.5000	458.596
2641.0000	458.524
2641.5000	458.531
2642.0000	458.497
2642.5000	458.551
2643.0000	458.545
2643.5000	458.494
2644.0000	458.522
2644.5000	458.404
2645.0000	458.38
2645.5000	458.427
2646.0000	458.448
2646.5000	458.504
2647.0000	458.58
2647.5000	458.575
2648.0000	458.579
2648.5000	458.519
2649.0000	458.546
2649.5000	458.512
2650.0000	458.516
2650.5000	458.558
2651.0000	458.482
2651.5000	458.459
2652.0000	458.366
2652.5000	458.395
2653.0000	458.426
2653.5000	458.482
2654.0000	458.551
2654.5000	458.594
2655.0000	458.542
2655.5000	458.456
2656.0000	458.42
2656.5000	458.354
2657.0000	458.379
2657.5000	458.532
2658.0000	458.559
2658.5000	458.609
2659.0000	458.684
2659.5000	458.566
2660.0000	458.559
2660.5000	458.595
2661.0000	458.476
2661.5000	458.438
2662.0000	458.449
2662.5000	458.438
2663.0000	458.481
2663.5000	458.469
2664.0000	458.492
2664.5000	458.441
2665.0000	458.433
2665.5000	458.505
2666.0000	458.508
2666.5000	458.475
2667.0000	458.488
2667.5000	458.411
2668.0000	458.356
2668.5000	458.369
2669.0000	458.408
2669.5000	458.501
2670.0000	458.502
2670.5000	458.486
2671.0000	458.462
2671.5000	458.456
2672.0000	458.486
2672.5000	458.544
2673.0000	458.549
2673.5000	458.517
2674.0000	458.468
2674.5000	458.459
2675.0000	458.41
2675.5000	458.421
2676.0000	458.486
2676.5000	458.494
2677.0000	458.537
2677.5000	458.521
2678.0000	458.494
2678.5000	458.491
2679.0000	458.455
2679.5000	458.499
2680.0000	458.536
2680.5000	458.553
2681.0000	458.599
2681.5000	458.555
2682.0000	458.543
2682.5000	458.5
2683.0000	458.457
2683.5000	458.405
2684.0000	458.362
2684.5000	458.422
2685.0000	458.404
2685.5000	458.474
2686.0000	458.476
2686.5000	458.443
2687.0000	458.484
2687.5000	458.493
2688.0000	458.481
2688.5000	458.436
2689.0000	458.432
2689.5000	458.427
2690.0000	458.467
2690.5000	458.44
2691.0000	458.398
2691.5000	458.392
2692.0000	458.39
2692.5000	458.422
2693.0000	458.448
2693.5000	458.451
2694.0000	458.302
2694.5000	458.313
2695.0000	458.307
2695.5000	458.31
2696.0000	458.526
2696.5000	458.58
2697.0000	458.615
2697.5000	458.624
2698.0000	458.589
2698.5000	458.539
2699.0000	458.454
2699.5000	458.439
2700.0000	458.394
2700.5000	458.462
2701.0000	458.561
2701.5000	458.566
2702.0000	458.57
2702.5000	458.475
2703.0000	458.456
2703.5000	458.414
2704.0000	458.449
2704.5000	458.48
2705.0000	458.464
2705.5000	458.518
2706.0000	458.492
2706.5000	458.464
2707.0000	458.47
2707.5000	458.448
2708.0000	458.471
2708.5000	458.522
2709.0000	458.531
2709.5000	458.471
2710.0000	458.46
2710.5000	458.445
2711.0000	458.388
2711.5000	458.427
2712.0000	458.394
2712.5000	458.384
2713.0000	458.478
2713.5000	458.495
2714.0000	458.445
2714.5000	458.406
2715.0000	458.364
2715.5000	458.361
2716.0000	458.436
2716.5000	458.566
2717.0000	458.55
2717.5000	458.587
2718.0000	458.594
2718.5000	458.504
2719.0000	458.551
2719.5000	458.477
2720.0000	458.407
2720.5000	458.419
2721.0000	458.36
2721.5000	458.389
2722.0000	458.409
2722.5000	458.418
2723.0000	458.391
2723.5000	458.33
2724.0000	458.336
2724.5000	458.307
2725.0000	458.322
2725.5000	458.39
2726.0000	458.395
2726.5000	458.393
2727.0000	458.477
2727.5000	458.477
2728.0000	458.475
2728.5000	458.429
2729.0000	458.4
2729.5000	458.376
2730.0000	458.381
2730.5000	458.44
2731.0000	458.39
2731.5000	458.354
2732.0000	458.338
2732.5000	458.308
2733.0000	458.329
2733.5000	458.386
2734.0000	458.505
2734.5000	458.54
2735.0000	458.611
2735.5000	458.589
2736.0000	458.493
2736.5000	458.446
2737.0000	458.4
2737.5000	458.408
2738.0000	458.399
2738.5000	458.398
2739.0000	458.415
2739.5000	458.416
2740.0000	458.453
2740.5000	458.437
2741.0000	458.366
2741.5000	458.411
2742.0000	458.334
2742.5000	458.416
2743.0000	458.459
2743.5000	458.436
2744.0000	458.474
2744.5000	458.466
2745.0000	458.447
2745.5000	458.482
2746.0000	458.5
2746.5000	458.469
2747.0000	458.502
2747.5000	458.503
2748.0000	458.487
2748.5000	458.497
2749.0000	458.461
2749.5000	458.415
2750.0000	458.393
2750.5000	458.341
2751.0000	458.392
2751.5000	458.342
2752.0000	458.373
2752.5000	458.391
2753.0000	458.36
2753.5000	458.398
2754.0000	458.368
2754.5000	458.386
2755.0000	458.408
2755.5000	458.469
2756.0000	458.421
2756.5000	458.396
2757.0000	458.301
2757.5000	458.203
2758.0000	458.274
2758.5000	458.3
2759.0000	458.351
2759.5000	458.4
2760.0000	458.446
2760.5000	458.413
2761.0000	458.398
2761.5000	458.391
2762.0000	458.298
2762.5000	458.303
2763.0000	458.304
2763.5000	458.28
2764.0000	458.329
2764.5000	458.326
2765.0000	458.384
2765.5000	458.402
2766.0000	458.347
2766.5000	458.396
2767.0000	458.383
2767.5000	458.346
2768.0000	458.385
2768.5000	458.314
2769.0000	458.349
2769.5000	458.401
2770.0000	458.408
2770.5000	458.43
2771.0000	458.418
2771.5000	458.395
2772.0000	458.384
2772.5000	458.461
2773.0000	458.388
2773.5000	458.42
2774.0000	458.473
2774.5000	458.422
2775.0000	458.431
2775.5000	458.382
2776.0000	458.378
2776.5000	458.333
2777.0000	458.341
2777.5000	458.369
2778.0000	458.359
2778.5000	458.339
2779.0000	458.348
2779.5000	458.328
2780.0000	458.351
2780.5000	458.408
2781.0000	458.453
2781.5000	458.479
2782.0000	458.416
2782.5000	458.383
2783.0000	458.331
2783.5000	458.396
2784.0000	458.464
2784.5000	458.462
2785.0000	458.412
2785.5000	458.324
2786.0000	458.266
2786.5000	458.304
2787.0000	458.34
2787.5000	458.321
2788.0000	458.298
2788.5000	458.307
2789.0000	458.312
2789.5000	458.367
2790.0000	458.387
2790.5000	458.346
2791.0000	458.412
2791.5000	458.309
2792.0000	458.311
2792.5000	458.323
2793.0000	458.269
2793.5000	458.359
2794.0000	458.37
2794.5000	458.369
2795.0000	458.396
2795.5000	458.373
2796.0000	458.308
2796.5000	458.274
2797.0000	458.232
2797.5000	458.233
2798.0000	458.298
2798.5000	458.38
2799.0000	458.401
2799.5000	458.365
2800.0000	458.353
2800.5000	458.33
2801.0000	458.277
2801.5000	458.331
2802.0000	458.377
2802.5000	458.342
2803.0000	458.441
2803.5000	458.46
2804.0000	458.443
2804.5000	458.468
2805.0000	458.342
2805.5000	458.272
2806.0000	458.233
2806.5000	458.248
2807.0000	458.231
2807.5000	458.243
2808.0000	458.217
2808.5000	458.214
2809.0000	458.283
2809.5000	458.263
2810.0000	458.321
2810.5000	458.299
2811.0000	458.279
2811.5000	458.324
2812.0000	458.28
2812.5000	458.288
2813.0000	458.186
2813.5000	458.163
2814.0000	458.147
2814.5000	458.176
2815.0000	458.296
2815.5000	458.291
2816.0000	458.259
2816.5000	458.217
2817.0000	458.219
2817.5000	458.223
2818.0000	458.286
2818.5000	458.309
2819.0000	458.284
2819.5000	458.363
2820.0000	458.377
2820.5000	458.396
2821.0000	458.496
2821.5000	458.43
2822.0000	458.399
2822.5000	458.327
2823.0000	458.244
2823.5000	458.201
2824.0000	458.164
2824.5000	458.178
2825.0000	458.199
2825.5000	458.247
2826.0000	458.298
2826.5000	458.321
2827.0000	458.316
2827.5000	458.263
2828.0000	458.184
2828.5000	458.121
2829.0000	458.122
2829.5000	458.141
2830.0000	458.178
2830.5000	458.26
2831.0000	458.218
2831.5000	458.189
2832.0000	458.325
2832.5000	458.365
2833.0000	458.386
2833.5000	458.44
2834.0000	458.341
2834.5000	458.281
2835.0000	458.287
2835.5000	458.289
2836.0000	458.277
2836.5000	458.261
2837.0000	458.222
2837.5000	458.183
2838.0000	458.194
2838.5000	458.175
2839.0000	458.155
2839.5000	458.182
2840.0000	458.161
2840.5000	458.22
2841.0000	458.267
2841.5000	458.246
2842.0000	458.195
2842.5000	458.166
2843.0000	458.151
2843.5000	458.143
2844.0000	458.141
2844.5000	458.128
2845.0000	458.119
2845.5000	458.202
2846.0000	458.255
2846.5000	458.2
2847.0000	458.189
2847.5000	458.082
2848.0000	458.115
2848.5000	458.171
2849.0000	458.216
2849.5000	458.357
2850.0000	458.377
2850.5000	458.367
2851.0000	458.403
2851.5000	458.265
2852.0000	458.188
2852.5000	458.178
2853.0000	458.123
2853.5000	458.207
2854.0000	458.214
2854.5000	458.224
2855.0000	458.244
2855.5000	458.155
2856.0000	458.202
2856.5000	458.245
2857.0000	458.255
2857.5000	458.295
2858.0000	458.227
2858.5000	458.221
2859.0000	458.24
2859.5000	458.222
2860.0000	458.295
2860.5000	458.266
2861.0000	458.253
2861.5000	458.247
2862.0000	458.207
2862.5000	458.257
2863.0000	458.224
2863.5000	458.174
2864.0000	458.255
2864.5000	458.254
2865.0000	458.305
2865.5000	458.314
2866.0000	458.243
2866.5000	458.136
2867.0000	458.148
2867.5000	458.214
2868.0000	458.259
2868.5000	458.294
2869.0000	458.285
2869.5000	458.314
2870.0000	458.235
2870.5000	458.23
2871.0000	458.12
2871.5000	458.033
2872.0000	458.073
2872.5000	458.066
2873.0000	458.097
2873.5000	458.12
2874.0000	458.113
2874.5000	458.168
2875.0000	458.206
2875.5000	458.168
2876.0000	458.099
2876.5000	458.001
2877.0000	458.002
2877.5000	458.064
2878.0000	458.16
2878.5000	458.177
2879.0000	458.183
2879.5000	458.168
2880.0000	458.141
2880.5000	458.182
2881.0000	458.156
2881.5000	458.181
2882.0000	458.193
2882.5000	458.243
2883.0000	458.255
2883.5000	458.276
2884.0000	458.201
2884.5000	458.105
2885.0000	458.057
2885.5000	458.068
2886.0000	458.154
2886.5000	458.178
2887.0000	458.196
2887.5000	458.156
2888.0000	458.115
2888.5000	458.115
2889.0000	458.116
2889.5000	458.087
2890.0000	458.013
2890.5000	458.026
2891.0000	458.016
2891.5000	458.03
2892.0000	458.176
2892.5000	458.208
2893.0000	458.178
2893.5000	458.191
2894.0000	458.147
2894.5000	458.069
2895.0000	458.096
2895.5000	458.052
2896.0000	458.033
2896.5000	458.059
2897.0000	458.073
2897.5000	458.059
2898.0000	458.072
2898.5000	458.138
2899.0000	458.117
2899.5000	458.132
2900.0000	458.113
2900.5000	458.094
2901.0000	458.11
2901.5000	458.154
2902.0000	458.158
2902.5000	458.173
2903.0000	458.159
2903.5000	458.098
2904.0000	458.054
2904.5000	458.072
2905.0000	458.063
2905.5000	458.08
2906.0000	458.13
2906.5000	458.001
2907.0000	458.035
2907.5000	458.034
2908.0000	457.983
2908.5000	458.051
2909.0000	458.011
2909.5000	458.034
2910.0000	458.044
2910.5000	458.025
2911.0000	458.052
2911.5000	458.08
2912.0000	457.993
2912.5000	457.982
2913.0000	458.02
2913.5000	457.99
2914.0000	458.1
2914.5000	458.18
2915.0000	458.113
2915.5000	458.021
2916.0000	458.032
2916.5000	457.971
2917.0000	457.998
2917.5000	458.109
2918.0000	458.048
2918.5000	458.018
2919.0000	458.014
2919.5000	457.982
2920.0000	457.986
2920.5000	458.029
2921.0000	458.026
2921.5000	458.038
2922.0000	458.084
2922.5000	458.082
2923.0000	458.136
2923.5000	458.078
2924.0000	458.075
2924.5000	457.967
2925.0000	457.891
2925.5000	457.898
2926.0000	457.92
2926.5000	458.02
2927.0000	458.029
2927.5000	458.087
2928.0000	457.973
2928.5000	457.963
2929.0000	457.982
2929.5000	457.904
2930.0000	457.928
2930.5000	457.913
2931.0000	457.877
2931.5000	457.932
2932.0000	457.932
2932.5000	457.848
2933.0000	457.815
2933.5000	457.805
2934.0000	457.886
2934.5000	458.003
2935.0000	457.983
2935.5000	457.956
2936.0000	457.88
2936.5000	457.838
2937.0000	457.871
2937.5000	457.849
2938.0000	457.853
2938.5000	457.878
2939.0000	457.952
2939.5000	457.943
2940.0000	457.926
2940.5000	457.878
2941.0000	457.817
2941.5000	457.843
2942.0000	457.877
2942.5000	457.92
2943.0000	457.946
2943.5000	457.912
2944.0000	457.865
2944.5000	457.851
2945.0000	457.824
2945.5000	457.851
2946.0000	457.913
2946.5000	457.937
2947.0000	457.947
2947.5000	457.925
2948.0000	457.866
2948.5000	457.802
2949.0000	457.69
2949.5000	457.699
2950.0000	457.681
2950.5000	457.716
2951.0000	457.83
2951.5000	457.831
2952.0000	457.865
2952.5000	457.844
2953.0000	457.752
2953.5000	457.694
2954.0000	457.669
2954.5000	457.644
2955.0000	457.655
2955.5000	457.731
2956.0000	457.762
2956.5000	457.784
2957.0000	457.814
2957.5000	457.726
2958.0000	457.747
2958.5000	457.793
2959.0000	457.742
2959.5000	457.881
2960.0000	457.836
2960.5000	457.798
2961.0000	457.865
2961.5000	457.798
2962.0000	457.802
2962.5000	457.727
2963.0000	457.688
2963.5000	457.599
2964.0000	457.573
2964.5000	457.638
2965.0000	457.624
2965.5000	457.74
2966.0000	457.771
2966.5000	457.773
2967.0000	457.797
2967.5000	457.763
2968.0000	457.757
2968.5000	457.699
2969.0000	457.753
2969.5000	457.754
2970.0000	457.705
2970.5000	457.69
2971.0000	457.683
2971.5000	457.717
2972.0000	457.728
2972.5000	457.811
2973.0000	457.777
2973.5000	457.741
2974.0000	457.767
2974.5000	457.662
2975.0000	457.635
2975.5000	457.614
2976.0000	457.653
2976.5000	457.682
2977.0000	457.692
2977.5000	457.693
2978.0000	457.64
2978.5000	457.607
2979.0000	457.538
2979.5000	457.52
2980.0000	457.463
2980.5000	457.543
2981.0000	457.692
2981.5000	457.654
2982.0000	457.696
2982.5000	457.657
2983.0000	457.54
2983.5000	457.584
2984.0000	457.571
2984.5000	457.587
2985.0000	457.581
2985.5000	457.515
2986.0000	457.517
2986.5000	457.45
2987.0000	457.38
2987.5000	457.418
2988.0000	457.444
2988.5000	457.511
2989.0000	457.586
2989.5000	457.559
2990.0000	457.488
2990.5000	457.425
2991.0000	457.426
2991.5000	457.438
2992.0000	457.451
2992.5000	457.487
2993.0000	457.494
2993.5000	457.585
2994.0000	457.656
2994.5000	457.694
2995.0000	457.597
2995.5000	457.553
2996.0000	457.46
2996.5000	457.339
2997.0000	457.418
2997.5000	457.353
2998.0000	457.37
2998.5000	457.406
2999.0000	457.415
2999.5000	457.372
3000.0000	457.299
3000.5000	457.269
3001.0000	457.277
3001.5000	457.322
3002.0000	457.367
3002.5000	457.395
3003.0000	457.357
3003.5000	457.371
3004.0000	457.425
3004.5000	457.372
3005.0000	457.324
3005.5000	457.324
3006.0000	457.281
3006.5000	457.311
3007.0000	457.363
3007.5000	457.303
3008.0000	457.262
3008.5000	457.275
3009.0000	457.247
3009.5000	457.256
3010.0000	457.323
3010.5000	457.326
3011.0000	457.311
3011.5000	457.334
3012.0000	457.286
3012.5000	457.213
3013.0000	457.231
3013.5000	457.152
3014.0000	457.12
3014.5000	457.205
3015.0000	457.206
3015.5000	457.239
3016.0000	457.249
3016.5000	457.159
3017.0000	457.123
3017.5000	457.106
3018.0000	457.147
3018.5000	457.16
3019.0000	457.098
3019.5000	457.086
3020.0000	457.058
3020.5000	457.084
3021.0000	457.132
3021.5000	457.204
3022.0000	457.201
3022.5000	457.165
3023.0000	457.176
3023.5000	457.085
3024.0000	457.043
3024.5000	456.92
3025.0000	456.862
3025.5000	456.881
3026.0000	456.932
3026.5000	456.98
3027.0000	456.982
3027.5000	456.95
3028.0000	456.862
3028.5000	456.934
3029.0000	456.963
3029.5000	456.976
3030.0000	457.049
3030.5000	457.026
3031.0000	457.058
3031.5000	457.041
3032.0000	456.918
3032.5000	456.945
3033.0000	456.84
3033.5000	456.861
3034.0000	456.96
3034.5000	456.892
3035.0000	456.896
3035.5000	456.88
3036.0000	456.85
3036.5000	456.868
3037.0000	456.881
3037.5000	456.881
3038.0000	456.795
3038.5000	456.773
3039.0000	456.71
3039.5000	456.698
3040.0000	456.747
3040.5000	456.762
3041.0000	456.789
3041.5000	456.81
3042.0000	456.81
3042.5000	456.832
3043.0000	456.849
3043.5000	456.835
3044.0000	456.844
3044.5000	456.753
3045.0000	456.77
3045.5000	456.724
3046.0000	456.703
3046.5000	456.684
3047.0000	456.601
3047.5000	456.585
3048.0000	456.617
3048.5000	456.607
3049.0000	456.672
3049.5000	456.632
3050.0000	456.55
3050.5000	456.634
3051.0000	456.542
3051.5000	456.538
3052.0000	456.556
3052.5000	456.521
3053.0000	456.493
3053.5000	456.484
3054.0000	456.465
3054.5000	456.379
3055.0000	456.485
3055.5000	456.428
3056.0000	456.387
3056.5000	456.437
3057.0000	456.292
3057.5000	456.354
3058.0000	456.359
3058.5000	456.333
3059.0000	456.414
3059.5000	456.377
3060.0000	456.378
3060.5000	456.395
3061.0000	456.434
3061.5000	456.482
3062.0000	456.523
3062.5000	456.436
3063.0000	456.438
3063.5000	456.353
3064.0000	456.253
3064.5000	456.328
3065.0000	456.274
3065.5000	456.345
3066.0000	456.397
3066.5000	456.436
3067.0000	456.313
3067.5000	456.226
3068.0000	456.182
3068.5000	456.135
3069.0000	456.182
3069.5000	456.233
3070.0000	456.227
3070.5000	456.204
3071.0000	456.242
3071.5000	456.19
3072.0000	456.224
3072.5000	456.181
3073.0000	456.165
3073.5000	456.244
3074.0000	456.178
3074.5000	456.201
3075.0000	456.133
3075.5000	456.083
3076.0000	456.092
3076.5000	456.045
3077.0000	456.18
3077.5000	456.061
3078.0000	456.06
3078.5000	456.075
3079.0000	456.026
3079.5000	456.061
3080.0000	456.052
3080.5000	456.053
3081.0000	456.023
3081.5000	456.035
3082.0000	456.006
3082.5000	456.005
3083.0000	455.967
3083.5000	456.002
3084.0000	456.026
3084.5000	455.958
3085.0000	456.004
3085.5000	455.97
3086.0000	455.997
3086.5000	456.032
3087.0000	455.974
3087.5000	455.978
3088.0000	455.854
3088.5000	455.843
3089.0000	455.768
3089.5000	455.747
3090.0000	455.844
3090.5000	455.801
3091.0000	455.882
3091.5000	455.888
3092.0000	455.82
3092.5000	455.831
3093.0000	455.784
3093.5000	455.687
3094.0000	455.707
3094.5000	455.754
3095.0000	455.77
3095.5000	455.842
3096.0000	455.831
3096.5000	455.759
3097.0000	455.831
3097.5000	455.733
3098.0000	455.732
3098.5000	455.741
3099.0000	455.556
3099.5000	455.627
3100.0000	455.58
3100.5000	455.551
3101.0000	455.589
3101.5000	455.539
3102.0000	455.531
3102.5000	455.55
3103.0000	455.53
3103.5000	455.604
3104.0000	455.586
3104.5000	455.501
3105.0000	455.529
3105.5000	455.49
3106.0000	455.53
3106.5000	455.573
3107.0000	455.555
3107.5000	455.566
3108.0000	455.553
3108.5000	455.548
3109.0000	455.529
3109.5000	455.416
3110.0000	455.362
3110.5000	455.401
3111.0000	455.417
3111.5000	455.431
3112.0000	455.446
3112.5000	455.409
3113.0000	455.428
3113.5000	455.529
3114.0000	455.518
3114.5000	455.448
3115.0000	455.437
3115.5000	455.406
3116.0000	455.398
3116.5000	455.385
3117.0000	455.278
3117.5000	455.248
3118.0000	455.265
3118.5000	455.29
3119.0000	455.318
3119.5000	455.304
3120.0000	455.201
3120.5000	455.228
3121.0000	455.301
3121.5000	455.311
3122.0000	455.405
3122.5000	455.381
3123.0000	455.317
3123.5000	455.325
3124.0000	455.258
3124.5000	455.217
3125.0000	455.139
3125.5000	455.115
3126.0000	455.103
3126.5000	455.149
3127.0000	455.176
3127.5000	455.141
3128.0000	455.142
3128.5000	455.036
3129.0000	455.155
3129.5000	455.137
3130.0000	455.056
3130.5000	455.096
3131.0000	455.019
3131.5000	454.952
3132.0000	455.01
3132.5000	455.01
3133.0000	455.021
3133.5000	455.043
3134.0000	454.988
3134.5000	455.02
3135.0000	454.899
3135.5000	454.945
3136.0000	454.941
3136.5000	454.934
3137.0000	455.039
3137.5000	454.996
3138.0000	455.083
3138.5000	455.076
3139.0000	455.001
3139.5000	454.98
3140.0000	454.901
3140.5000	454.846
3141.0000	454.888
3141.5000	454.921
3142.0000	454.928
3142.5000	454.989
3143.0000	454.969
3143.5000	454.932
3144.0000	454.981
3144.5000	454.989
3145.0000	454.948
3145.5000	454.975
3146.0000	454.926
3146.5000	454.812
3147.0000	454.849
3147.5000	454.792
3148.0000	454.792
3148.5000	454.802
3149.0000	454.791
3149.5000	454.842
3150.0000	454.808
3150.5000	454.83
3151.0000	454.807
3151.5000	454.732
3152.0000	454.742
3152.5000	454.654
3153.0000	454.612
3153.5000	454.651
3154.0000	454.568
3154.5000	454.604
3155.0000	454.612
3155.5000	454.62
3156.0000	454.613
3156.5000	454.586
3157.0000	454.591
3157.5000	454.536
3158.0000	454.581
3158.5000	454.591
3159.0000	454.54
3159.5000	454.534
3160.0000	454.542
3160.5000	454.511
3161.0000	454.553
3161.5000	454.526
3162.0000	454.473
3162.5000	454.51
3163.0000	454.505
3163.5000	454.475
3164.0000	454.441
3164.5000	454.386
3165.0000	454.36
3165.5000	454.336
3166.0000	454.438
3166.5000	454.471
3167.0000	454.432
3167.5000	454.499
3168.0000	454.415
3168.5000	454.373
3169.0000	454.317
3169.5000	454.256
3170.0000	454.304
3170.5000	454.307
3171.0000	454.359
3171.5000	454.387
3172.0000	454.329
3172.5000	454.267
3173.0000	454.195
3173.5000	454.136
3174.0000	454.088
3174.5000	454.089
3175.0000	454.121
3175.5000	454.076
3176.0000	454.021
3176.5000	454.025
3177.0000	453.99
3177.5000	454.031
3178.0000	454.156
3178.5000	454.081
3179.0000	454.08
3179.5000	454.085
3180.0000	453.97
3180.5000	453.989
3181.0000	453.945
3181.5000	453.849
3182.0000	453.87
3182.5000	453.894
3183.0000	453.872
3183.5000	453.937
3184.0000	453.908
3184.5000	453.894
3185.0000	453.901
3185.5000	453.866
3186.0000	453.911
3186.5000	453.965
3187.0000	453.926
3187.5000	453.92
3188.0000	453.811
3188.5000	453.724
3189.0000	453.771
3189.5000	453.751
3190.0000	453.788
3190.5000	453.831
3191.0000	453.824
3191.5000	453.82
3192.0000	453.784
3192.5000	453.692
3193.0000	453.733
3193.5000	453.698
3194.0000	453.684
3194.5000	453.672
3195.0000	453.598
3195.5000	453.614
3196.0000	453.615
3196.5000	453.662
3197.0000	453.695
3197.5000	453.692
3198.0000	453.736
3198.5000	453.731
3199.0000	453.724
3199.5000	453.755
3200.0000	453.709
3200.5000	453.664
3201.0000	453.649
3201.5000	453.644
3202.0000	453.668
3202.5000	453.652
3203.0000	453.635
3203.5000	453.54
3204.0000	453.507
3204.5000	453.471
3205.0000	453.457
3205.5000	453.528
3206.0000	453.562
3206.5000	453.55
3207.0000	453.479
3207.5000	453.472
3208.0000	453.383
3208.5000	453.458
3209.0000	453.518
3209.5000	453.396
3210.0000	453.427
3210.5000	453.467
3211.0000	453.426
3211.5000	453.462
3212.0000	453.425
3212.5000	453.355
3213.0000	453.331
3213.5000	453.359
3214.0000	453.344
3214.5000	453.246
3215.0000	453.261
3215.5000	453.218
3216.0000	453.246
3216.5000	453.235
3217.0000	453.159
3217.5000	453.082
3218.0000	453.065
3218.5000	453.111
3219.0000	453.1
3219.5000	453.107
3220.0000	453.147
3220.5000	453.109
3221.0000	453.192
3221.5000	453.223
3222.0000	453.183
3222.5000	453.151
3223.0000	453.074
3223.5000	453.047
3224.0000	453.068
3224.5000	453.022
3225.0000	453.012
3225.5000	453.02
3226.0000	452.952
3226.5000	453.041
3227.0000	453.099
3227.5000	453.1
3228.0000	453.052
3228.5000	453.027
3229.0000	453.028
3229.5000	453.024
3230.0000	453.024
3230.5000	453.013
3231.0000	452.91
3231.5000	452.833
3232.0000	452.857
3232.5000	452.808
3233.0000	452.809
3233.5000	452.911
3234.0000	452.883
3234.5000	452.907
3235.0000	452.961
3235.5000	452.867
3236.0000	452.858
3236.5000	452.863
3237.0000	452.79
3237.5000	452.83
3238.0000	452.805
3238.5000	452.734
3239.0000	452.747
3239.5000	452.732
3240.0000	452.759
3240.5000	452.812
3241.0000	452.829
3241.5000	452.734
3242.0000	452.672
3242.5000	452.645
3243.0000	452.62
3243.5000	452.638
3244.0000	452.66
3244.5000	452.635
3245.0000	452.59
3245.5000	452.589
3246.0000	452.59
3246.5000	452.59
3247.0000	452.561
3247.5000	452.505
3248.0000	452.478
3248.5000	452.442
3249.0000	452.429
3249.5000	452.453
3250.0000	452.395
3250.5000	452.384
3251.0000	452.383
3251.5000	452.348
3252.0000	452.347
3252.5000	452.352
3253.0000	452.342
3253.5000	452.393
3254.0000	452.431
3254.5000	452.42
3255.0000	452.412
3255.5000	452.358
3256.0000	452.299
3256.5000	452.305
3257.0000	452.369
3257.5000	452.4
3258.0000	452.418
3258.5000	452.434
3259.0000	452.39
3259.5000	452.409
3260.0000	452.401
3260.5000	452.325
3261.0000	452.235
3261.5000	452.194
3262.0000	452.176
3262.5000	452.2
3263.0000	452.245
3263.5000	452.241
3264.0000	452.213
3264.5000	452.198
3265.0000	452.151
3265.5000	452.092
3266.0000	452.112
3266.5000	452.073
3267.0000	452.098
3267.5000	452.03
3268.0000	452.004
3268.5000	452.047
3269.0000	451.947
3269.5000	451.976
3270.0000	451.957
3270.5000	451.899
3271.0000	451.925
3271.5000	451.919
3272.0000	451.884
3272.5000	451.854
3273.0000	451.873
3273.5000	451.919
3274.0000	451.932
3274.5000	451.933
3275.0000	451.872
3275.5000	451.798
3276.0000	451.786
3276.5000	451.729
3277.0000	451.738
3277.5000	451.788
3278.0000	451.73
3278.5000	451.775
3279.0000	451.75
3279.5000	451.75
3280.0000	451.733
3280.5000	451.65
3281.0000	451.688
3281.5000	451.631
3282.0000	451.676
3282.5000	451.787
3283.0000	451.77
3283.5000	451.73
3284.0000	451.678
3284.5000	451.551
3285.0000	451.53
3285.5000	451.582
3286.0000	451.597
3286.5000	451.659
3287.0000	451.678
3287.5000	451.597
3288.0000	451.572
3288.5000	451.51
3289.0000	451.455
3289.5000	451.487
3290.0000	451.487
3290.5000	451.517
3291.0000	451.554
3291.5000	451.517
3292.0000	451.467
3292.5000	451.404
3293.0000	451.343
3293.5000	451.365
3294.0000	451.393
3294.5000	451.369
3295.0000	451.349
3295.5000	451.296
3296.0000	451.293
3296.5000	451.299
3297.0000	451.29
3297.5000	451.237
3298.0000	451.216
3298.5000	451.282
3299.0000	451.21
3299.5000	451.274
3300.0000	451.283
3300.5000	451.251
3301.0000	451.295
3301.5000	451.268
3302.0000	451.265
3302.5000	451.22
3303.0000	451.243
3303.5000	451.27
3304.0000	451.236
3304.5000	451.333
3305.0000	451.335
3305.5000	451.309
3306.0000	451.295
3306.5000	451.193
3307.0000	451.13
3307.5000	451.104
3308.0000	451.086
3308.5000	451.178
3309.0000	451.229
3309.5000	451.207
3310.0000	451.208
3310.5000	451.134
3311.0000	451.107
3311.5000	451.113
3312.0000	451.053
3312.5000	450.987
3313.0000	450.975
3313.5000	450.962
3314.0000	451.009
3314.5000	450.977
3315.0000	450.975
3315.5000	450.975
3316.0000	450.908
3316.5000	450.918
3317.0000	450.867
3317.5000	450.872
3318.0000	450.865
3318.5000	450.839
3319.0000	450.832
3319.5000	450.746
3320.0000	450.777
3320.5000	450.82
3321.0000	450.78
3321.5000	450.838
3322.0000	450.824
3322.5000	450.794
3323.0000	450.782
3323.5000	450.689
3324.0000	450.731
3324.5000	450.771
3325.0000	450.819
3325.5000	450.857
3326.0000	450.739
3326.5000	450.687
3327.0000	450.643
3327.5000	450.695
3328.0000	450.756
3328.5000	450.745
3329.0000	450.696
3329.5000	450.627
3330.0000	450.602
3330.5000	450.612
3331.0000	450.633
3331.5000	450.638
3332.0000	450.635
3332.5000	450.55
3333.0000	450.588
3333.5000	450.546
3334.0000	450.546
3334.5000	450.596
3335.0000	450.589
3335.5000	450.612
3336.0000	450.574
3336.5000	450.474
3337.0000	450.471
3337.5000	450.452
3338.0000	450.472
3338.5000	450.491
3339.0000	450.421
3339.5000	450.392
3340.0000	450.296
3340.5000	450.307
3341.0000	450.296
3341.5000	450.281
3342.0000	450.343
3342.5000	450.26
3343.0000	450.243
3343.5000	450.311
3344.0000	450.335
3344.5000	450.417
3345.0000	450.399
3345.5000	450.229
3346.0000	450.178
3346.5000	450.15
3347.0000	450.142
3347.5000	450.147
3348.0000	450.098
3348.5000	450.023
3349.0000	450.059
3349.5000	450.146
3350.0000	450.167
3350.5000	450.239
3351.0000	450.221
3351.5000	450.235
3352.0000	450.159
3352.5000	450.148
3353.0000	450.105
3353.5000	450.05
3354.0000	450.082
3354.5000	450.14
3355.0000	450.136
3355.5000	450.093
3356.0000	450.116
3356.5000	450.05
3357.0000	450.044
3357.5000	450.078
3358.0000	450.021
3358.5000	450.024
3359.0000	449.971
3359.5000	449.947
3360.0000	449.9
3360.5000	449.805
3361.0000	449.853
3361.5000	449.849
3362.0000	449.851
3362.5000	449.859
3363.0000	449.888
3363.5000	449.849
3364.0000	449.902
3364.5000	449.968
3365.0000	449.956
3365.5000	449.944
3366.0000	449.906
3366.5000	449.772
3367.0000	449.672
3367.5000	449.675
3368.0000	449.714
3368.5000	449.772
3369.0000	449.828
3369.5000	449.867
3370.0000	449.768
3370.5000	449.781
3371.0000	449.769
3371.5000	449.716
3372.0000	449.795
3372.5000	449.797
3373.0000	449.827
3373.5000	449.803
3374.0000	449.799
3374.5000	449.813
3375.0000	449.688
3375.5000	449.755
3376.0000	449.708
3376.5000	449.634
3377.0000	449.71
3377.5000	449.637
3378.0000	449.641
3378.5000	449.559
3379.0000	449.494
3379.5000	449.476
3380.0000	449.423
3380.5000	449.509
3381.0000	449.482
3381.5000	449.526
3382.0000	449.564
3382.5000	449.538
3383.0000	449.559
3383.5000	449.492
3384.0000	449.521
3384.5000	449.475
3385.0000	449.532
3385.5000	449.487
3386.0000	449.429
3386.5000	449.456
3387.0000	449.337
3387.5000	449.356
3388.0000	449.299
3388.5000	449.275
3389.0000	449.302
3389.5000	449.285
3390.0000	449.293
3390.5000	449.237
3391.0000	449.234
3391.5000	449.252
3392.0000	449.257
3392.5000	449.286
3393.0000	449.273
3393.5000	449.229
3394.0000	449.254
3394.5000	449.208
3395.0000	449.162
3395.5000	449.155
3396.0000	449.074
3396.5000	449.096
3397.0000	449.149
3397.5000	449.134
3398.0000	449.166
3398.5000	449.134
3399.0000	449.142
3399.5000	449.127
3400.0000	449.099
3400.5000	449.1
3401.0000	449.061
3401.5000	449.081
3402.0000	449.022
3402.5000	448.978
3403.0000	448.952
3403.5000	448.965
3404.0000	448.988
3404.5000	449.069
3405.0000	449.066
3405.5000	448.974
3406.0000	448.957
3406.5000	448.885
3407.0000	448.741
3407.5000	448.754
3408.0000	448.76
3408.5000	448.716
3409.0000	448.82
3409.5000	448.794
3410.0000	448.802
3410.5000	448.86
3411.0000	448.893
3411.5000	448.901
3412.0000	448.869
3412.5000	448.823
3413.0000	448.785
3413.5000	448.837
3414.0000	448.793
3414.5000	448.775
3415.0000	448.765
3415.5000	448.742
3416.0000	448.724
3416.5000	448.698
3417.0000	448.675
3417.5000	448.591
3418.0000	448.576
3418.5000	448.589
3419.0000	448.624
3419.5000	448.641
3420.0000	448.668
3420.5000	448.702
3421.0000	448.6
3421.5000	448.601
3422.0000	448.623
3422.5000	448.56
3423.0000	448.548
3423.5000	448.559
3424.0000	448.501
3424.5000	448.453
3425.0000	448.439
3425.5000	448.372
3426.0000	448.372
3426.5000	448.42
3427.0000	448.48
3427.5000	448.526
3428.0000	448.451
3428.5000	448.423
3429.0000	448.366
3429.5000	448.331
3430.0000	448.345
3430.5000	448.272
3431.0000	448.24
3431.5000	448.216
3432.0000	448.226
3432.5000	448.25
3433.0000	448.216
3433.5000	448.196
3434.0000	448.27
3434.5000	448.269
3435.0000	448.338
3435.5000	448.308
3436.0000	448.206
3436.5000	448.272
3437.0000	448.244
3437.5000	448.293
3438.0000	448.329
3438.5000	448.266
3439.0000	448.207
3439.5000	448.216
3440.0000	448.201
3440.5000	448.186
3441.0000	448.217
3441.5000	448.142
3442.0000	448.128
3442.5000	448.065
3443.0000	448.059
3443.5000	448.041
3444.0000	448.022
3444.5000	447.984
3445.0000	447.91
3445.5000	447.874
3446.0000	447.831
3446.5000	447.951
3447.0000	447.979
3447.5000	448.045
3448.0000	448.049
3448.5000	447.991
3449.0000	448.003
3449.5000	448.012
3450.0000	448.008
3450.5000	448.045
3451.0000	448.04
3451.5000	447.972
3452.0000	447.952
3452.5000	447.874
3453.0000	447.834
3453.5000	447.826
3454.0000	447.832
3454.5000	447.799
3455.0000	447.739
3455.5000	447.721
3456.0000	447.659
3456.5000	447.641
3457.0000	447.702
3457.5000	447.664
3458.0000	447.637
3458.5000	447.729
3459.0000	447.694
3459.5000	447.762
3460.0000	447.783
3460.5000	447.731
3461.0000	447.665
3461.5000	447.538
3462.0000	447.574
3462.5000	447.513
3463.0000	447.535
3463.5000	447.597
3464.0000	447.548
3464.5000	447.605
3465.0000	447.65
3465.5000	447.656
3466.0000	447.661
3466.5000	447.631
3467.0000	447.613
3467.5000	447.615
3468.0000	447.612
3468.5000	447.606
3469.0000	447.595
3469.5000	447.554
3470.0000	447.549
3470.5000	447.523
3471.0000	447.454
3471.5000	447.417
3472.0000	447.426
3472.5000	447.381
3473.0000	447.339
3473.5000	447.39
3474.0000	447.322
3474.5000	447.308
3475.0000	447.361
3475.5000	447.272
3476.0000	447.301
3476.5000	447.333
3477.0000	447.271
3477.5000	447.282
3478.0000	447.196
3478.5000	447.147
3479.0000	447.179
3479.5000	447.168
3480.0000	447.179
3480.5000	447.149
3481.0000	447.194
3481.5000	447.194
3482.0000	447.13
3482.5000	447.182
3483.0000	447.102
3483.5000	447.053
3484.0000	447.076
3484.5000	446.976
3485.0000	446.962
3485.5000	446.974
3486.0000	446.997
3486.5000	447.004
3487.0000	446.983
3487.5000	446.977
3488.0000	446.99
3488.5000	446.999
3489.0000	447.01
3489.5000	446.968
3490.0000	446.884
3490.5000	446.857
3491.0000	446.852
3491.5000	446.845
3492.0000	446.904
3492.5000	446.865
3493.0000	446.806
3493.5000	446.773
3494.0000	446.7
3494.5000	446.667
3495.0000	446.669
3495.5000	446.704
3496.0000	446.715
3496.5000	446.77
3497.0000	446.761
3497.5000	446.719
3498.0000	446.666
3498.5000	446.596
3499.0000	446.562
3499.5000	446.526
3500.0000	446.546
3500.5000	446.521
3501.0000	446.428
3501.5000	446.404
3502.0000	446.443
3502.5000	446.477
3503.0000	446.575
3503.5000	446.609
3504.0000	446.559
3504.5000	446.553
3505.0000	446.513
3505.5000	446.503
3506.0000	446.472
3506.5000	446.436
3507.0000	446.455
3507.5000	446.483
3508.0000	446.522
3508.5000	446.501
3509.0000	446.495
3509.5000	446.378
3510.0000	446.312
3510.5000	446.32
3511.0000	446.211
3511.5000	446.228
3512.0000	446.232
3512.5000	446.224
3513.0000	446.295
3513.5000	446.282
3514.0000	446.275
3514.5000	446.263
3515.0000	446.22
3515.5000	446.204
3516.0000	446.2
3516.5000	446.201
3517.0000	446.187
3517.5000	446.206
3518.0000	446.103
3518.5000	446.051
3519.0000	446.001
3519.5000	445.978
3520.0000	446.034
3520.5000	446.025
3521.0000	446.152
3521.5000	446.166
3522.0000	446.175
3522.5000	446.15
3523.0000	446.07
3523.5000	445.997
3524.0000	445.963
3524.5000	445.936
3525.0000	445.893
3525.5000	445.889
3526.0000	445.859
3526.5000	445.852
3527.0000	445.877
3527.5000	445.848
3528.0000	445.872
3528.5000	445.869
3529.0000	445.878
3529.5000	445.936
3530.0000	445.898
3530.5000	445.866
3531.0000	445.744
3531.5000	445.717
3532.0000	445.676
3532.5000	445.689
3533.0000	445.692
3533.5000	445.649
3534.0000	445.614
3534.5000	445.608
3535.0000	445.635
3535.5000	445.627
3536.0000	445.621
3536.5000	445.626
3537.0000	445.588
3537.5000	445.548
3538.0000	445.545
3538.5000	445.519
3539.0000	445.612
3539.5000	445.615
3540.0000	445.623
3540.5000	445.552
3541.0000	445.512
3541.5000	445.548
3542.0000	445.555
3542.5000	445.623
3543.0000	445.565
3543.5000	445.563
3544.0000	445.529
3544.5000	445.487
3545.0000	445.446
3545.5000	445.39
3546.0000	445.392
3546.5000	445.406
3547.0000	445.347
3547.5000	445.269
3548.0000	445.276
3548.5000	445.238
3549.0000	445.229
3549.5000	445.237
3550.0000	445.263
3550.5000	445.287
3551.0000	445.337
3551.5000	445.328
3552.0000	445.201
3552.5000	445.123
3553.0000	445.157
3553.5000	445.142
3554.0000	445.143
3554.5000	445.14
3555.0000	445.115
3555.5000	445.155
3556.0000	445.23
3556.5000	445.221
3557.0000	445.228
3557.5000	445.189
3558.0000	445.118
3558.5000	445.129
3559.0000	445.003
3559.5000	445.043
3560.0000	445.021
3560.5000	444.952
3561.0000	445.027
3561.5000	445.006
3562.0000	445.001
3562.5000	445.039
3563.0000	444.999
3563.5000	445.03
3564.0000	445.045
3564.5000	444.97
3565.0000	444.999
3565.5000	444.934
3566.0000	444.906
3566.5000	444.981
3567.0000	445.004
3567.5000	444.951
3568.0000	444.879
3568.5000	444.86
3569.0000	444.754
3569.5000	444.744
3570.0000	444.763
3570.5000	444.759
3571.0000	444.746
3571.5000	444.767
3572.0000	444.802
3572.5000	444.764
3573.0000	444.776
3573.5000	444.779
3574.0000	444.8
3574.5000	444.823
3575.0000	444.805
3575.5000	444.743
3576.0000	444.691
3576.5000	444.669
3577.0000	444.708
3577.5000	444.732
3578.0000	444.723
3578.5000	444.704
3579.0000	444.682
3579.5000	444.638
3580.0000	444.618
3580.5000	444.641
3581.0000	444.618
3581.5000	444.633
3582.0000	444.569
3582.5000	444.482
3583.0000	444.419
3583.5000	444.352
3584.0000	444.354
3584.5000	444.381
3585.0000	444.339
3585.5000	444.354
3586.0000	444.4
3586.5000	444.366
3587.0000	444.403
3587.5000	444.383
3588.0000	444.322
3588.5000	444.395
3589.0000	444.387
3589.5000	444.523
3590.0000	444.484
3590.5000	444.416
3591.0000	444.398
3591.5000	444.213
3592.0000	444.286
3592.5000	444.275
3593.0000	444.341
3593.5000	444.357
3594.0000	444.25
3594.5000	444.259
3595.0000	444.175
3595.5000	444.196
3596.0000	444.258
3596.5000	444.247
3597.0000	444.256
3597.5000	444.228
3598.0000	444.206
3598.5000	444.132
3599.0000	444.106
3599.5000	444.083
3600.0000	444.014
3600.5000	443.995
3601.0000	444.029
3601.5000	444.055
3602.0000	444.111
3602.5000	444.151
3603.0000	444.09
3603.5000	444.07
3604.0000	444.013
3604.5000	444.031
3605.0000	444.035
3605.5000	443.98
3606.0000	444.049
3606.5000	443.996
3607.0000	443.954
3607.5000	443.976
3608.0000	443.978
3608.5000	443.959
3609.0000	443.992
3609.5000	444.003
3610.0000	443.902
3610.5000	443.934
3611.0000	443.885
3611.5000	443.841
3612.0000	443.908
3612.5000	443.858
3613.0000	443.857
3613.5000	443.782
3614.0000	443.652
3614.5000	443.66
3615.0000	443.667
3615.5000	443.649
3616.0000	443.737
3616.5000	443.718
3617.0000	443.638
3617.5000	443.709
3618.0000	443.704
3618.5000	443.633
3619.0000	443.659
3619.5000	443.677
3620.0000	443.643
3620.5000	443.614
3621.0000	443.607
3621.5000	443.515
3622.0000	443.389
3622.5000	443.424
3623.0000	443.394
3623.5000	443.417
3624.0000	443.598
3624.5000	443.571
3625.0000	443.61
3625.5000	443.625
3626.0000	443.448
3626.5000	443.454
3627.0000	443.394
3627.5000	443.364
3628.0000	443.463
3628.5000	443.403
3629.0000	443.431
3629.5000	443.379
3630.0000	443.311
3630.5000	443.353
3631.0000	443.305
3631.5000	443.325
3632.0000	443.265
3632.5000	443.3
3633.0000	443.289
3633.5000	443.288
3634.0000	443.308
3634.5000	443.284
3635.0000	443.294
3635.5000	443.289
3636.0000	443.276
3636.5000	443.16
3637.0000	443.191
3637.5000	443.165
3638.0000	443.165
3638.5000	443.168
3639.0000	443.081
3639.5000	443.107
3640.0000	443.137
3640.5000	443.178
3641.0000	443.16
3641.5000	443.21
3642.0000	443.126
3642.5000	443.102
3643.0000	443.15
3643.5000	443.023
3644.0000	443.083
3644.5000	443.057
3645.0000	442.969
3645.5000	442.926
3646.0000	442.891
3646.5000	442.96
3647.0000	442.957
3647.5000	442.992
3648.0000	443.006
3648.5000	442.903
3649.0000	442.953
3649.5000	442.892
3650.0000	442.865
3650.5000	442.872
3651.0000	442.846
3651.5000	442.881
3652.0000	442.836
3652.5000	442.788
3653.0000	442.748
3653.5000	442.771
3654.0000	442.755
3654.5000	442.769
3655.0000	442.739
3655.5000	442.662
3656.0000	442.686
3656.5000	442.738
3657.0000	442.728
3657.5000	442.738
3658.0000	442.766
3658.5000	442.656
3659.0000	442.635
3659.5000	442.618
3660.0000	442.529
3660.5000	442.609
3661.0000	442.581
3661.5000	442.576
3662.0000	442.571
3662.5000	442.516
3663.0000	442.604
3663.5000	442.601
3664.0000	442.592
3664.5000	442.578
3665.0000	442.505
3665.5000	442.501
3666.0000	442.514
3666.5000	442.492
3667.0000	442.481
3667.5000	442.473
3668.0000	442.453
3668.5000	442.471
3669.0000	442.539
3669.5000	442.463
3670.0000	442.45
3670.5000	442.435
3671.0000	442.327
3671.5000	442.388
3672.0000	442.389
3672.5000	442.359
3673.0000	442.356
3673.5000	442.288
3674.0000	442.248
3674.5000	442.251
3675.0000	442.209
3675.5000	442.175
3676.0000	442.134
3676.5000	442.134
3677.0000	442.182
3677.5000	442.219
3678.0000	442.249
3678.5000	442.208
3679.0000	442.064
3679.5000	442.076
3680.0000	442.005
3680.5000	442.049
3681.0000	442.187
3681.5000	442.176
3682.0000	442.249
3682.5000	442.178
3683.0000	442.062
3683.5000	441.927
3684.0000	441.857
3684.5000	441.819
3685.0000	441.873
3685.5000	441.943
3686.0000	441.961
3686.5000	441.934
3687.0000	441.896
3687.5000	441.866
3688.0000	441.82
3688.5000	441.881
3689.0000	441.897
3689.5000	441.902
3690.0000	441.918
3690.5000	441.927
3691.0000	441.915
3691.5000	441.907
3692.0000	441.92
3692.5000	441.846
3693.0000	441.87
3693.5000	441.837
3694.0000	441.835
3694.5000	441.794
3695.0000	441.663
3695.5000	441.688
3696.0000	441.647
3696.5000	441.719
3697.0000	441.738
3697.5000	441.656
3698.0000	441.599
3698.5000	441.571
3699.0000	441.585
3699.5000	441.57
3700.0000	441.655
3700.5000	441.652
3701.0000	441.625
3701.5000	441.726
3702.0000	441.6
3702.5000	441.566
3703.0000	441.624
3703.5000	441.545
3704.0000	441.591
3704.5000	441.564
3705.0000	441.52
3705.5000	441.515
3706.0000	441.437
3706.5000	441.436
3707.0000	441.378
3707.5000	441.332
3708.0000	441.413
3708.5000	441.409
3709.0000	441.371
3709.5000	441.382
3710.0000	441.376
3710.5000	441.32
3711.0000	441.397
3711.5000	441.416
3712.0000	441.412
3712.5000	441.491
3713.0000	441.465
3713.5000	441.435
3714.0000	441.4
3714.5000	441.33
3715.0000	441.266
3715.5000	441.269
3716.0000	441.229
3716.5000	441.208
3717.0000	441.266
3717.5000	441.271
3718.0000	441.209
3718.5000	441.261
3719.0000	441.228
3719.5000	441.21
3720.0000	441.24
3720.5000	441.252
3721.0000	441.271
3721.5000	441.242
3722.0000	441.29
3722.5000	441.268
3723.0000	441.203
3723.5000	441.246
3724.0000	441.275
3724.5000	441.231
3725.0000	441.32
3725.5000	441.254
3726.0000	441.183
3726.5000	441.143
3727.0000	441.056
3727.5000	441.141
3728.0000	441.143
3728.5000	441.143
3729.0000	441.156
3729.5000	441.094
3730.0000	441.014
3730.5000	441.033
3731.0000	441.003
3731.5000	440.925
3732.0000	440.99
3732.5000	440.901
3733.0000	440.888
3733.5000	440.942
3734.0000	440.875
3734.5000	440.925
3735.0000	440.891
3735.5000	440.863
3736.0000	440.915
3736.5000	440.96
3737.0000	440.932
3737.5000	440.891
3738.0000	440.917
3738.5000	440.891
3739.0000	440.994
3739.5000	441
3740.0000	440.959
3740.5000	440.907
3741.0000	440.85
3741.5000	440.803
3742.0000	440.812
3742.5000	440.827
3743.0000	440.791
3743.5000	440.832
3744.0000	440.805
3744.5000	440.816
3745.0000	440.867
3745.5000	440.88
3746.0000	440.87
3746.5000	440.868
3747.0000	440.868
3747.5000	440.821
3748.0000	440.763
3748.5000	440.723
3749.0000	440.646
3749.5000	440.671
3750.0000	440.769
3750.5000	440.817
3751.0000	440.805
3751.5000	440.811
3752.0000	440.73
3752.5000	440.728
3753.0000	440.731
3753.5000	440.705
3754.0000	440.678
3754.5000	440.622
3755.0000	440.691
3755.5000	440.689
3756.0000	440.757
3756.5000	440.727
3757.0000	440.625
3757.5000	440.652
3758.0000	440.565
3758.5000	440.523
3759.0000	440.528
3759.5000	440.505
3760.0000	440.498
3760.5000	440.529
3761.0000	440.557
3761.5000	440.54
3762.0000	440.588
3762.5000	440.582
3763.0000	440.624
3763.5000	440.591
3764.0000	440.533
3764.5000	440.514
3765.0000	440.444
3765.5000	440.483
3766.0000	440.518
3766.5000	440.523
3767.0000	440.553
3767.5000	440.511
3768.0000	440.496
3768.5000	440.533
3769.0000	440.494
3769.5000	440.517
3770.0000	440.502
3770.5000	440.498
3771.0000	440.483
3771.5000	440.503
3772.0000	440.544
3772.5000	440.437
3773.0000	440.516
3773.5000	440.452
3774.0000	440.377
3774.5000	440.355
3775.0000	440.201
3775.5000	440.216
3776.0000	440.238
3776.5000	440.312
3777.0000	440.381
3777.5000	440.392
3778.0000	440.392
3778.5000	440.355
3779.0000	440.351
3779.5000	440.334
3780.0000	440.355
3780.5000	440.31
3781.0000	440.355
3781.5000	440.331
3782.0000	440.232
3782.5000	440.304
3783.0000	440.21
3783.5000	440.207
3784.0000	440.269
3784.5000	440.232
3785.0000	440.273
3785.5000	440.237
3786.0000	440.259
3786.5000	440.258
3787.0000	440.224
3787.5000	440.239
3788.0000	440.242
3788.5000	440.281
3789.0000	440.203
3789.5000	440.261
3790.0000	440.207
3790.5000	440.184
3791.0000	440.235
3791.5000	440.207
3792.0000	440.179
3792.5000	440.188
3793.0000	440.221
3793.5000	440.285
3794.0000	440.282
3794.5000	440.239
3795.0000	440.241
3795.5000	440.195
3796.0000	440.246
3796.5000	440.267
3797.0000	440.225
3797.5000	440.204
3798.0000	440.207
3798.5000	440.171
3799.0000	440.172
3799.5000	440.157
3800.0000	440.092
3800.5000	440.132
3801.0000	440.177
3801.5000	440.204
3802.0000	440.213
3802.5000	440.182
3803.0000	440.175
3803.5000	440.151
3804.0000	440.184
3804.5000	440.192
3805.0000	440.184
3805.5000	440.262
3806.0000	440.227
3806.5000	440.264
3807.0000	440.223
3807.5000	440.104
3808.0000	440.118
3808.5000	440.059
3809.0000	440.164
3809.5000	440.175
3810.0000	440.189
3810.5000	440.23
3811.0000	440.223
3811.5000	440.193
3812.0000	440.214
3812.5000	440.194
3813.0000	440.05
3813.5000	440.038
3814.0000	440.013
3814.5000	440.039
3815.0000	440.132
3815.5000	440.157
3816.0000	440.113
3816.5000	440.04
3817.0000	440.02
3817.5000	440.04
3818.0000	440.091
3818.5000	440.133
3819.0000	440.111
3819.5000	440.05
3820.0000	440.013
3820.5000	440.003
3821.0000	439.964
3821.5000	440.012
3822.0000	439.979
3822.5000	440.011
3823.0000	440.075
3823.5000	440.128
3824.0000	440.177
3824.5000	440.126
3825.0000	440.186
3825.5000	440.155
3826.0000	440.141
3826.5000	440.201
3827.0000	440.155
3827.5000	440.137
3828.0000	440.053
3828.5000	439.946
3829.0000	439.93
3829.5000	439.871
3830.0000	439.997
3830.5000	440.122
3831.0000	440.056
3831.5000	440.024
3832.0000	439.965
3832.5000	439.876
3833.0000	439.911
3833.5000	440.048
3834.0000	440.078
3834.5000	440.158
3835.0000	440.216
3835.5000	440.157
3836.0000	440.173
3836.5000	440.175
3837.0000	440.223
3837.5000	440.202
3838.0000	440.238
3838.5000	440.241
3839.0000	440.21
3839.5000	440.243
3840.0000	440.235
3840.5000	440.165
3841.0000	440.127
3841.5000	440.121
3842.0000	440.078
3842.5000	440.108
3843.0000	440.137
3843.5000	440.178
3844.0000	440.229
3844.5000	440.238
3845.0000	440.179
3845.5000	440.196
3846.0000	440.15
3846.5000	440.119
3847.0000	440.173
3847.5000	440.12
3848.0000	440.102
3848.5000	440.071
3849.0000	440.008
3849.5000	439.972
3850.0000	440.003
3850.5000	440
3851.0000	440.029
3851.5000	440.105
3852.0000	440.119
3852.5000	440.175
3853.0000	440.171
3853.5000	440.118
3854.0000	440.004
3854.5000	440.029
3855.0000	440.012
3855.5000	440.011
3856.0000	440.066
3856.5000	440.042
3857.0000	440.132
3857.5000	440.063
3858.0000	440.048
3858.5000	440.083
3859.0000	439.994
3859.5000	440.066
3860.0000	440.105
3860.5000	440.044
3861.0000	440.03
3861.5000	440.046
3862.0000	440.01
3862.5000	440.063
3863.0000	440.11
3863.5000	440.083
3864.0000	440.032
3864.5000	440.017
3865.0000	440.063
3865.5000	440.093
3866.0000	440.211
3866.5000	440.209
3867.0000	440.148
3867.5000	440.143
3868.0000	440.048
3868.5000	439.989
3869.0000	440.016
3869.5000	439.943
3870.0000	440.019
3870.5000	440.065
3871.0000	439.976
3871.5000	439.974
3872.0000	439.958
3872.5000	439.98
3873.0000	440.05
3873.5000	440.087
3874.0000	440.088
3874.5000	440.094
3875.0000	440.069
3875.5000	440.119
3876.0000	440.101
3876.5000	440.053
3877.0000	440.069
3877.5000	440.059
3878.0000	440.09
3878.5000	440.119
3879.0000	440.099
3879.5000	440.123
3880.0000	440.087
3880.5000	440.089
3881.0000	440.187
3881.5000	440.195
3882.0000	440.249
3882.5000	440.205
3883.0000	440.108
3883.5000	440.095
3884.0000	440.086
3884.5000	440.106
3885.0000	440.175
3885.5000	440.084
3886.0000	440.029
3886.5000	440.013
3887.0000	439.971
3887.5000	440.007
3888.0000	440.052
3888.5000	440.024
3889.0000	440.026
3889.5000	440.062
3890.0000	439.987
3890.5000	440
3891.0000	439.994
3891.5000	439.968
3892.0000	439.961
3892.5000	440.008
3893.0000	440.022
3893.5000	440.044
3894.0000	440.128
3894.5000	440.094
3895.0000	440.064
3895.5000	440.061
3896.0000	440.056
3896.5000	440.036
3897.0000	440.043
3897.5000	440.014
3898.0000	439.986
3898.5000	440.085
3899.0000	440.165
3899.5000	440.167
3900.0000	440.129
3900.5000	440.081
3901.0000	440.026
3901.5000	439.994
3902.0000	439.987
3902.5000	439.966
3903.0000	439.955
3903.5000	439.979
3904.0000	440.044
3904.5000	440.029
3905.0000	440.03
3905.5000	439.972
3906.0000	439.901
3906.5000	439.844
3907.0000	439.821
3907.5000	439.895
3908.0000	439.949
3908.5000	439.979
3909.0000	439.988
3909.5000	440.006
3910.0000	439.955
3910.5000	440.05
3911.0000	440.045
3911.5000	440.048
3912.0000	440.117
3912.5000	440.115
3913.0000	440.105
3913.5000	440.135
3914.0000	440.149
3914.5000	440.044
3915.0000	440.044
3915.5000	439.996
3916.0000	439.923
3916.5000	439.919
3917.0000	439.951
3917.5000	439.903
3918.0000	439.888
3918.5000	439.964
3919.0000	439.904
3919.5000	439.916
3920.0000	439.97
3920.5000	439.893
3921.0000	439.906
3921.5000	439.955
3922.0000	439.953
3922.5000	439.986
3923.0000	439.962
3923.5000	439.942
3924.0000	439.932
3924.5000	439.952
3925.0000	439.935
3925.5000	439.874
3926.0000	439.889
3926.5000	439.864
3927.0000	439.938
3927.5000	439.968
3928.0000	439.944
3928.5000	439.907
3929.0000	439.891
3929.5000	439.878
3930.0000	439.849
3930.5000	439.908
3931.0000	439.927
3931.5000	439.918
3932.0000	439.899
3932.5000	439.829
3933.0000	439.844
3933.5000	439.869
3934.0000	439.895
3934.5000	439.896
3935.0000	439.802
3935.5000	439.878
3936.0000	439.903
3936.5000	439.917
3937.0000	439.882
3937.5000	439.818
3938.0000	439.799
3938.5000	439.775
3939.0000	439.824
3939.5000	439.824
3940.0000	439.817
3940.5000	439.89
3941.0000	439.956
3941.5000	439.876
3942.0000	439.903
3942.5000	439.864
3943.0000	439.842
3943.5000	439.901
3944.0000	439.805
3944.5000	439.836
3945.0000	439.82
3945.5000	439.796
3946.0000	439.868
3946.5000	439.798
3947.0000	439.725
3947.5000	439.733
3948.0000	439.682
3948.5000	439.661
3949.0000	439.673
3949.5000	439.666
3950.0000	439.66
3950.5000	439.666
3951.0000	439.661
3951.5000	439.702
3952.0000	439.704
3952.5000	439.734
3953.0000	439.77
3953.5000	439.708
3954.0000	439.764
3954.5000	439.736
3955.0000	439.742
3955.5000	439.807
3956.0000	439.758
3956.5000	439.768
3957.0000	439.743
3957.5000	439.738
3958.0000	439.683
3958.5000	439.694
3959.0000	439.687
3959.5000	439.602
3960.0000	439.666
3960.5000	439.631
3961.0000	439.604
3961.5000	439.663
3962.0000	439.683
3962.5000	439.71
3963.0000	439.746
3963.5000	439.682
3964.0000	439.684
3964.5000	439.707
3965.0000	439.64
3965.5000	439.675
3966.0000	439.611
3966.5000	439.582
3967.0000	439.586
3967.5000	439.554
3968.0000	439.605
3968.5000	439.572
3969.0000	439.609
3969.5000	439.648
3970.0000	439.585
3970.5000	439.616
3971.0000	439.537
3971.5000	439.53
3972.0000	439.528
3972.5000	439.563
3973.0000	439.656
3973.5000	439.624
3974.0000	439.653
3974.5000	439.599
3975.0000	439.548
3975.5000	439.616
3976.0000	439.581
3976.5000	439.574
3977.0000	439.592
3977.5000	439.5
3978.0000	439.525
3978.5000	439.494
3979.0000	439.475
3979.5000	439.496
3980.0000	439.477
3980.5000	439.511
3981.0000	439.476
3981.5000	439.48
3982.0000	439.442
3982.5000	439.407
3983.0000	439.474
3983.5000	439.492
3984.0000	439.584
3984.5000	439.619
3985.0000	439.535
3985.5000	439.392
3986.0000	439.299
3986.5000	439.234
3987.0000	439.319
3987.5000	439.387
3988.0000	439.426
3988.5000	439.465
3989.0000	439.432
3989.5000	439.498
3990.0000	439.509
3990.5000	439.513
3991.0000	439.529
3991.5000	439.476
3992.0000	439.463
3992.5000	439.5
3993.0000	439.506
3993.5000	439.485
3994.0000	439.494
3994.5000	439.486
3995.0000	439.459
3995.5000	439.469
3996.0000	439.512
3996.5000	439.452
3997.0000	439.468
3997.5000	439.473
3998.0000	439.415
3998.5000	439.394
3999.0000	439.361
3999.5000	439.344
4000.0000	439.332
4000.5000	439.415
4001.0000	439.437
4001.5000	439.44
4002.0000	439.43
4002.5000	439.383
4003.0000	439.371
4003.5000	439.329
4004.0000	439.324
4004.5000	439.319
4005.0000	439.26
4005.5000	439.314
4006.0000	439.357
4006.5000	439.357
4007.0000	439.374
4007.5000	439.391
4008.0000	439.332
4008.5000	439.337
4009.0000	439.267
4009.5000	439.22
4010.0000	439.18
4010.5000	439.132
4011.0000	439.273
4011.5000	439.317
4012.0000	439.348
4012.5000	439.378
4013.0000	439.294
4013.5000	439.329
4014.0000	439.348
4014.5000	439.316
4015.0000	439.357
4015.5000	439.33
4016.0000	439.33
4016.5000	439.332
4017.0000	439.218
4017.5000	439.195
4018.0000	439.149
4018.5000	439.188
4019.0000	439.271
4019.5000	439.222
4020.0000	439.226
4020.5000	439.236
4021.0000	439.233
4021.5000	439.326
4022.0000	439.367
4022.5000	439.274
4023.0000	439.295
4023.5000	439.217
4024.0000	439.193
4024.5000	439.21
4025.0000	439.229
4025.5000	439.209
4026.0000	439.244
4026.5000	439.299
4027.0000	439.308
4027.5000	439.327
4028.0000	439.238
4028.5000	439.244
4029.0000	439.103
4029.5000	439.08
4030.0000	439.084
4030.5000	439.035
4031.0000	439.045
4031.5000	439.073
4032.0000	439.107
4032.5000	439.16
4033.0000	439.214
4033.5000	439.156
4034.0000	439.142
4034.5000	439.102
4035.0000	439.07
4035.5000	439.085
4036.0000	439.172
4036.5000	439.185
4037.0000	439.199
4037.5000	439.217
4038.0000	439.155
4038.5000	439.084
4039.0000	439.052
4039.5000	439.013
4040.0000	438.988
4040.5000	439.023
4041.0000	439.017
4041.5000	439.009
4042.0000	438.978
4042.5000	438.978
4043.0000	438.996
4043.5000	438.982
4044.0000	438.891
4044.5000	438.845
4045.0000	438.899
4045.5000	438.911
4046.0000	439.001
4046.5000	438.916
4047.0000	438.874
4047.5000	438.889
4048.0000	438.857
4048.5000	438.991
4049.0000	438.993
4049.5000	439.027
4050.0000	439.046
4050.5000	439.018
4051.0000	438.95
4051.5000	438.967
4052.0000	438.96
4052.5000	438.965
4053.0000	438.975
4053.5000	438.872
4054.0000	438.94
4054.5000	438.913
4055.0000	438.938
4055.5000	439.014
4056.0000	438.963
4056.5000	438.983
4057.0000	439.012
4057.5000	438.915
4058.0000	438.922
4058.5000	438.897
4059.0000	438.887
4059.5000	438.934
4060.0000	438.859
4060.5000	438.859
4061.0000	438.853
4061.5000	438.809
4062.0000	438.877
4062.5000	438.897
4063.0000	438.886
4063.5000	438.935
4064.0000	438.84
4064.5000	438.822
4065.0000	438.728
4065.5000	438.686
4066.0000	438.779
4066.5000	438.736
4067.0000	438.791
4067.5000	438.781
4068.0000	438.737
4068.5000	438.725
4069.0000	438.746
4069.5000	438.748
4070.0000	438.765
4070.5000	438.782
4071.0000	438.755
4071.5000	438.762
4072.0000	438.729
4072.5000	438.736
4073.0000	438.696
4073.5000	438.705
4074.0000	438.679
4074.5000	438.634
4075.0000	438.701
4075.5000	438.687
4076.0000	438.737
4076.5000	438.825
4077.0000	438.794
4077.5000	438.791
4078.0000	438.715
4078.5000	438.613
4079.0000	438.582
4079.5000	438.535
4080.0000	438.566
4080.5000	438.667
4081.0000	438.71
4081.5000	438.803
4082.0000	438.739
4082.5000	438.648
4083.0000	438.691
4083.5000	438.66
4084.0000	438.744
4084.5000	438.73
4085.0000	438.667
4085.5000	438.634
4086.0000	438.609
4086.5000	438.66
4087.0000	438.584
4087.5000	438.616
4088.0000	438.53
4088.5000	438.493
4089.0000	438.545
4089.5000	438.515
4090.0000	438.553
4090.5000	438.613
4091.0000	438.62
4091.5000	438.578
4092.0000	438.672
4092.5000	438.542
4093.0000	438.448
4093.5000	438.537
4094.0000	438.464
4094.5000	438.459
4095.0000	438.454
4095.5000	438.384
4096.0000	438.398
4096.5000	438.42
4097.0000	438.492
4097.5000	438.439
4098.0000	438.384
4098.5000	438.42
4099.0000	438.385
4099.5000	438.417
4100.0000	438.421
4100.5000	438.403
4101.0000	438.436
4101.5000	438.411
4102.0000	438.432
4102.5000	438.448
4103.0000	438.439
4103.5000	438.479
4104.0000	438.493
4104.5000	438.519
4105.0000	438.484
4105.5000	438.467
4106.0000	438.408
4106.5000	438.385
4107.0000	438.358
4107.5000	438.367
4108.0000	438.351
4108.5000	438.365
4109.0000	438.448
4109.5000	438.43
4110.0000	438.464
4110.5000	438.321
4111.0000	438.257
4111.5000	438.234
4112.0000	438.219
4112.5000	438.354
4113.0000	438.38
4113.5000	438.375
4114.0000	438.355
4114.5000	438.314
4115.0000	438.312
4115.5000	438.36
4116.0000	438.392
4116.5000	438.363
4117.0000	438.318
4117.5000	438.296
4118.0000	438.329
4118.5000	438.293
4119.0000	438.344
4119.5000	438.305
4120.0000	438.243
4120.5000	438.265
4121.0000	438.249
4121.5000	438.235
4122.0000	438.256
4122.5000	438.251
4123.0000	438.226
4123.5000	438.251
4124.0000	438.233
4124.5000	438.262
4125.0000	438.243
4125.5000	438.227
4126.0000	438.179
4126.5000	438.193
4127.0000	438.2
4127.5000	438.188
4128.0000	438.316
4128.5000	438.212
4129.0000	438.157
4129.5000	438.195
4130.0000	438.114
4130.5000	438.121
4131.0000	438.156
4131.5000	438.085
4132.0000	438.065
4132.5000	438.107
4133.0000	438.072
4133.5000	438.028
4134.0000	438.061
4134.5000	438.108
4135.0000	438.175
4135.5000	438.263
4136.0000	438.169
4136.5000	438.092
4137.0000	438.065
4137.5000	437.976
4138.0000	438.007
4138.5000	438.002
4139.0000	437.977
4139.5000	437.994
4140.0000	438.009
4140.5000	438.02
4141.0000	437.986
4141.5000	438.018
4142.0000	437.962
4142.5000	437.965
4143.0000	438.004
4143.5000	437.949
4144.0000	437.99
4144.5000	438.044
4145.0000	438.06
4145.5000	438.071
4146.0000	438.022
4146.5000	437.975
4147.0000	437.896
4147.5000	437.902
4148.0000	437.887
4148.5000	437.874
4149.0000	437.853
4149.5000	437.829
4150.0000	437.87
4150.5000	437.856
4151.0000	437.88
4151.5000	437.891
4152.0000	437.845
4152.5000	437.826
4153.0000	437.802
4153.5000	437.729
4154.0000	437.771
4154.5000	437.716
4155.0000	437.704
4155.5000	437.711
4156.0000	437.707
4156.5000	437.744
4157.0000	437.738
4157.5000	437.777
4158.0000	437.796
4158.5000	437.743
4159.0000	437.713
4159.5000	437.767
4160.0000	437.717
4160.5000	437.71
4161.0000	437.734
4161.5000	437.685
4162.0000	437.707
4162.5000	437.716
4163.0000	437.711
4163.5000	437.687
4164.0000	437.664
4164.5000	437.648
4165.0000	437.642
4165.5000	437.644
4166.0000	437.613
4166.5000	437.625
4167.0000	437.609
4167.5000	437.602
4168.0000	437.619
4168.5000	437.617
4169.0000	437.59
4169.5000	437.567
4170.0000	437.503
4170.5000	437.495
4171.0000	437.505
4171.5000	437.532
4172.0000	437.56
4172.5000	437.535
4173.0000	437.558
4173.5000	437.537
4174.0000	437.499
4174.5000	437.518
4175.0000	437.527
4175.5000	437.517
4176.0000	437.532
4176.5000	437.56
4177.0000	437.597
4177.5000	437.506
4178.0000	437.51
4178.5000	437.459
4179.0000	437.425
4179.5000	437.545
4180.0000	437.545
4180.5000	437.498
4181.0000	437.495
4181.5000	437.374
4182.0000	437.348
4182.5000	437.401
4183.0000	437.333
4183.5000	437.351
4184.0000	437.366
4184.5000	437.326
4185.0000	437.359
4185.5000	437.399
4186.0000	437.388
4186.5000	437.432
4187.0000	437.409
4187.5000	437.419
4188.0000	437.41
4188.5000	437.392
4189.0000	437.391
4189.5000	437.39
4190.0000	437.398
4190.5000	437.379
4191.0000	437.303
4191.5000	437.227
4192.0000	437.207
4192.5000	437.223
4193.0000	437.258
4193.5000	437.273
4194.0000	437.233
4194.5000	437.186
4195.0000	437.197
4195.5000	437.244
4196.0000	437.245
4196.5000	437.238
4197.0000	437.237
4197.5000	437.235
4198.0000	437.255
4198.5000	437.227
4199.0000	437.189
4199.5000	437.186
4200.0000	437.148
4200.5000	437.146
4201.0000	437.143
4201.5000	437.035
4202.0000	437.046
4202.5000	437.088
4203.0000	437.116
4203.5000	437.182
4204.0000	437.239
4204.5000	437.198
4205.0000	437.177
4205.5000	437.134
4206.0000	437.043
4206.5000	437.064
4207.0000	437.117
4207.5000	437.118
4208.0000	437.143
4208.5000	437.123
4209.0000	437.04
4209.5000	437.039
4210.0000	437.006
4210.5000	436.979
4211.0000	436.929
4211.5000	436.875
4212.0000	436.883
4212.5000	436.915
4213.0000	436.962
4213.5000	437.003
4214.0000	436.949
4214.5000	436.885
4215.0000	436.849
4215.5000	436.797
4216.0000	436.877
4216.5000	436.911
4217.0000	436.972
4217.5000	436.998
4218.0000	436.941
4218.5000	436.864
4219.0000	436.881
4219.5000	436.956
4220.0000	436.945
4220.5000	436.977
4221.0000	436.919
4221.5000	436.823
4222.0000	436.854
4222.5000	436.868
4223.0000	436.897
4223.5000	436.887
4224.0000	436.914
4224.5000	436.841
4225.0000	436.758
4225.5000	436.775
4226.0000	436.672
4226.5000	436.738
4227.0000	436.804
4227.5000	436.759
4228.0000	436.723
4228.5000	436.667
4229.0000	436.614
4229.5000	436.636
4230.0000	436.736
4230.5000	436.741
4231.0000	436.782
4231.5000	436.743
4232.0000	436.673
4232.5000	436.723
4233.0000	436.653
4233.5000	436.697
4234.0000	436.752
4234.5000	436.66
4235.0000	436.681
4235.5000	436.64
4236.0000	436.602
4236.5000	436.662
4237.0000	436.648
4237.5000	436.587
4238.0000	436.549
4238.5000	436.555
4239.0000	436.543
4239.5000	436.537
4240.0000	436.549
4240.5000	436.574
4241.0000	436.537
4241.5000	436.55
4242.0000	436.55
4242.5000	436.43
4243.0000	436.48
4243.5000	436.575
4244.0000	436.53
4244.5000	436.531
4245.0000	436.482
4245.5000	436.399
4246.0000	436.434
4246.5000	436.478
4247.0000	436.475
4247.5000	436.457
4248.0000	436.369
4248.5000	436.324
4249.0000	436.316
4249.5000	436.343
4250.0000	436.426
4250.5000	436.428
4251.0000	436.396
4251.5000	436.345
4252.0000	436.33
4252.5000	436.353
4253.0000	436.386
4253.5000	436.431
4254.0000	436.388
4254.5000	436.385
4255.0000	436.324
4255.5000	436.284
4256.0000	436.251
4256.5000	436.165
4257.0000	436.158
4257.5000	436.176
4258.0000	436.199
4258.5000	436.232
4259.0000	436.276
4259.5000	436.258
4260.0000	436.304
4260.5000	436.314
4261.0000	436.25
4261.5000	436.238
4262.0000	436.138
4262.5000	436.113
4263.0000	436.098
4263.5000	436.084
4264.0000	436.148
4264.5000	436.18
4265.0000	436.255
4265.5000	436.231
4266.0000	436.195
4266.5000	436.066
4267.0000	436.026
4267.5000	436.067
4268.0000	436.078
4268.5000	436.21
4269.0000	436.154
4269.5000	436.109
4270.0000	436.087
4270.5000	436.071
4271.0000	436.088
4271.5000	436.096
4272.0000	436.066
4272.5000	436.011
4273.0000	436.016
4273.5000	435.953
4274.0000	435.982
4274.5000	435.967
4275.0000	436.015
4275.5000	436.046
4276.0000	436.057
4276.5000	436.077
4277.0000	436.012
4277.5000	435.968
4278.0000	435.887
4278.5000	435.819
4279.0000	435.817
4279.5000	435.871
4280.0000	435.919
4280.5000	436.064
4281.0000	436.056
4281.5000	436
4282.0000	435.973
4282.5000	435.831
4283.0000	435.813
4283.5000	435.809
4284.0000	435.859
4284.5000	435.891
4285.0000	435.967
4285.5000	435.98
4286.0000	435.903
4286.5000	435.934
4287.0000	435.793
4287.5000	435.779
4288.0000	435.768
4288.5000	435.712
4289.0000	435.748
4289.5000	435.815
4290.0000	435.815
4290.5000	435.793
4291.0000	435.811
4291.5000	435.744
4292.0000	435.728
4292.5000	435.761
4293.0000	435.705
4293.5000	435.69
4294.0000	435.706
4294.5000	435.644
4295.0000	435.671
4295.5000	435.626
4296.0000	435.674
4296.5000	435.705
4297.0000	435.708
4297.5000	435.727
4298.0000	435.69
4298.5000	435.697
4299.0000	435.651
4299.5000	435.588
4300.0000	435.627
4300.5000	435.565
4301.0000	435.524
4301.5000	435.625
4302.0000	435.473
4302.5000	435.468
4303.0000	435.536
4303.5000	435.48
4304.0000	435.577
4304.5000	435.588
4305.0000	435.585
4305.5000	435.517
4306.0000	435.504
4306.5000	435.487
4307.0000	435.438
4307.5000	435.459
4308.0000	435.434
4308.5000	435.385
4309.0000	435.363
4309.5000	435.375
4310.0000	435.354
4310.5000	435.414
4311.0000	435.477
4311.5000	435.489
4312.0000	435.508
4312.5000	435.512
4313.0000	435.505
4313.5000	435.475
4314.0000	435.488
4314.5000	435.508
4315.0000	435.456
4315.5000	435.43
4316.0000	435.385
4316.5000	435.328
4317.0000	435.323
4317.5000	435.249
4318.0000	435.18
4318.5000	435.199
4319.0000	435.167
4319.5000	435.232
4320.0000	435.291
4320.5000	435.241
4321.0000	435.276
4321.5000	435.23
4322.0000	435.184
4322.5000	435.195
4323.0000	435.1
4323.5000	435.144
4324.0000	435.154
4324.5000	435.089
4325.0000	435.123
4325.5000	435.072
4326.0000	434.997
4326.5000	435.014
4327.0000	435.037
4327.5000	435.08
4328.0000	435.095
4328.5000	435.071
4329.0000	435.038
4329.5000	435.086
4330.0000	435.069
4330.5000	435.078
4331.0000	435.063
4331.5000	434.998
4332.0000	434.91
4332.5000	434.881
4333.0000	434.906
4333.5000	434.852
4334.0000	434.932
4334.5000	435.025
4335.0000	434.952
4335.5000	434.965
4336.0000	435.02
4336.5000	434.96
4337.0000	435.001
4337.5000	434.99
4338.0000	434.991
4338.5000	434.943
4339.0000	434.882
4339.5000	434.859
4340.0000	434.821
4340.5000	434.839
4341.0000	434.837
4341.5000	434.893
4342.0000	434.828
4342.5000	434.809
4343.0000	434.792
4343.5000	434.743
4344.0000	434.823
4344.5000	434.743
4345.0000	434.718
4345.5000	434.711
4346.0000	434.648
4346.5000	434.709
4347.0000	434.72
4347.5000	434.777
4348.0000	434.784
4348.5000	434.718
4349.0000	434.707
4349.5000	434.596
4350.0000	434.518
4350.5000	434.524
4351.0000	434.531
4351.5000	434.49
4352.0000	434.459
4352.5000	434.479
4353.0000	434.439
4353.5000	434.496
4354.0000	434.551
4354.5000	434.526
4355.0000	434.531
4355.5000	434.522
4356.0000	434.457
4356.5000	434.423
4357.0000	434.429
4357.5000	434.433
4358.0000	434.446
4358.5000	434.414
4359.0000	434.421
4359.5000	434.333
4360.0000	434.337
4360.5000	434.383
4361.0000	434.343
4361.5000	434.357
4362.0000	434.26
4362.5000	434.222
4363.0000	434.141
4363.5000	434.142
4364.0000	434.203
4364.5000	434.139
4365.0000	434.221
4365.5000	434.232
4366.0000	434.237
4366.5000	434.294
4367.0000	434.262
4367.5000	434.134
4368.0000	434.116
4368.5000	434.08
4369.0000	433.986
4369.5000	434.068
4370.0000	434.115
4370.5000	434.105
4371.0000	434.203
4371.5000	434.141
4372.0000	434.079
4372.5000	434.069
4373.0000	434.123
4373.5000	434.166
4374.0000	434.197
4374.5000	434.222
4375.0000	434.138
4375.5000	434.177
4376.0000	434.174
4376.5000	434.103
4377.0000	434.05
4377.5000	434.014
4378.0000	433.949
4378.5000	433.967
4379.0000	433.951
4379.5000	433.94
4380.0000	433.871
4380.5000	433.822
4381.0000	433.824
4381.5000	433.826
4382.0000	433.896
4382.5000	433.945
4383.0000	433.943
4383.5000	433.953
4384.0000	433.956
4384.5000	433.912
4385.0000	433.85
4385.5000	433.753
4386.0000	433.713
4386.5000	433.731
4387.0000	433.767
4387.5000	433.799
4388.0000	433.724
4388.5000	433.703
4389.0000	433.751
4389.5000	433.757
4390.0000	433.817
4390.5000	433.837
4391.0000	433.772
4391.5000	433.745
4392.0000	433.714
4392.5000	433.701
4393.0000	433.692
4393.5000	433.637
4394.0000	433.622
4394.5000	433.575
4395.0000	433.603
4395.5000	433.643
4396.0000	433.626
4396.5000	433.652
4397.0000	433.648
4397.5000	433.572
4398.0000	433.543
4398.5000	433.491
4399.0000	433.426
4399.5000	433.437
4400.0000	433.484
4400.5000	433.495
4401.0000	433.547
4401.5000	433.592
4402.0000	433.57
4402.5000	433.58
4403.0000	433.564
4403.5000	433.533
4404.0000	433.555
4404.5000	433.505
4405.0000	433.4
4405.5000	433.449
4406.0000	433.443
4406.5000	433.453
4407.0000	433.492
4407.5000	433.392
4408.0000	433.37
4408.5000	433.419
4409.0000	433.451
4409.5000	433.492
4410.0000	433.505
4410.5000	433.444
4411.0000	433.447
4411.5000	433.431
4412.0000	433.449
4412.5000	433.53
4413.0000	433.519
4413.5000	433.458
4414.0000	433.445
4414.5000	433.38
4415.0000	433.346
4415.5000	433.451
4416.0000	433.331
4416.5000	433.318
4417.0000	433.342
4417.5000	433.303
4418.0000	433.401
4418.5000	433.385
4419.0000	433.342
4419.5000	433.317
4420.0000	433.3
4420.5000	433.321
4421.0000	433.334
4421.5000	433.341
4422.0000	433.306
4422.5000	433.241
4423.0000	433.256
4423.5000	433.206
4424.0000	433.143
4424.5000	433.137
4425.0000	433.139
4425.5000	433.125
4426.0000	433.135
4426.5000	433.133
4427.0000	433.096
4427.5000	433.135
4428.0000	433.123
4428.5000	433.212
4429.0000	433.3
4429.5000	433.246
4430.0000	433.318
4430.5000	433.237
4431.0000	433.114
4431.5000	433.111
4432.0000	433.071
4432.5000	433.056
4433.0000	433.026
4433.5000	433.016
4434.0000	432.983
4434.5000	433.025
4435.0000	433.054
4435.5000	433.013
4436.0000	433.005
4436.5000	432.955
4437.0000	432.957
4437.5000	433.026
4438.0000	433.056
4438.5000	433.035
4439.0000	433.045
4439.5000	433.01
4440.0000	433.017
4440.5000	432.996
4441.0000	432.916
4441.5000	432.914
4442.0000	432.83
4442.5000	432.856
4443.0000	432.874
4443.5000	432.867
4444.0000	432.928
4444.5000	432.865
4445.0000	432.778
4445.5000	432.731
4446.0000	432.725
4446.5000	432.811
4447.0000	432.827
4447.5000	432.849
4448.0000	432.791
4448.5000	432.771
4449.0000	432.816
4449.5000	432.795
4450.0000	432.842
4450.5000	432.736
4451.0000	432.769
4451.5000	432.76
4452.0000	432.704
4452.5000	432.768
4453.0000	432.702
4453.5000	432.648
4454.0000	432.624
4454.5000	432.556
4455.0000	432.578
4455.5000	432.583
4456.0000	432.614
4456.5000	432.604
4457.0000	432.568
4457.5000	432.659
4458.0000	432.578
4458.5000	432.652
4459.0000	432.619
4459.5000	432.508
4460.0000	432.571
4460.5000	432.502
4461.0000	432.45
4461.5000	432.486
4462.0000	432.413
4462.5000	432.386
4463.0000	432.46
4463.5000	432.433
4464.0000	432.476
4464.5000	432.502
4465.0000	432.441
4465.5000	432.411
4466.0000	432.358
4466.5000	432.333
4467.0000	432.302
4467.5000	432.303
4468.0000	432.298
4468.5000	432.274
4469.0000	432.272
4469.5000	432.269
4470.0000	432.24
4470.5000	432.277
4471.0000	432.287
4471.5000	432.303
4472.0000	432.272
4472.5000	432.203
4473.0000	432.235
4473.5000	432.198
4474.0000	432.21
4474.5000	432.243
4475.0000	432.215
4475.5000	432.286
4476.0000	432.296
4476.5000	432.192
4477.0000	432.18
4477.5000	432.096
4478.0000	432.079
4478.5000	432.166
4479.0000	432.201
4479.5000	432.197
4480.0000	432.135
4480.5000	432.003
4481.0000	431.954
4481.5000	431.919
4482.0000	432.02
4482.5000	432.067
4483.0000	432.038
4483.5000	432.081
4484.0000	432.039
4484.5000	432.05
4485.0000	432.061
4485.5000	432.031
4486.0000	432.059
4486.5000	432.037
4487.0000	432.042
4487.5000	432.081
4488.0000	432.012
4488.5000	432.004
4489.0000	431.94
4489.5000	431.898
4490.0000	431.972
4490.5000	431.999
4491.0000	431.988
4491.5000	431.942
4492.0000	431.862
4492.5000	431.854
4493.0000	431.893
4493.5000	431.893
4494.0000	431.867
4494.5000	431.869
4495.0000	431.878
4495.5000	431.852
4496.0000	431.866
4496.5000	431.871
4497.0000	431.837
4497.5000	431.849
4498.0000	431.835
4498.5000	431.804
4499.0000	431.806
4499.5000	431.811
4500.0000	431.815
4500.5000	431.808
4501.0000	431.787
4501.5000	431.77
4502.0000	431.785
4502.5000	431.74
4503.0000	431.705
4503.5000	431.701
4504.0000	431.67
4504.5000	431.719
4505.0000	431.777
4505.5000	431.704
4506.0000	431.652
4506.5000	431.671
4507.0000	431.66
4507.5000	431.719
4508.0000	431.712
4508.5000	431.584
4509.0000	431.543
4509.5000	431.529
4510.0000	431.516
4510.5000	431.514
4511.0000	431.503
4511.5000	431.523
4512.0000	431.564
4512.5000	431.607
4513.0000	431.583
4513.5000	431.498
4514.0000	431.498
4514.5000	431.513
4515.0000	431.526
4515.5000	431.549
4516.0000	431.497
4516.5000	431.443
4517.0000	431.415
4517.5000	431.393
4518.0000	431.419
4518.5000	431.429
4519.0000	431.421
4519.5000	431.478
4520.0000	431.449
4520.5000	431.439
4521.0000	431.5
4521.5000	431.438
4522.0000	431.495
4522.5000	431.499
4523.0000	431.47
4523.5000	431.431
4524.0000	431.324
4524.5000	431.366
4525.0000	431.323
4525.5000	431.326
4526.0000	431.392
4526.5000	431.298
4527.0000	431.253
4527.5000	431.281
4528.0000	431.247
4528.5000	431.236
4529.0000	431.237
4529.5000	431.18
4530.0000	431.189
4530.5000	431.237
4531.0000	431.279
4531.5000	431.333
4532.0000	431.234
4532.5000	431.229
4533.0000	431.236
4533.5000	431.207
4534.0000	431.261
4534.5000	431.283
4535.0000	431.241
4535.5000	431.244
4536.0000	431.208
4536.5000	431.181
4537.0000	431.193
4537.5000	431.195
4538.0000	431.221
4538.5000	431.235
4539.0000	431.221
4539.5000	431.151
4540.0000	431.164
4540.5000	431.142
4541.0000	431.129
4541.5000	431.111
4542.0000	431.092
4542.5000	431.061
4543.0000	431.019
4543.5000	431.099
4544.0000	431.082
4544.5000	431.028
4545.0000	431.108
4545.5000	431.063
4546.0000	431.011
4546.5000	431.028
4547.0000	430.975
4547.5000	430.919
4548.0000	430.941
4548.5000	430.934
4549.0000	430.931
4549.5000	431.025
4550.0000	431.031
4550.5000	431.061
4551.0000	431.053
4551.5000	431.028
4552.0000	431.021
4552.5000	431.03
4553.0000	431.006
4553.5000	430.956
4554.0000	430.931
4554.5000	430.916
4555.0000	430.883
4555.5000	430.914
4556.0000	430.954
4556.5000	430.93
4557.0000	430.99
4557.5000	430.981
4558.0000	431.037
4558.5000	431.166
4559.0000	431.179
4559.5000	431.144
4560.0000	431.09
4560.5000	430.945
4561.0000	430.851
4561.5000	430.84
4562.0000	430.848
4562.5000	430.862
4563.0000	430.888
4563.5000	430.925
4564.0000	430.905
4564.5000	430.88
4565.0000	430.881
4565.5000	430.908
4566.0000	430.855
4566.5000	430.856
4567.0000	430.874
4567.5000	430.835
4568.0000	430.851
4568.5000	430.829
4569.0000	430.789
4569.5000	430.82
4570.0000	430.779
4570.5000	430.78
4571.0000	430.801
4571.5000	430.777
4572.0000	430.79
4572.5000	430.747
4573.0000	430.732
4573.5000	430.684
4574.0000	430.7
4574.5000	430.766
4575.0000	430.722
4575.5000	430.706
4576.0000	430.665
4576.5000	430.639
4577.0000	430.689
4577.5000	430.729
4578.0000	430.722
4578.5000	430.726
4579.0000	430.728
4579.5000	430.648
4580.0000	430.702
4580.5000	430.656
4581.0000	430.598
4581.5000	430.644
4582.0000	430.538
4582.5000	430.588
4583.0000	430.574
4583.5000	430.543
4584.0000	430.579
4584.5000	430.517
4585.0000	430.53
4585.5000	430.474
4586.0000	430.467
4586.5000	430.532
4587.0000	430.519
4587.5000	430.527
4588.0000	430.568
4588.5000	430.499
4589.0000	430.476
4589.5000	430.534
4590.0000	430.526
4590.5000	430.49
4591.0000	430.52
4591.5000	430.517
4592.0000	430.479
4592.5000	430.506
4593.0000	430.496
4593.5000	430.4
4594.0000	430.376
4594.5000	430.382
4595.0000	430.418
4595.5000	430.457
4596.0000	430.479
4596.5000	430.399
4597.0000	430.319
4597.5000	430.297
4598.0000	430.325
4598.5000	430.398
4599.0000	430.364
4599.5000	430.358
4600.0000	430.286
4600.5000	430.279
4601.0000	430.29
4601.5000	430.319
4602.0000	430.309
4602.5000	430.312
4603.0000	430.332
4603.5000	430.288
4604.0000	430.262
4604.5000	430.219
4605.0000	430.211
4605.5000	430.18
4606.0000	430.256
4606.5000	430.174
4607.0000	430.173
4607.5000	430.248
4608.0000	430.183
4608.5000	430.209
4609.0000	430.184
4609.5000	430.137
4610.0000	430.101
4610.5000	430.142
4611.0000	430.124
4611.5000	430.127
4612.0000	430.121
4612.5000	430.069
4613.0000	430.102
4613.5000	430.081
4614.0000	430.106
4614.5000	430.122
4615.0000	430.073
4615.5000	430.105
4616.0000	430.121
4616.5000	430.132
4617.0000	430.169
4617.5000	430.12
4618.0000	430.102
4618.5000	430.147
4619.0000	430.083
4619.5000	430.113
4620.0000	430.085
4620.5000	430.02
4621.0000	430.053
4621.5000	430.036
4622.0000	430.064
4622.5000	430.029
4623.0000	430.078
4623.5000	430.012
4624.0000	429.997
4624.5000	430.009
4625.0000	429.939
4625.5000	429.951
4626.0000	429.907
4626.5000	429.882
4627.0000	429.859
4627.5000	429.853
4628.0000	429.884
4628.5000	429.908
4629.0000	429.887
4629.5000	429.921
4630.0000	429.899
4630.5000	429.883
4631.0000	429.954
4631.5000	429.899
4632.0000	429.914
4632.5000	429.952
4633.0000	429.858
4633.5000	429.839
4634.0000	429.757
4634.5000	429.715
4635.0000	429.746
4635.5000	429.744
4636.0000	429.746
4636.5000	429.725
4637.0000	429.735
4637.5000	429.733
4638.0000	429.78
4638.5000	429.72
4639.0000	429.645
4639.5000	429.637
4640.0000	429.599
4640.5000	429.612
4641.0000	429.651
4641.5000	429.585
4642.0000	429.575
4642.5000	429.64
4643.0000	429.559
4643.5000	429.636
4644.0000	429.599
4644.5000	429.498
4645.0000	429.569
4645.5000	429.532
4646.0000	429.582
4646.5000	429.623
4647.0000	429.574
4647.5000	429.567
4648.0000	429.567
4648.5000	429.449
4649.0000	429.434
4649.5000	429.527
4650.0000	429.54
4650.5000	429.589
4651.0000	429.615
4651.5000	429.529
4652.0000	429.469
4652.5000	429.486
4653.0000	429.421
4653.5000	429.427
4654.0000	429.368
4654.5000	429.413
4655.0000	429.512
4655.5000	429.521
4656.0000	429.545
4656.5000	429.488
4657.0000	429.447
4657.5000	429.438
4658.0000	429.492
4658.5000	429.548
4659.0000	429.504
4659.5000	429.521
4660.0000	429.496
4660.5000	429.482
4661.0000	429.507
4661.5000	429.392
4662.0000	429.321
4662.5000	429.285
4663.0000	429.29
4663.5000	429.353
4664.0000	429.422
4664.5000	429.367
4665.0000	429.311
4665.5000	429.293
4666.0000	429.236
4666.5000	429.238
4667.0000	429.238
4667.5000	429.268
4668.0000	429.306
4668.5000	429.303
4669.0000	429.244
4669.5000	429.23
4670.0000	429.201
4670.5000	429.188
4671.0000	429.24
4671.5000	429.134
4672.0000	429.108
4672.5000	429.089
4673.0000	429.161
4673.5000	429.222
4674.0000	429.234
4674.5000	429.295
4675.0000	429.197
4675.5000	429.223
4676.0000	429.227
4676.5000	429.099
4677.0000	429.126
4677.5000	429.07
4678.0000	429.028
4678.5000	429.101
4679.0000	429.027
4679.5000	428.966
4680.0000	428.978
4680.5000	428.963
4681.0000	428.979
4681.5000	429.1
4682.0000	429.083
4682.5000	429.107
4683.0000	429.119
4683.5000	429.027
4684.0000	429.082
4684.5000	429.074
4685.0000	429.057
4685.5000	429.019
4686.0000	428.96
4686.5000	428.932
4687.0000	428.974
4687.5000	429.022
4688.0000	429.038
4688.5000	429.006
4689.0000	428.919
4689.5000	428.966
4690.0000	428.862
4690.5000	428.845
4691.0000	428.906
4691.5000	428.772
4692.0000	428.836
4692.5000	428.914
4693.0000	428.872
4693.5000	428.899
4694.0000	428.848
4694.5000	428.819
4695.0000	428.82
4695.5000	428.891
4696.0000	428.9
4696.5000	428.885
4697.0000	428.862
4697.5000	428.797
4698.0000	428.788
4698.5000	428.817
4699.0000	428.842
4699.5000	428.846
4700.0000	428.867
4700.5000	428.825
4701.0000	428.766
4701.5000	428.715
4702.0000	428.686
4702.5000	428.64
4703.0000	428.638
4703.5000	428.7
4704.0000	428.684
4704.5000	428.673
4705.0000	428.691
4705.5000	428.62
4706.0000	428.6
4706.5000	428.592
4707.0000	428.601
4707.5000	428.603
4708.0000	428.546
4708.5000	428.544
4709.0000	428.435
4709.5000	428.409
4710.0000	428.458
4710.5000	428.441
4711.0000	428.466
4711.5000	428.43
4712.0000	428.43
4712.5000	428.476
4713.0000	428.444
4713.5000	428.472
4714.0000	428.421
4714.5000	428.377
4715.0000	428.44
4715.5000	428.417
4716.0000	428.415
4716.5000	428.349
4717.0000	428.349
4717.5000	428.397
4718.0000	428.403
4718.5000	428.44
4719.0000	428.419
4719.5000	428.403
4720.0000	428.423
4720.5000	428.424
4721.0000	428.447
4721.5000	428.357
4722.0000	428.288
4722.5000	428.278
4723.0000	428.188
4723.5000	428.229
4724.0000	428.312
4724.5000	428.281
4725.0000	428.321
4725.5000	428.383
4726.0000	428.293
4726.5000	428.285
4727.0000	428.323
4727.5000	428.292
4728.0000	428.324
4728.5000	428.273
4729.0000	428.21
4729.5000	428.233
4730.0000	428.213
4730.5000	428.288
4731.0000	428.293
4731.5000	428.212
4732.0000	428.217
4732.5000	428.154
4733.0000	428.157
4733.5000	428.177
4734.0000	428.19
4734.5000	428.236
4735.0000	428.225
4735.5000	428.214
4736.0000	428.156
4736.5000	428.091
4737.0000	428.101
4737.5000	428.099
4738.0000	428.152
4738.5000	428.202
4739.0000	428.199
4739.5000	428.23
4740.0000	428.186
4740.5000	428.119
4741.0000	428.173
4741.5000	428.104
4742.0000	428.112
4742.5000	428.142
4743.0000	428.05
4743.5000	428.07
4744.0000	428.099
4744.5000	428.124
4745.0000	428.109
4745.5000	428.05
4746.0000	428.042
4746.5000	428.015
4747.0000	427.987
4747.5000	428.012
4748.0000	428.038
4748.5000	428.027
4749.0000	428.107
4749.5000	428.096
4750.0000	428.049
4750.5000	428.063
4751.0000	428.072
4751.5000	428.078
4752.0000	428.023
4752.5000	428.012
4753.0000	427.899
4753.5000	427.841
4754.0000	427.892
4754.5000	427.873
4755.0000	427.941
4755.5000	427.969
4756.0000	427.967
4756.5000	427.989
4757.0000	427.971
4757.5000	427.951
4758.0000	427.921
4758.5000	427.903
4759.0000	427.941
4759.5000	427.903
4760.0000	427.894
4760.5000	427.853
4761.0000	427.815
4761.5000	427.848
4762.0000	427.793
4762.5000	427.803
4763.0000	427.762
4763.5000	427.807
4764.0000	427.91
4764.5000	427.911
4765.0000	427.86
4765.5000	427.803
4766.0000	427.717
4766.5000	427.709
4767.0000	427.765
4767.5000	427.811
4768.0000	427.822
4768.5000	427.839
4769.0000	427.818
4769.5000	427.796
4770.0000	427.719
4770.5000	427.733
4771.0000	427.73
4771.5000	427.665
4772.0000	427.713
4772.5000	427.684
4773.0000	427.627
4773.5000	427.702
4774.0000	427.68
4774.5000	427.583
4775.0000	427.588
4775.5000	427.528
4776.0000	427.521
4776.5000	427.58
4777.0000	427.621
4777.5000	427.607
4778.0000	427.608
4778.5000	427.586
4779.0000	427.574
4779.5000	427.565
4780.0000	427.53
4780.5000	427.534
4781.0000	427.486
4781.5000	427.466
4782.0000	427.486
4782.5000	427.517
4783.0000	427.477
4783.5000	427.426
4784.0000	427.472
4784.5000	427.452
4785.0000	427.49
4785.5000	427.479
4786.0000	427.427
4786.5000	427.449
4787.0000	427.44
4787.5000	427.518
4788.0000	427.443
4788.5000	427.381
4789.0000	427.38
4789.5000	427.34
4790.0000	427.381
4790.5000	427.346
4791.0000	427.329
4791.5000	427.324
4792.0000	427.334
4792.5000	427.349
4793.0000	427.333
4793.5000	427.286
4794.0000	427.222
4794.5000	427.176
4795.0000	427.189
4795.5000	427.194
4796.0000	427.269
4796.5000	427.273
4797.0000	427.248
4797.5000	427.28
4798.0000	427.269
4798.5000	427.262
4799.0000	427.29
4799.5000	427.313
4800.0000	427.221
4800.5000	427.219
4801.0000	427.228
4801.5000	427.098
4802.0000	427.177
4802.5000	427.187
4803.0000	427.077
4803.5000	427.091
4804.0000	427.018
4804.5000	426.961
4805.0000	427.039
4805.5000	427.148
4806.0000	427.108
4806.5000	427.109
4807.0000	427.04
4807.5000	426.958
4808.0000	426.96
4808.5000	426.968
4809.0000	426.966
4809.5000	426.948
4810.0000	426.943
4810.5000	426.926
4811.0000	426.909
4811.5000	426.893
4812.0000	426.888
4812.5000	426.899
4813.0000	426.962
4813.5000	427.006
4814.0000	426.974
4814.5000	426.933
4815.0000	426.858
4815.5000	426.826
4816.0000	426.925
4816.5000	426.925
4817.0000	426.964
4817.5000	426.922
4818.0000	426.867
4818.5000	426.857
4819.0000	426.733
4819.5000	426.773
4820.0000	426.694
4820.5000	426.663
4821.0000	426.744
4821.5000	426.693
4822.0000	426.743
4822.5000	426.769
4823.0000	426.759
4823.5000	426.755
4824.0000	426.743
4824.5000	426.641
4825.0000	426.621
4825.5000	426.605
4826.0000	426.556
4826.5000	426.631
4827.0000	426.653
4827.5000	426.645
4828.0000	426.787
4828.5000	426.73
4829.0000	426.733
4829.5000	426.706
4830.0000	426.544
4830.5000	426.572
4831.0000	426.504
4831.5000	426.499
4832.0000	426.452
4832.5000	426.448
4833.0000	426.448
4833.5000	426.518
4834.0000	426.57
4834.5000	426.571
4835.0000	426.591
4835.5000	426.582
4836.0000	426.6
4836.5000	426.581
4837.0000	426.559
4837.5000	426.458
4838.0000	426.443
4838.5000	426.44
4839.0000	426.429
4839.5000	426.45
4840.0000	426.414
4840.5000	426.418
4841.0000	426.354
4841.5000	426.36
4842.0000	426.37
4842.5000	426.373
4843.0000	426.348
4843.5000	426.346
4844.0000	426.336
4844.5000	426.303
4845.0000	426.348
4845.5000	426.34
4846.0000	426.346
4846.5000	426.317
4847.0000	426.285
4847.5000	426.276
4848.0000	426.246
4848.5000	426.217
4849.0000	426.241
4849.5000	426.232
4850.0000	426.236
4850.5000	426.273
4851.0000	426.277
4851.5000	426.262
4852.0000	426.266
4852.5000	426.262
4853.0000	426.223
4853.5000	426.177
4854.0000	426.098
4854.5000	426.075
4855.0000	426.03
4855.5000	425.998
4856.0000	426.075
4856.5000	426.038
4857.0000	426.014
4857.5000	426.038
4858.0000	425.973
4858.5000	425.971
4859.0000	426.041
4859.5000	426.06
4860.0000	426.057
4860.5000	426.111
4861.0000	426.072
4861.5000	426.049
4862.0000	426.076
4862.5000	426.008
4863.0000	425.989
4863.5000	425.998
4864.0000	425.997
4864.5000	426.004
4865.0000	426.023
4865.5000	426.01
4866.0000	425.917
4866.5000	425.913
4867.0000	425.912
4867.5000	425.875
4868.0000	425.843
4868.5000	425.821
4869.0000	425.788
4869.5000	425.786
4870.0000	425.81
4870.5000	425.813
4871.0000	425.896
4871.5000	425.886
4872.0000	425.906
4872.5000	425.853
4873.0000	425.79
4873.5000	425.771
4874.0000	425.741
4874.5000	425.743
4875.0000	425.686
4875.5000	425.715
4876.0000	425.75
4876.5000	425.791
4877.0000	425.821
4877.5000	425.843
4878.0000	425.869
4878.5000	425.805
4879.0000	425.848
4879.5000	425.859
4880.0000	425.837
4880.5000	425.909
4881.0000	425.873
4881.5000	425.852
4882.0000	425.809
4882.5000	425.841
4883.0000	425.789
4883.5000	425.768
4884.0000	425.825
4884.5000	425.733
4885.0000	425.773
4885.5000	425.662
4886.0000	425.612
4886.5000	425.614
4887.0000	425.542
4887.5000	425.568
4888.0000	425.542
4888.5000	425.567
4889.0000	425.579
4889.5000	425.572
4890.0000	425.571
4890.5000	425.528
4891.0000	425.464
4891.5000	425.48
4892.0000	425.478
4892.5000	425.514
4893.0000	425.604
4893.5000	425.599
4894.0000	425.57
4894.5000	425.508
4895.0000	425.441
4895.5000	425.458
4896.0000	425.434
4896.5000	425.443
4897.0000	425.505
4897.5000	425.528
4898.0000	425.561
4898.5000	425.524
4899.0000	425.375
4899.5000	425.291
4900.0000	425.266
4900.5000	425.303
4901.0000	425.356
4901.5000	425.381
4902.0000	425.338
4902.5000	425.248
4903.0000	425.259
4903.5000	425.234
4904.0000	425.235
4904.5000	425.26
4905.0000	425.266
4905.5000	425.293
4906.0000	425.286
4906.5000	425.359
4907.0000	425.276
4907.5000	425.191
4908.0000	425.165
4908.5000	425.137
4909.0000	425.085
4909.5000	425.102
4910.0000	425.075
4910.5000	424.995
4911.0000	425.131
4911.5000	425.105
4912.0000	425.096
4912.5000	425.115
4913.0000	425.039
4913.5000	425.076
4914.0000	425.071
4914.5000	425.036
4915.0000	424.989
4915.5000	424.933
4916.0000	424.918
4916.5000	424.868
4917.0000	424.903
4917.5000	424.894
4918.0000	424.939
4918.5000	424.983
4919.0000	424.991
4919.5000	425.018
4920.0000	424.965
4920.5000	424.983
4921.0000	424.955
4921.5000	424.938
4922.0000	424.932
4922.5000	424.894
4923.0000	424.863
4923.5000	424.88
4924.0000	424.883
4924.5000	424.91
4925.0000	424.953
4925.5000	424.91
4926.0000	424.873
4926.5000	424.817
4927.0000	424.786
4927.5000	424.794
4928.0000	424.845
4928.5000	424.827
4929.0000	424.895
4929.5000	424.819
4930.0000	424.785
4930.5000	424.788
4931.0000	424.734
4931.5000	424.793
4932.0000	424.768
4932.5000	424.756
4933.0000	424.699
4933.5000	424.614
4934.0000	424.605
4934.5000	424.615
4935.0000	424.543
4935.5000	424.629
4936.0000	424.67
4936.5000	424.602
4937.0000	424.685
4937.5000	424.649
4938.0000	424.633
4938.5000	424.664
4939.0000	424.577
4939.5000	424.527
4940.0000	424.445
4940.5000	424.427
4941.0000	424.452
4941.5000	424.485
4942.0000	424.519
4942.5000	424.512
4943.0000	424.58
4943.5000	424.566
4944.0000	424.517
4944.5000	424.518
4945.0000	424.538
4945.5000	424.535
4946.0000	424.53
4946.5000	424.495
4947.0000	424.446
4947.5000	424.39
4948.0000	424.349
4948.5000	424.349
4949.0000	424.353
4949.5000	424.374
4950.0000	424.417
4950.5000	424.453
4951.0000	424.435
4951.5000	424.391
4952.0000	424.364
4952.5000	424.313
4953.0000	424.245
4953.5000	424.263
4954.0000	424.294
4954.5000	424.342
4955.0000	424.358
4955.5000	424.337
4956.0000	424.331
4956.5000	424.268
4957.0000	424.243
4957.5000	424.225
4958.0000	424.203
4958.5000	424.191
4959.0000	424.242
4959.5000	424.261
4960.0000	424.246
4960.5000	424.269
4961.0000	424.168
4961.5000	424.167
4962.0000	424.153
4962.5000	424.149
4963.0000	424.143
4963.5000	424.14
4964.0000	424.149
4964.5000	424.087
4965.0000	424.077
4965.5000	424.079
4966.0000	424.047
4966.5000	424.051
4967.0000	424.08
4967.5000	424.061
4968.0000	424.048
4968.5000	424.036
4969.0000	423.974
4969.5000	423.878
4970.0000	423.853
4970.5000	423.919
4971.0000	424.002
4971.5000	424.056
4972.0000	424.065
4972.5000	423.995
4973.0000	423.977
4973.5000	423.92
4974.0000	423.991
4974.5000	424.034
4975.0000	423.981
4975.5000	424.059
4976.0000	424.01
4976.5000	423.971
4977.0000	423.962
4977.5000	423.918
4978.0000	423.891
4978.5000	423.91
4979.0000	423.87
4979.5000	423.906
4980.0000	423.907
4980.5000	423.86
4981.0000	423.87
4981.5000	423.812
4982.0000	423.759
4982.5000	423.745
4983.0000	423.756
4983.5000	423.745
4984.0000	423.71
4984.5000	423.636
4985.0000	423.628
4985.5000	423.601
4986.0000	423.656
4986.5000	423.758
4987.0000	423.753
4987.5000	423.816
4988.0000	423.785
4988.5000	423.759
4989.0000	423.731
4989.5000	423.619
4990.0000	423.685
4990.5000	423.73
4991.0000	423.774
4991.5000	423.874
4992.0000	423.829
4992.5000	423.687
4993.0000	423.658
4993.5000	423.597
4994.0000	423.637
4994.5000	423.682
4995.0000	423.64
4995.5000	423.659
4996.0000	423.561
4996.5000	423.572
4997.0000	423.58
4997.5000	423.551
4998.0000	423.562
4998.5000	423.548
4999.0000	423.568
4999.5000	423.569
5000.0000	423.528
