TITLE	
DATA TYPE	
ORIGIN	JASCO
OWNER	
DATE	22/08/25
TIME	11:24:22
SPECTROMETER/DATA SYSTEM	
RESOLUTION	
DELTAX	0.5
XUNITS	SEC
YUNITS	INTENSITY
FIRSTX	0.0000
LASTX	2000.0000
NPOINTS	4001
FIRSTY	491.36426
MAXY	553.49841
MINY	-104.18193
XYDATA
0.0000	491.364
0.5000	491.288
1.0000	491.251
1.5000	491.272
2.0000	491.265
2.5000	491.324
3.0000	491.301
3.5000	491.233
4.0000	491.097
4.5000	491.023
5.0000	490.931
5.5000	490.952
6.0000	491.097
6.5000	491.093
7.0000	491.146
7.5000	491.117
8.0000	491.072
8.5000	491.078
9.0000	491.043
9.5000	491.099
10.0000	491.091
10.5000	491.076
11.0000	491.071
11.5000	491.076
12.0000	491.046
12.5000	491.05
13.0000	491.04
13.5000	490.975
14.0000	490.952
14.5000	490.934
15.0000	491.018
15.5000	490.988
16.0000	490.985
16.5000	490.954
17.0000	490.88
17.5000	490.9
18.0000	490.936
18.5000	490.92
19.0000	490.975
19.5000	490.972
20.0000	490.982
20.5000	490.986
21.0000	490.938
21.5000	490.909
22.0000	490.892
22.5000	490.881
23.0000	490.866
23.5000	490.885
24.0000	490.869
24.5000	490.975
25.0000	490.98
25.5000	490.994
26.0000	490.948
26.5000	490.872
27.0000	490.845
27.5000	490.873
28.0000	490.909
28.5000	490.883
29.0000	490.963
29.5000	490.892
30.0000	490.804
30.5000	490.9
31.0000	490.809
31.5000	490.81
32.0000	490.885
32.5000	490.748
33.0000	490.801
33.5000	490.824
34.0000	490.737
34.5000	490.711
35.0000	490.681
35.5000	490.684
36.0000	490.688
36.5000	490.743
37.0000	490.656
37.5000	490.538
38.0000	490.601
38.5000	490.511
39.0000	490.544
39.5000	490.553
40.0000	490.561
40.5000	490.575
41.0000	490.56
41.5000	490.641
42.0000	490.53
42.5000	490.535
43.0000	490.509
43.5000	490.455
44.0000	490.488
44.5000	490.569
45.0000	489.209
45.5000	476.445
46.0000	454.526
46.5000	385.558
47.0000	-104.182
47.5000	-46.3358
48.0000	-34.9437
48.5000	-32.0712
49.0000	-30.4984
49.5000	-29.6731
50.0000	-29.1404
50.5000	-28.6091
51.0000	-28.4732
51.5000	-28.1045
52.0000	-27.7173
52.5000	-27.4979
53.0000	-27.2878
53.5000	284.943
54.0000	275.763
54.5000	273.209
55.0000	272.058
55.5000	254.991
56.0000	255.007
56.5000	255.193
57.0000	255.479
57.5000	255.845
58.0000	256.251
58.5000	256.64
59.0000	257.05
59.5000	257.474
60.0000	257.903
60.5000	258.344
61.0000	258.726
61.5000	259.143
62.0000	259.542
62.5000	259.903
63.0000	260.307
63.5000	260.721
64.0000	261.147
64.5000	261.581
65.0000	261.989
65.5000	262.364
66.0000	262.741
66.5000	263.133
67.0000	263.525
67.5000	263.93
68.0000	264.316
68.5000	264.747
69.0000	265.162
69.5000	265.577
70.0000	266.036
70.5000	266.443
71.0000	266.838
71.5000	267.25
72.0000	267.624
72.5000	268.02
73.0000	268.415
73.5000	268.784
74.0000	269.128
74.5000	269.524
75.0000	269.936
75.5000	270.347
76.0000	270.805
76.5000	271.143
77.0000	271.501
77.5000	271.905
78.0000	272.243
78.5000	272.644
79.0000	273.032
79.5000	273.393
80.0000	273.837
80.5000	274.204
81.0000	274.651
81.5000	275.011
82.0000	275.353
82.5000	275.755
83.0000	276.099
83.5000	276.544
84.0000	276.952
84.5000	277.366
85.0000	277.734
85.5000	278.041
86.0000	278.404
86.5000	278.801
87.0000	279.199
87.5000	279.643
88.0000	280.079
88.5000	280.433
89.0000	280.815
89.5000	281.213
90.0000	281.577
90.5000	281.95
91.0000	282.328
91.5000	282.631
92.0000	283.007
92.5000	283.402
93.0000	283.78
93.5000	284.198
94.0000	284.593
94.5000	284.994
95.0000	285.426
95.5000	285.852
96.0000	286.21
96.5000	286.583
97.0000	286.905
97.5000	287.238
98.0000	287.614
98.5000	287.976
99.0000	288.378
99.5000	288.758
100.0000	289.137
100.5000	289.55
101.0000	289.901
101.5000	290.27
102.0000	290.604
102.5000	290.927
103.0000	291.363
103.5000	291.742
104.0000	292.121
104.5000	292.496
105.0000	292.829
105.5000	293.215
106.0000	293.626
106.5000	293.996
107.0000	294.388
107.5000	294.771
108.0000	295.15
108.5000	295.559
109.0000	295.86
109.5000	296.198
110.0000	296.527
110.5000	296.851
111.0000	297.264
111.5000	297.63
112.0000	298.043
112.5000	298.415
113.0000	298.777
113.5000	299.135
114.0000	299.474
114.5000	299.857
115.0000	300.242
115.5000	300.631
116.0000	300.979
116.5000	301.334
117.0000	301.691
117.5000	302.014
118.0000	302.328
118.5000	302.682
119.0000	303.04
119.5000	303.416
120.0000	303.783
120.5000	304.14
121.0000	304.411
121.5000	304.777
122.0000	305.15
122.5000	305.506
123.0000	305.91
123.5000	306.255
124.0000	306.605
124.5000	306.933
125.0000	307.252
125.5000	307.568
126.0000	307.953
126.5000	308.331
127.0000	308.715
127.5000	309.093
128.0000	309.434
128.5000	309.763
129.0000	310.108
129.5000	310.456
130.0000	310.759
130.5000	311.097
131.0000	311.475
131.5000	311.823
132.0000	312.225
132.5000	312.576
133.0000	312.893
133.5000	313.213
134.0000	313.509
134.5000	313.874
135.0000	314.228
135.5000	314.571
136.0000	314.927
136.5000	315.242
137.0000	315.545
137.5000	315.911
138.0000	316.241
138.5000	316.566
139.0000	316.918
139.5000	317.216
140.0000	317.55
140.5000	317.902
141.0000	318.245
141.5000	318.578
142.0000	318.911
142.5000	319.191
143.0000	319.483
143.5000	319.843
144.0000	320.157
144.5000	320.551
145.0000	320.93
145.5000	321.232
146.0000	321.595
146.5000	321.926
147.0000	322.264
147.5000	322.595
148.0000	322.88
148.5000	323.195
149.0000	323.53
149.5000	323.874
150.0000	324.212
150.5000	324.537
151.0000	324.876
151.5000	325.177
152.0000	325.518
152.5000	325.849
153.0000	326.082
153.5000	326.458
154.0000	326.745
154.5000	327.041
155.0000	327.412
155.5000	327.679
156.0000	328.024
156.5000	328.361
157.0000	328.673
157.5000	328.994
158.0000	329.328
158.5000	329.632
159.0000	329.944
159.5000	330.297
160.0000	330.637
160.5000	330.968
161.0000	331.296
161.5000	331.606
162.0000	331.892
162.5000	332.173
163.0000	332.433
163.5000	332.721
164.0000	333.034
164.5000	333.332
165.0000	333.707
165.5000	333.985
166.0000	334.299
166.5000	334.648
167.0000	334.942
167.5000	335.257
168.0000	335.564
168.5000	335.859
169.0000	336.125
169.5000	336.442
170.0000	336.742
170.5000	337.061
171.0000	337.361
171.5000	337.662
172.0000	337.967
172.5000	338.233
173.0000	338.56
173.5000	338.867
174.0000	339.153
174.5000	339.511
175.0000	339.775
175.5000	340.127
176.0000	340.511
176.5000	340.742
177.0000	341.068
177.5000	341.303
178.0000	341.522
178.5000	341.841
179.0000	342.153
179.5000	342.47
180.0000	342.754
180.5000	343.068
181.0000	343.345
181.5000	343.637
182.0000	343.92
182.5000	344.181
183.0000	344.508
183.5000	344.772
184.0000	345.105
184.5000	345.481
185.0000	345.737
185.5000	345.999
186.0000	346.279
186.5000	346.462
187.0000	346.708
187.5000	347.02
188.0000	347.309
188.5000	347.588
189.0000	347.928
189.5000	348.236
190.0000	348.483
190.5000	348.816
191.0000	349.124
191.5000	349.467
192.0000	349.733
192.5000	349.983
193.0000	350.269
193.5000	350.515
194.0000	350.818
194.5000	351.111
195.0000	351.314
195.5000	351.561
196.0000	351.858
196.5000	352.17
197.0000	352.504
197.5000	352.815
198.0000	353.113
198.5000	353.35
199.0000	353.616
199.5000	353.884
200.0000	354.169
200.5000	354.451
201.0000	354.78
201.5000	355.025
202.0000	355.284
202.5000	355.542
203.0000	355.769
203.5000	356.054
204.0000	356.321
204.5000	356.606
205.0000	356.877
205.5000	357.15
206.0000	357.422
206.5000	357.719
207.0000	357.997
207.5000	358.236
208.0000	358.471
208.5000	358.74
209.0000	359
209.5000	359.31
210.0000	359.588
210.5000	359.806
211.0000	360.043
211.5000	360.315
212.0000	360.586
212.5000	360.866
213.0000	361.134
213.5000	361.337
214.0000	361.579
214.5000	361.845
215.0000	362.081
215.5000	362.322
216.0000	362.666
216.5000	362.937
217.0000	363.225
217.5000	363.562
218.0000	363.733
218.5000	364.018
219.0000	364.273
219.5000	364.48
220.0000	364.724
220.5000	364.898
221.0000	365.131
221.5000	365.402
222.0000	365.678
222.5000	366.002
223.0000	366.27
223.5000	366.587
224.0000	366.849
224.5000	367.049
225.0000	367.288
225.5000	367.508
226.0000	367.786
226.5000	368.047
227.0000	368.325
227.5000	368.494
228.0000	368.7
228.5000	368.973
229.0000	369.225
229.5000	369.488
230.0000	369.775
230.5000	370.009
231.0000	370.201
231.5000	370.47
232.0000	370.674
232.5000	370.871
233.0000	371.147
233.5000	371.434
234.0000	371.705
234.5000	371.989
235.0000	372.245
235.5000	372.443
236.0000	372.705
236.5000	372.867
237.0000	373.054
237.5000	373.293
238.0000	373.491
238.5000	373.808
239.0000	374.089
239.5000	374.332
240.0000	374.519
240.5000	374.797
241.0000	375.067
241.5000	375.27
242.0000	375.538
242.5000	375.77
243.0000	375.913
243.5000	376.193
244.0000	376.469
244.5000	376.668
245.0000	376.923
245.5000	377.169
246.0000	377.387
246.5000	377.607
247.0000	377.905
247.5000	378.145
248.0000	378.32
248.5000	378.532
249.0000	378.728
249.5000	378.9
250.0000	379.171
250.5000	379.384
251.0000	379.578
251.5000	379.822
252.0000	380.061
252.5000	380.324
253.0000	380.578
253.5000	380.765
254.0000	380.965
254.5000	381.2
255.0000	381.439
255.5000	381.71
256.0000	381.896
256.5000	382.133
257.0000	382.323
257.5000	382.531
258.0000	382.75
258.5000	382.887
259.0000	383.116
259.5000	383.344
260.0000	383.588
260.5000	383.85
261.0000	384.072
261.5000	384.279
262.0000	384.532
262.5000	384.77
263.0000	385
263.5000	385.204
264.0000	385.377
264.5000	385.581
265.0000	385.786
265.5000	386.059
266.0000	386.3
266.5000	386.489
267.0000	386.717
267.5000	386.885
268.0000	387.057
268.5000	387.315
269.0000	387.512
269.5000	387.689
270.0000	387.938
270.5000	388.128
271.0000	388.353
271.5000	388.556
272.0000	388.775
272.5000	389.023
273.0000	389.188
273.5000	389.452
274.0000	389.675
274.5000	389.837
275.0000	390.039
275.5000	390.222
276.0000	390.39
276.5000	390.602
277.0000	390.904
277.5000	391.144
278.0000	391.345
278.5000	391.52
279.0000	391.643
279.5000	391.839
280.0000	392.016
280.5000	392.268
281.0000	392.46
281.5000	392.665
282.0000	392.938
282.5000	393.118
283.0000	393.349
283.5000	393.532
284.0000	393.662
284.5000	393.853
285.0000	394.037
285.5000	394.266
286.0000	394.514
286.5000	394.744
287.0000	394.966
287.5000	395.116
288.0000	395.342
288.5000	395.55
289.0000	395.688
289.5000	395.961
290.0000	396.194
290.5000	396.363
291.0000	396.609
291.5000	396.726
292.0000	396.88
292.5000	397.122
293.0000	397.289
293.5000	397.459
294.0000	397.589
294.5000	397.743
295.0000	398.017
295.5000	398.292
296.0000	398.553
296.5000	398.771
297.0000	398.983
297.5000	399.156
298.0000	399.312
298.5000	399.528
299.0000	399.643
299.5000	399.858
300.0000	400.112
300.5000	400.284
301.0000	400.464
301.5000	400.647
302.0000	400.767
302.5000	400.91
303.0000	401.181
303.5000	401.3
304.0000	401.508
304.5000	401.747
305.0000	401.883
305.5000	402.068
306.0000	402.284
306.5000	402.481
307.0000	402.673
307.5000	402.902
308.0000	403.042
308.5000	403.219
309.0000	403.436
309.5000	403.611
310.0000	403.829
310.5000	404.009
311.0000	404.15
311.5000	404.337
312.0000	404.486
312.5000	404.651
313.0000	404.818
313.5000	404.988
314.0000	405.183
314.5000	405.349
315.0000	405.486
315.5000	405.641
316.0000	405.835
316.5000	406.021
317.0000	406.204
317.5000	406.409
318.0000	406.582
318.5000	406.732
319.0000	406.926
319.5000	407.119
320.0000	407.262
320.5000	407.422
321.0000	407.637
321.5000	407.79
322.0000	407.964
322.5000	408.196
323.0000	408.38
323.5000	408.558
324.0000	408.751
324.5000	408.883
325.0000	409.026
325.5000	409.224
326.0000	409.364
326.5000	409.584
327.0000	409.748
327.5000	409.869
328.0000	410.118
328.5000	410.216
329.0000	410.416
329.5000	410.599
330.0000	410.752
330.5000	410.965
331.0000	411.115
331.5000	411.313
332.0000	411.457
332.5000	411.62
333.0000	411.789
333.5000	411.963
334.0000	412.148
334.5000	412.36
335.0000	412.532
335.5000	412.647
336.0000	412.788
336.5000	412.942
337.0000	413.112
337.5000	413.361
338.0000	413.536
338.5000	413.626
339.0000	413.792
339.5000	413.95
340.0000	414.076
340.5000	414.225
341.0000	414.479
341.5000	414.585
342.0000	414.747
342.5000	414.934
343.0000	414.954
343.5000	415.126
344.0000	415.344
344.5000	415.502
345.0000	415.684
345.5000	415.955
346.0000	416.106
346.5000	416.31
347.0000	416.457
347.5000	416.535
348.0000	416.669
348.5000	416.77
349.0000	416.926
349.5000	417.067
350.0000	417.228
350.5000	417.479
351.0000	417.728
351.5000	417.888
352.0000	418.037
352.5000	418.168
353.0000	418.321
353.5000	418.491
354.0000	418.712
354.5000	418.942
355.0000	419.083
355.5000	419.249
356.0000	419.365
356.5000	419.422
357.0000	419.546
357.5000	419.69
358.0000	419.883
358.5000	420.135
359.0000	420.305
359.5000	420.511
360.0000	420.648
360.5000	420.75
361.0000	420.909
361.5000	420.986
362.0000	421.134
362.5000	421.286
363.0000	421.445
363.5000	421.593
364.0000	421.737
364.5000	421.863
365.0000	422.034
365.5000	422.173
366.0000	422.307
366.5000	422.504
367.0000	422.595
367.5000	422.753
368.0000	422.948
368.5000	423.01
369.0000	423.214
369.5000	423.363
370.0000	423.503
370.5000	423.756
371.0000	423.842
371.5000	424.031
372.0000	424.197
372.5000	424.333
373.0000	424.514
373.5000	424.685
374.0000	424.725
374.5000	424.778
375.0000	424.942
375.5000	425.046
376.0000	425.294
376.5000	425.495
377.0000	425.586
377.5000	425.755
378.0000	425.9
378.5000	426.053
379.0000	426.236
379.5000	426.364
380.0000	426.482
380.5000	426.6
381.0000	426.75
381.5000	426.917
382.0000	427.139
382.5000	427.276
383.0000	427.432
383.5000	427.557
384.0000	427.61
384.5000	427.817
385.0000	427.928
385.5000	428.039
386.0000	428.154
386.5000	428.248
387.0000	428.406
387.5000	428.613
388.0000	428.757
388.5000	428.867
389.0000	429.017
389.5000	429.079
390.0000	429.256
390.5000	429.518
391.0000	429.71
391.5000	429.889
392.0000	430.031
392.5000	430.087
393.0000	430.147
393.5000	430.277
394.0000	430.363
394.5000	430.544
395.0000	430.719
395.5000	430.824
396.0000	431.032
396.5000	431.119
397.0000	431.241
397.5000	431.431
398.0000	431.533
398.5000	431.648
399.0000	431.716
399.5000	431.856
400.0000	431.997
400.5000	432.11
401.0000	432.304
401.5000	432.416
402.0000	432.565
402.5000	432.771
403.0000	432.878
403.5000	432.99
404.0000	433.111
404.5000	433.236
405.0000	433.426
405.5000	433.609
406.0000	433.716
406.5000	433.849
407.0000	433.954
407.5000	434.047
408.0000	434.237
408.5000	434.331
409.0000	434.443
409.5000	434.584
410.0000	434.682
410.5000	434.798
411.0000	434.914
411.5000	435.009
412.0000	435.177
412.5000	435.362
413.0000	435.5
413.5000	435.683
414.0000	435.771
414.5000	435.833
415.0000	435.988
415.5000	436.151
416.0000	436.234
416.5000	436.402
417.0000	436.515
417.5000	436.533
418.0000	436.719
418.5000	436.868
419.0000	436.946
419.5000	437.124
420.0000	437.211
420.5000	437.367
421.0000	437.552
421.5000	437.651
422.0000	437.869
422.5000	437.937
423.0000	438.06
423.5000	438.22
424.0000	438.258
424.5000	438.375
425.0000	438.528
425.5000	438.648
426.0000	438.809
426.5000	438.955
427.0000	439.048
427.5000	439.205
428.0000	439.291
428.5000	439.469
429.0000	439.602
429.5000	439.749
430.0000	439.973
430.5000	440.119
431.0000	440.224
431.5000	440.231
432.0000	440.282
432.5000	440.329
433.0000	440.425
433.5000	440.644
434.0000	440.77
434.5000	440.871
435.0000	441.002
435.5000	441.163
436.0000	441.258
436.5000	441.424
437.0000	441.604
437.5000	441.639
438.0000	441.706
438.5000	441.801
439.0000	441.897
439.5000	442.055
440.0000	442.221
440.5000	442.314
441.0000	442.437
441.5000	442.532
442.0000	442.627
442.5000	442.731
443.0000	442.83
443.5000	443.002
444.0000	443.195
444.5000	443.395
445.0000	443.548
445.5000	443.628
446.0000	443.693
446.5000	443.766
447.0000	443.892
447.5000	444.003
448.0000	444.161
448.5000	444.316
449.0000	444.433
449.5000	444.575
450.0000	444.639
450.5000	444.714
451.0000	444.789
451.5000	444.883
452.0000	445.013
452.5000	445.164
453.0000	445.34
453.5000	445.463
454.0000	445.584
454.5000	445.704
455.0000	445.827
455.5000	445.906
456.0000	446.02
456.5000	446.112
457.0000	446.205
457.5000	446.32
458.0000	446.46
458.5000	446.492
459.0000	446.589
459.5000	446.751
460.0000	446.826
460.5000	447
461.0000	447.12
461.5000	447.19
462.0000	447.277
462.5000	447.396
463.0000	447.439
463.5000	447.562
464.0000	447.716
464.5000	447.845
465.0000	448.01
465.5000	448.104
466.0000	448.172
466.5000	448.275
467.0000	448.38
467.5000	448.527
468.0000	448.677
468.5000	448.73
469.0000	448.796
469.5000	448.86
470.0000	449.028
470.5000	449.238
471.0000	449.404
471.5000	449.518
472.0000	449.549
472.5000	449.609
473.0000	449.68
473.5000	449.771
474.0000	449.906
474.5000	449.966
475.0000	450.083
475.5000	450.237
476.0000	450.326
476.5000	450.476
477.0000	450.602
477.5000	450.649
478.0000	450.806
478.5000	450.868
479.0000	450.983
479.5000	451.136
480.0000	451.166
480.5000	451.327
481.0000	451.372
481.5000	451.527
482.0000	451.606
482.5000	451.702
483.0000	451.896
483.5000	451.975
484.0000	452.179
484.5000	452.309
485.0000	452.361
485.5000	452.382
486.0000	452.497
486.5000	452.622
487.0000	452.777
487.5000	452.979
488.0000	453.047
488.5000	453.136
489.0000	453.223
489.5000	453.34
490.0000	453.481
490.5000	453.551
491.0000	453.648
491.5000	453.761
492.0000	453.84
492.5000	453.947
493.0000	454.034
493.5000	454.144
494.0000	454.281
494.5000	454.35
495.0000	454.511
495.5000	454.571
496.0000	454.633
496.5000	454.805
497.0000	454.882
497.5000	454.988
498.0000	455.061
498.5000	455.141
499.0000	455.267
499.5000	455.377
500.0000	455.566
500.5000	455.663
501.0000	455.745
501.5000	455.861
502.0000	455.931
502.5000	456.104
503.0000	456.201
503.5000	456.254
504.0000	456.362
504.5000	456.456
505.0000	456.665
505.5000	456.855
506.0000	456.992
506.5000	457.101
507.0000	457.139
507.5000	457.189
508.0000	457.297
508.5000	457.376
509.0000	457.532
509.5000	457.663
510.0000	457.752
510.5000	457.883
511.0000	457.935
511.5000	458.087
512.0000	458.271
512.5000	458.363
513.0000	458.397
513.5000	458.478
514.0000	458.518
514.5000	458.647
515.0000	458.768
515.5000	458.865
516.0000	458.952
516.5000	459.005
517.0000	459.211
517.5000	459.254
518.0000	459.356
518.5000	459.506
519.0000	459.531
519.5000	459.673
520.0000	459.769
520.5000	459.833
521.0000	459.951
521.5000	460.079
522.0000	460.243
522.5000	460.346
523.0000	460.465
523.5000	460.603
524.0000	460.66
524.5000	460.809
525.0000	460.856
525.5000	460.961
526.0000	461.102
526.5000	461.219
527.0000	461.458
527.5000	461.557
528.0000	461.693
528.5000	461.914
529.0000	461.972
529.5000	462.086
530.0000	462.169
530.5000	462.277
531.0000	462.387
531.5000	462.529
532.0000	462.613
532.5000	462.651
533.0000	462.784
533.5000	462.823
534.0000	463.06
534.5000	463.165
535.0000	463.229
535.5000	463.403
536.0000	463.424
536.5000	463.552
537.0000	463.718
537.5000	463.833
538.0000	463.96
538.5000	464.03
539.0000	464.123
539.5000	464.153
540.0000	464.215
540.5000	464.311
541.0000	464.425
541.5000	464.538
542.0000	464.738
542.5000	464.949
543.0000	465.096
543.5000	465.265
544.0000	465.345
544.5000	465.368
545.0000	465.443
545.5000	465.585
546.0000	465.654
546.5000	465.737
547.0000	465.837
547.5000	465.943
548.0000	466.103
548.5000	466.261
549.0000	466.418
549.5000	466.502
550.0000	466.65
550.5000	466.787
551.0000	466.896
551.5000	467.11
552.0000	467.176
552.5000	467.329
553.0000	467.453
553.5000	467.523
554.0000	467.66
554.5000	467.776
555.0000	467.842
555.5000	467.946
556.0000	468.144
556.5000	468.168
557.0000	468.331
557.5000	468.46
558.0000	468.49
558.5000	468.679
559.0000	468.823
559.5000	468.951
560.0000	469.072
560.5000	469.189
561.0000	469.299
561.5000	469.444
562.0000	469.606
562.5000	469.779
563.0000	469.909
563.5000	470.087
564.0000	470.275
564.5000	470.422
565.0000	470.589
565.5000	470.661
566.0000	470.786
566.5000	470.946
567.0000	471.104
567.5000	471.25
568.0000	471.352
568.5000	471.438
569.0000	471.54
569.5000	471.692
570.0000	471.885
570.5000	472.069
571.0000	472.275
571.5000	472.427
572.0000	472.555
572.5000	472.707
573.0000	472.88
573.5000	473.055
574.0000	473.221
574.5000	473.369
575.0000	473.493
575.5000	473.644
576.0000	473.774
576.5000	473.957
577.0000	474.123
577.5000	474.343
578.0000	474.548
578.5000	474.671
579.0000	474.798
579.5000	474.919
580.0000	475.081
580.5000	475.242
581.0000	475.417
581.5000	475.618
582.0000	475.731
582.5000	475.962
583.0000	476.166
583.5000	476.285
584.0000	476.515
584.5000	476.665
585.0000	476.847
585.5000	477.06
586.0000	477.183
586.5000	477.354
587.0000	477.553
587.5000	477.718
588.0000	477.914
588.5000	478.064
589.0000	478.252
589.5000	478.452
590.0000	478.66
590.5000	478.878
591.0000	479.07
591.5000	479.286
592.0000	479.429
592.5000	479.608
593.0000	479.751
593.5000	479.972
594.0000	480.285
594.5000	480.463
595.0000	480.654
595.5000	480.718
596.0000	480.906
596.5000	481.182
597.0000	481.324
597.5000	481.62
598.0000	481.73
598.5000	481.866
599.0000	482.092
599.5000	482.281
600.0000	482.545
600.5000	482.756
601.0000	482.986
601.5000	483.133
602.0000	483.27
602.5000	483.448
603.0000	483.67
603.5000	483.912
604.0000	484.164
604.5000	484.41
605.0000	484.578
605.5000	484.772
606.0000	484.951
606.5000	485.156
607.0000	485.381
607.5000	485.518
608.0000	485.719
608.5000	485.882
609.0000	486.098
609.5000	486.348
610.0000	486.544
610.5000	486.752
611.0000	486.895
611.5000	487.041
612.0000	487.253
612.5000	487.508
613.0000	487.737
613.5000	488.047
614.0000	488.273
614.5000	488.433
615.0000	488.62
615.5000	488.732
616.0000	488.896
616.5000	489.091
617.0000	489.343
617.5000	489.554
618.0000	489.787
618.5000	489.966
619.0000	490.1
619.5000	490.34
620.0000	490.539
620.5000	490.647
621.0000	490.879
621.5000	491.033
622.0000	491.246
622.5000	491.492
623.0000	491.669
623.5000	491.888
624.0000	492.073
624.5000	492.299
625.0000	492.443
625.5000	492.608
626.0000	492.738
626.5000	492.909
627.0000	493.158
627.5000	493.408
628.0000	493.653
628.5000	493.812
629.0000	493.971
629.5000	494.097
630.0000	494.268
630.5000	494.508
631.0000	494.701
631.5000	494.897
632.0000	495.06
632.5000	495.267
633.0000	495.477
633.5000	495.698
634.0000	495.874
634.5000	496.046
635.0000	496.224
635.5000	496.341
636.0000	496.512
636.5000	496.645
637.0000	496.724
637.5000	496.888
638.0000	497.05
638.5000	497.259
639.0000	497.522
639.5000	497.716
640.0000	497.896
640.5000	498.102
641.0000	498.254
641.5000	498.435
642.0000	498.579
642.5000	498.682
643.0000	498.857
643.5000	499
644.0000	499.176
644.5000	499.391
645.0000	499.648
645.5000	499.802
646.0000	499.983
646.5000	500.126
647.0000	500.186
647.5000	500.337
648.0000	500.538
648.5000	500.666
649.0000	500.846
649.5000	501.033
650.0000	501.141
650.5000	501.316
651.0000	501.437
651.5000	501.562
652.0000	501.715
652.5000	501.826
653.0000	501.984
653.5000	502.14
654.0000	502.319
654.5000	502.557
655.0000	502.82
655.5000	502.998
656.0000	503.139
656.5000	503.25
657.0000	503.294
657.5000	503.495
658.0000	503.573
658.5000	503.671
659.0000	503.881
659.5000	504.02
660.0000	504.263
660.5000	504.437
661.0000	504.494
661.5000	504.622
662.0000	504.75
662.5000	504.872
663.0000	505.088
663.5000	505.216
664.0000	505.381
664.5000	505.578
665.0000	505.636
665.5000	505.801
666.0000	505.864
666.5000	506.007
667.0000	506.226
667.5000	506.311
668.0000	506.416
668.5000	506.469
669.0000	506.572
669.5000	506.677
670.0000	506.896
670.5000	507.11
671.0000	507.202
671.5000	507.332
672.0000	507.397
672.5000	507.507
673.0000	507.621
673.5000	507.806
674.0000	507.951
674.5000	508.053
675.0000	508.172
675.5000	508.289
676.0000	508.382
676.5000	508.512
677.0000	508.685
677.5000	508.839
678.0000	508.987
678.5000	509.105
679.0000	509.149
679.5000	509.259
680.0000	509.459
680.5000	509.524
681.0000	509.674
681.5000	509.741
682.0000	509.848
682.5000	509.977
683.0000	510.112
683.5000	510.207
684.0000	510.232
684.5000	510.367
685.0000	510.532
685.5000	510.628
686.0000	510.795
686.5000	510.915
687.0000	510.986
687.5000	511.236
688.0000	511.344
688.5000	511.476
689.0000	511.607
689.5000	511.621
690.0000	511.854
690.5000	512.024
691.0000	512.129
691.5000	512.332
692.0000	512.268
692.5000	512.306
693.0000	512.383
693.5000	512.445
694.0000	512.6
694.5000	512.778
695.0000	512.927
695.5000	512.972
696.0000	513.092
696.5000	513.236
697.0000	513.342
697.5000	513.456
698.0000	513.514
698.5000	513.539
699.0000	513.668
699.5000	513.805
700.0000	513.946
700.5000	514.02
701.0000	514.136
701.5000	514.306
702.0000	514.489
702.5000	514.643
703.0000	514.759
703.5000	514.814
704.0000	514.873
704.5000	514.979
705.0000	515.025
705.5000	515.126
706.0000	515.222
706.5000	515.373
707.0000	515.533
707.5000	515.669
708.0000	515.742
708.5000	515.755
709.0000	515.778
709.5000	515.898
710.0000	516.072
710.5000	516.267
711.0000	516.395
711.5000	516.524
712.0000	516.506
712.5000	516.487
713.0000	516.565
713.5000	516.606
714.0000	516.761
714.5000	516.974
715.0000	517.133
715.5000	517.204
716.0000	517.357
716.5000	517.43
717.0000	517.443
717.5000	517.577
718.0000	517.626
718.5000	517.701
719.0000	517.859
719.5000	517.88
720.0000	517.935
720.5000	518.082
721.0000	518.159
721.5000	518.263
722.0000	518.424
722.5000	518.423
723.0000	518.562
723.5000	518.677
724.0000	518.745
724.5000	518.833
725.0000	518.925
725.5000	519.016
726.0000	519.11
726.5000	519.239
727.0000	519.284
727.5000	519.386
728.0000	519.422
728.5000	519.453
729.0000	519.544
729.5000	519.613
730.0000	519.777
730.5000	519.895
731.0000	520.067
731.5000	520.186
732.0000	520.235
732.5000	520.332
733.0000	520.341
733.5000	520.368
734.0000	520.468
734.5000	520.559
735.0000	520.7
735.5000	520.84
736.0000	520.927
736.5000	520.983
737.0000	521.057
737.5000	521.149
738.0000	521.313
738.5000	521.409
739.0000	521.451
739.5000	521.466
740.0000	521.46
740.5000	521.609
741.0000	521.698
741.5000	521.907
742.0000	522.079
742.5000	522.073
743.0000	522.209
743.5000	522.206
744.0000	522.187
744.5000	522.344
745.0000	522.282
745.5000	522.455
746.0000	522.636
746.5000	522.79
747.0000	522.943
747.5000	522.954
748.0000	522.923
748.5000	522.932
749.0000	523.055
749.5000	523.187
750.0000	523.367
750.5000	523.472
751.0000	523.457
751.5000	523.542
752.0000	523.577
752.5000	523.678
753.0000	523.789
753.5000	523.752
754.0000	523.791
754.5000	523.816
755.0000	523.936
755.5000	524.07
756.0000	524.185
756.5000	524.272
757.0000	524.391
757.5000	524.467
758.0000	524.589
758.5000	524.774
759.0000	524.787
759.5000	524.873
760.0000	524.923
760.5000	524.926
761.0000	525.037
761.5000	525.168
762.0000	525.245
762.5000	525.208
763.0000	525.312
763.5000	525.381
764.0000	525.476
764.5000	525.647
765.0000	525.696
765.5000	525.788
766.0000	525.798
766.5000	525.826
767.0000	525.901
767.5000	525.955
768.0000	526.031
768.5000	526.142
769.0000	526.167
769.5000	526.154
770.0000	526.3
770.5000	526.357
771.0000	526.523
771.5000	526.666
772.0000	526.692
772.5000	526.851
773.0000	526.937
773.5000	527.046
774.0000	527.126
774.5000	527.117
775.0000	527.19
775.5000	527.185
776.0000	527.306
776.5000	527.386
777.0000	527.359
777.5000	527.483
778.0000	527.465
778.5000	527.523
779.0000	527.691
779.5000	527.681
780.0000	527.8
780.5000	527.898
781.0000	527.933
781.5000	528.073
782.0000	528.14
782.5000	528.206
783.0000	528.272
783.5000	528.38
784.0000	528.433
784.5000	528.529
785.0000	528.569
785.5000	528.594
786.0000	528.676
786.5000	528.736
787.0000	528.834
787.5000	528.901
788.0000	529.024
788.5000	529.066
789.0000	529.18
789.5000	529.263
790.0000	529.409
790.5000	529.494
791.0000	529.502
791.5000	529.43
792.0000	529.338
792.5000	529.296
793.0000	529.44
793.5000	529.658
794.0000	529.713
794.5000	529.849
795.0000	529.831
795.5000	529.829
796.0000	529.914
796.5000	530.067
797.0000	530.142
797.5000	530.245
798.0000	530.379
798.5000	530.403
799.0000	530.563
799.5000	530.652
800.0000	530.659
800.5000	530.703
801.0000	530.659
801.5000	530.71
802.0000	530.83
802.5000	530.899
803.0000	530.924
803.5000	531.004
804.0000	531.001
804.5000	531.095
805.0000	531.263
805.5000	531.287
806.0000	531.331
806.5000	531.424
807.0000	531.496
807.5000	531.613
808.0000	531.793
808.5000	531.803
809.0000	531.824
809.5000	531.85
810.0000	531.819
810.5000	531.842
811.0000	531.85
811.5000	531.865
812.0000	531.999
812.5000	532.06
813.0000	532.145
813.5000	532.337
814.0000	532.355
814.5000	532.461
815.0000	532.575
815.5000	532.59
816.0000	532.575
816.5000	532.578
817.0000	532.541
817.5000	532.614
818.0000	532.754
818.5000	532.875
819.0000	532.981
819.5000	533.044
820.0000	533.061
820.5000	533.066
821.0000	533.058
821.5000	533.037
822.0000	533.128
822.5000	533.206
823.0000	533.293
823.5000	533.361
824.0000	533.42
824.5000	533.379
825.0000	533.442
825.5000	533.517
826.0000	533.576
826.5000	533.699
827.0000	533.783
827.5000	533.854
828.0000	533.871
828.5000	533.934
829.0000	533.986
829.5000	534.026
830.0000	534.141
830.5000	534.207
831.0000	534.316
831.5000	534.345
832.0000	534.45
832.5000	534.519
833.0000	534.505
833.5000	534.536
834.0000	534.517
834.5000	534.545
835.0000	534.643
835.5000	534.661
836.0000	534.652
836.5000	534.64
837.0000	534.599
837.5000	534.746
838.0000	534.838
838.5000	534.919
839.0000	535.091
839.5000	535.107
840.0000	535.103
840.5000	535.231
841.0000	535.256
841.5000	535.291
842.0000	535.367
842.5000	535.377
843.0000	535.336
843.5000	535.362
844.0000	535.461
844.5000	535.51
845.0000	535.585
845.5000	535.661
846.0000	535.652
846.5000	535.7
847.0000	535.725
847.5000	535.812
848.0000	535.937
848.5000	535.942
849.0000	536.042
849.5000	536.029
850.0000	536.001
850.5000	536.143
851.0000	536.193
851.5000	536.243
852.0000	536.263
852.5000	536.24
853.0000	536.283
853.5000	536.374
854.0000	536.451
854.5000	536.462
855.0000	536.491
855.5000	536.525
856.0000	536.521
856.5000	536.602
857.0000	536.685
857.5000	536.7
858.0000	536.834
858.5000	536.913
859.0000	536.909
859.5000	536.975
860.0000	536.912
860.5000	536.844
861.0000	536.819
861.5000	536.898
862.0000	537.02
862.5000	537.099
863.0000	537.217
863.5000	537.212
864.0000	537.21
864.5000	537.258
865.0000	537.331
865.5000	537.372
866.0000	537.455
866.5000	537.506
867.0000	537.404
867.5000	537.472
868.0000	537.495
868.5000	537.509
869.0000	537.599
869.5000	537.579
870.0000	537.628
870.5000	537.669
871.0000	537.667
871.5000	537.757
872.0000	537.752
872.5000	537.811
873.0000	537.953
873.5000	537.908
874.0000	537.975
874.5000	538.046
875.0000	538.026
875.5000	538.047
876.0000	538.07
876.5000	538.122
877.0000	538.205
877.5000	538.31
878.0000	538.349
878.5000	538.363
879.0000	538.344
879.5000	538.398
880.0000	538.408
880.5000	538.447
881.0000	538.485
881.5000	538.434
882.0000	538.499
882.5000	538.533
883.0000	538.59
883.5000	538.626
884.0000	538.689
884.5000	538.63
885.0000	538.565
885.5000	538.649
886.0000	538.594
886.5000	538.662
887.0000	538.723
887.5000	538.727
888.0000	538.714
888.5000	538.704
889.0000	538.739
889.5000	538.787
890.0000	538.858
890.5000	538.84
891.0000	538.987
891.5000	538.986
892.0000	539.085
892.5000	539.225
893.0000	539.107
893.5000	539.207
894.0000	539.227
894.5000	539.228
895.0000	539.337
895.5000	539.268
896.0000	539.263
896.5000	539.324
897.0000	539.325
897.5000	539.462
898.0000	539.495
898.5000	539.471
899.0000	539.502
899.5000	539.47
900.0000	539.486
900.5000	539.511
901.0000	539.479
901.5000	539.455
902.0000	539.495
902.5000	539.536
903.0000	539.587
903.5000	539.614
904.0000	539.592
904.5000	539.665
905.0000	539.763
905.5000	539.797
906.0000	539.853
906.5000	539.87
907.0000	539.848
907.5000	539.922
908.0000	539.909
908.5000	539.864
909.0000	539.791
909.5000	539.778
910.0000	539.923
910.5000	540
911.0000	540.141
911.5000	540.129
912.0000	540.049
912.5000	539.992
913.0000	540.003
913.5000	540.11
914.0000	540.166
914.5000	540.279
915.0000	540.294
915.5000	540.322
916.0000	540.281
916.5000	540.2
917.0000	540.273
917.5000	540.25
918.0000	540.262
918.5000	540.305
919.0000	540.282
919.5000	540.226
920.0000	540.259
920.5000	540.277
921.0000	540.282
921.5000	540.365
922.0000	540.393
922.5000	540.559
923.0000	540.53
923.5000	540.488
924.0000	540.5
924.5000	540.373
925.0000	540.376
925.5000	540.446
926.0000	540.449
926.5000	540.493
927.0000	540.518
927.5000	540.454
928.0000	540.378
928.5000	540.375
929.0000	540.352
929.5000	540.328
930.0000	540.475
930.5000	540.432
931.0000	540.459
931.5000	540.561
932.0000	540.486
932.5000	540.528
933.0000	540.635
933.5000	540.633
934.0000	540.696
934.5000	540.742
935.0000	540.733
935.5000	540.775
936.0000	540.768
936.5000	540.779
937.0000	540.745
937.5000	540.707
938.0000	540.766
938.5000	540.705
939.0000	540.79
939.5000	540.818
940.0000	540.832
940.5000	540.901
941.0000	540.806
941.5000	540.878
942.0000	540.871
942.5000	540.787
943.0000	540.781
943.5000	540.707
944.0000	540.607
944.5000	540.656
945.0000	540.729
945.5000	540.774
946.0000	540.849
946.5000	540.898
947.0000	540.918
947.5000	540.982
948.0000	540.991
948.5000	540.982
949.0000	540.898
949.5000	540.837
950.0000	540.905
950.5000	540.903
951.0000	540.913
951.5000	540.943
952.0000	540.91
952.5000	540.892
953.0000	540.972
953.5000	541.009
954.0000	541.016
954.5000	541.127
955.0000	541.157
955.5000	541.126
956.0000	541.148
956.5000	541.106
957.0000	541.07
957.5000	541.106
958.0000	541.026
958.5000	540.987
959.0000	541.046
959.5000	541.058
960.0000	541.112
960.5000	541.134
961.0000	541.149
961.5000	541.123
962.0000	541.075
962.5000	541.095
963.0000	541.054
963.5000	541.036
964.0000	541.13
964.5000	541.1
965.0000	541.086
965.5000	541.077
966.0000	541.034
966.5000	541.046
967.0000	541.078
967.5000	541.103
968.0000	541.101
968.5000	541.113
969.0000	541.069
969.5000	541.077
970.0000	541.067
970.5000	541.061
971.0000	541.076
971.5000	541.138
972.0000	541.151
972.5000	541.154
973.0000	541.144
973.5000	541.106
974.0000	541.149
974.5000	541.152
975.0000	541.175
975.5000	541.159
976.0000	541.187
976.5000	541.16
977.0000	541.161
977.5000	541.228
978.0000	541.144
978.5000	541.227
979.0000	541.16
979.5000	541.113
980.0000	541.156
980.5000	541.078
981.0000	541.143
981.5000	541.17
982.0000	541.239
982.5000	541.283
983.0000	541.271
983.5000	541.227
984.0000	541.229
984.5000	541.236
985.0000	541.29
985.5000	541.259
986.0000	541.156
986.5000	541.171
987.0000	541.1
987.5000	541.169
988.0000	541.231
988.5000	541.146
989.0000	541.216
989.5000	541.15
990.0000	541.195
990.5000	541.27
991.0000	541.224
991.5000	541.275
992.0000	541.184
992.5000	541.191
993.0000	541.2
993.5000	541.185
994.0000	541.159
994.5000	541.154
995.0000	541.241
995.5000	541.241
996.0000	541.363
996.5000	541.324
997.0000	541.293
997.5000	541.378
998.0000	541.374
998.5000	541.329
999.0000	541.292
999.5000	541.189
1000.0000	541.098
1000.5000	541.262
1001.0000	541.258
1001.5000	541.231
1002.0000	541.299
1002.5000	541.215
1003.0000	541.206
1003.5000	541.248
1004.0000	541.221
1004.5000	541.256
1005.0000	541.314
1005.5000	541.391
1006.0000	541.42
1006.5000	541.451
1007.0000	541.483
1007.5000	541.379
1008.0000	541.344
1008.5000	541.274
1009.0000	541.236
1009.5000	541.27
1010.0000	541.237
1010.5000	541.226
1011.0000	541.259
1011.5000	541.248
1012.0000	541.307
1012.5000	541.278
1013.0000	541.25
1013.5000	541.315
1014.0000	541.258
1014.5000	541.284
1015.0000	541.259
1015.5000	541.196
1016.0000	541.239
1016.5000	541.32
1017.0000	541.354
1017.5000	541.383
1018.0000	541.349
1018.5000	541.308
1019.0000	541.333
1019.5000	541.295
1020.0000	541.362
1020.5000	541.38
1021.0000	541.327
1021.5000	541.373
1022.0000	541.335
1022.5000	541.276
1023.0000	541.313
1023.5000	541.353
1024.0000	541.324
1024.5000	541.394
1025.0000	541.47
1025.5000	541.372
1026.0000	541.469
1026.5000	541.5
1027.0000	541.419
1027.5000	541.408
1028.0000	541.335
1028.5000	541.325
1029.0000	541.286
1029.5000	541.326
1030.0000	541.354
1030.5000	541.28
1031.0000	541.248
1031.5000	541.256
1032.0000	541.245
1032.5000	541.333
1033.0000	541.377
1033.5000	541.427
1034.0000	541.448
1034.5000	541.496
1035.0000	541.522
1035.5000	541.555
1036.0000	541.528
1036.5000	541.422
1037.0000	541.448
1037.5000	541.403
1038.0000	541.399
1038.5000	541.424
1039.0000	541.395
1039.5000	541.335
1040.0000	541.342
1040.5000	541.32
1041.0000	541.294
1041.5000	541.35
1042.0000	541.391
1042.5000	541.396
1043.0000	541.404
1043.5000	541.439
1044.0000	541.435
1044.5000	541.439
1045.0000	541.366
1045.5000	541.344
1046.0000	541.318
1046.5000	541.382
1047.0000	541.404
1047.5000	541.349
1048.0000	541.351
1048.5000	541.276
1049.0000	541.354
1049.5000	541.409
1050.0000	541.431
1050.5000	541.489
1051.0000	541.486
1051.5000	541.428
1052.0000	541.462
1052.5000	541.454
1053.0000	541.533
1053.5000	541.618
1054.0000	541.603
1054.5000	541.56
1055.0000	541.482
1055.5000	541.423
1056.0000	541.386
1056.5000	541.356
1057.0000	541.362
1057.5000	541.376
1058.0000	541.283
1058.5000	541.31
1059.0000	541.34
1059.5000	541.355
1060.0000	541.46
1060.5000	541.483
1061.0000	541.407
1061.5000	541.413
1062.0000	541.341
1062.5000	541.408
1063.0000	541.386
1063.5000	541.41
1064.0000	541.519
1064.5000	541.465
1065.0000	541.503
1065.5000	541.468
1066.0000	541.428
1066.5000	541.419
1067.0000	541.44
1067.5000	541.473
1068.0000	541.448
1068.5000	541.502
1069.0000	541.547
1069.5000	541.59
1070.0000	541.602
1070.5000	541.64
1071.0000	541.577
1071.5000	541.5
1072.0000	541.488
1072.5000	541.425
1073.0000	541.387
1073.5000	541.432
1074.0000	541.494
1074.5000	541.445
1075.0000	541.549
1075.5000	541.566
1076.0000	541.533
1076.5000	541.531
1077.0000	541.534
1077.5000	541.575
1078.0000	541.611
1078.5000	541.653
1079.0000	541.713
1079.5000	541.697
1080.0000	541.727
1080.5000	541.783
1081.0000	541.667
1081.5000	541.573
1082.0000	541.559
1082.5000	541.542
1083.0000	541.561
1083.5000	541.635
1084.0000	541.666
1084.5000	541.66
1085.0000	541.827
1085.5000	541.841
1086.0000	541.845
1086.5000	541.854
1087.0000	541.744
1087.5000	541.783
1088.0000	541.794
1088.5000	541.83
1089.0000	541.85
1089.5000	541.813
1090.0000	541.794
1090.5000	541.78
1091.0000	541.814
1091.5000	541.808
1092.0000	541.858
1092.5000	541.867
1093.0000	541.829
1093.5000	541.82
1094.0000	541.757
1094.5000	541.795
1095.0000	541.795
1095.5000	541.855
1096.0000	541.909
1096.5000	541.892
1097.0000	541.884
1097.5000	541.888
1098.0000	541.954
1098.5000	542.027
1099.0000	542.054
1099.5000	542.007
1100.0000	541.92
1100.5000	541.846
1101.0000	541.845
1101.5000	541.853
1102.0000	541.882
1102.5000	541.863
1103.0000	541.872
1103.5000	541.955
1104.0000	541.973
1104.5000	542.078
1105.0000	542.035
1105.5000	542.088
1106.0000	542.01
1106.5000	541.964
1107.0000	542.026
1107.5000	541.966
1108.0000	542
1108.5000	542.045
1109.0000	542.069
1109.5000	542.103
1110.0000	542.125
1110.5000	542.076
1111.0000	542.118
1111.5000	542.085
1112.0000	542.116
1112.5000	542.116
1113.0000	542.071
1113.5000	542.14
1114.0000	542.169
1114.5000	542.223
1115.0000	542.285
1115.5000	542.194
1116.0000	542.221
1116.5000	542.244
1117.0000	542.219
1117.5000	542.323
1118.0000	542.401
1118.5000	542.445
1119.0000	542.452
1119.5000	542.49
1120.0000	542.414
1120.5000	542.33
1121.0000	542.373
1121.5000	542.319
1122.0000	542.326
1122.5000	542.389
1123.0000	542.345
1123.5000	542.38
1124.0000	542.42
1124.5000	542.379
1125.0000	542.49
1125.5000	542.5
1126.0000	542.514
1126.5000	542.543
1127.0000	542.484
1127.5000	542.492
1128.0000	542.49
1128.5000	542.496
1129.0000	542.484
1129.5000	542.463
1130.0000	542.462
1130.5000	542.443
1131.0000	542.466
1131.5000	542.572
1132.0000	542.601
1132.5000	542.736
1133.0000	542.753
1133.5000	542.664
1134.0000	542.644
1134.5000	542.562
1135.0000	542.546
1135.5000	542.552
1136.0000	542.512
1136.5000	542.549
1137.0000	542.565
1137.5000	542.664
1138.0000	542.704
1138.5000	542.752
1139.0000	542.828
1139.5000	542.77
1140.0000	542.796
1140.5000	542.818
1141.0000	542.773
1141.5000	542.821
1142.0000	542.925
1142.5000	542.953
1143.0000	543.067
1143.5000	543.004
1144.0000	543.001
1144.5000	542.967
1145.0000	542.929
1145.5000	543.006
1146.0000	543.022
1146.5000	543.017
1147.0000	543.044
1147.5000	543.026
1148.0000	543.068
1148.5000	543.112
1149.0000	543.089
1149.5000	543.116
1150.0000	543.085
1150.5000	543.078
1151.0000	543.065
1151.5000	543.111
1152.0000	543.082
1152.5000	543.075
1153.0000	543.159
1153.5000	543.165
1154.0000	543.221
1154.5000	543.311
1155.0000	543.307
1155.5000	543.248
1156.0000	543.225
1156.5000	543.098
1157.0000	543.06
1157.5000	543.162
1158.0000	543.155
1158.5000	543.288
1159.0000	543.353
1159.5000	543.386
1160.0000	543.364
1160.5000	543.289
1161.0000	543.274
1161.5000	543.145
1162.0000	543.287
1162.5000	543.347
1163.0000	543.393
1163.5000	543.502
1164.0000	543.428
1164.5000	543.379
1165.0000	543.322
1165.5000	543.335
1166.0000	543.447
1166.5000	543.537
1167.0000	543.551
1167.5000	543.588
1168.0000	543.53
1168.5000	543.468
1169.0000	543.577
1169.5000	543.548
1170.0000	543.485
1170.5000	543.597
1171.0000	543.549
1171.5000	543.524
1172.0000	543.633
1172.5000	543.591
1173.0000	543.512
1173.5000	543.596
1174.0000	543.535
1174.5000	543.546
1175.0000	543.657
1175.5000	543.661
1176.0000	543.713
1176.5000	543.776
1177.0000	543.713
1177.5000	543.688
1178.0000	543.656
1178.5000	543.661
1179.0000	543.682
1179.5000	543.767
1180.0000	543.909
1180.5000	543.894
1181.0000	543.998
1181.5000	543.961
1182.0000	543.924
1182.5000	543.915
1183.0000	543.93
1183.5000	543.914
1184.0000	543.897
1184.5000	543.93
1185.0000	543.997
1185.5000	544.052
1186.0000	544.051
1186.5000	544.011
1187.0000	543.955
1187.5000	543.889
1188.0000	543.856
1188.5000	543.878
1189.0000	543.957
1189.5000	543.929
1190.0000	544.042
1190.5000	544.116
1191.0000	544.044
1191.5000	544.131
1192.0000	544.091
1192.5000	544.119
1193.0000	544.117
1193.5000	544.183
1194.0000	544.164
1194.5000	544.12
1195.0000	544.209
1195.5000	544.297
1196.0000	544.336
1196.5000	544.391
1197.0000	544.337
1197.5000	544.319
1198.0000	544.425
1198.5000	544.389
1199.0000	544.427
1199.5000	544.404
1200.0000	544.339
1200.5000	544.384
1201.0000	544.43
1201.5000	544.42
1202.0000	544.488
1202.5000	544.523
1203.0000	544.529
1203.5000	544.567
1204.0000	544.585
1204.5000	544.639
1205.0000	544.59
1205.5000	544.603
1206.0000	544.562
1206.5000	544.51
1207.0000	544.586
1207.5000	544.558
1208.0000	544.48
1208.5000	544.526
1209.0000	544.538
1209.5000	544.595
1210.0000	544.673
1210.5000	544.731
1211.0000	544.694
1211.5000	544.664
1212.0000	544.702
1212.5000	544.616
1213.0000	544.652
1213.5000	544.651
1214.0000	544.705
1214.5000	544.729
1215.0000	544.759
1215.5000	544.875
1216.0000	544.812
1216.5000	544.799
1217.0000	544.862
1217.5000	544.799
1218.0000	544.791
1218.5000	544.907
1219.0000	544.738
1219.5000	544.686
1220.0000	544.754
1220.5000	544.674
1221.0000	544.838
1221.5000	544.926
1222.0000	544.981
1222.5000	545.012
1223.0000	545.012
1223.5000	544.988
1224.0000	545.027
1224.5000	545.089
1225.0000	545.117
1225.5000	545.175
1226.0000	545.19
1226.5000	545.167
1227.0000	545.214
1227.5000	545.252
1228.0000	545.2
1228.5000	545.267
1229.0000	545.23
1229.5000	545.232
1230.0000	545.245
1230.5000	545.131
1231.0000	545.122
1231.5000	545.167
1232.0000	545.205
1232.5000	545.294
1233.0000	545.302
1233.5000	545.287
1234.0000	545.38
1234.5000	545.479
1235.0000	545.485
1235.5000	545.454
1236.0000	545.379
1236.5000	545.39
1237.0000	545.403
1237.5000	545.415
1238.0000	545.508
1238.5000	545.578
1239.0000	545.611
1239.5000	545.601
1240.0000	545.572
1240.5000	545.485
1241.0000	545.562
1241.5000	545.669
1242.0000	545.574
1242.5000	545.522
1243.0000	545.468
1243.5000	545.482
1244.0000	545.58
1244.5000	545.604
1245.0000	545.618
1245.5000	545.598
1246.0000	545.618
1246.5000	545.609
1247.0000	545.669
1247.5000	545.666
1248.0000	545.611
1248.5000	545.673
1249.0000	545.664
1249.5000	545.772
1250.0000	545.82
1250.5000	545.907
1251.0000	545.922
1251.5000	545.871
1252.0000	545.897
1252.5000	545.808
1253.0000	545.826
1253.5000	545.793
1254.0000	545.817
1254.5000	545.817
1255.0000	545.832
1255.5000	545.862
1256.0000	545.907
1256.5000	546.009
1257.0000	545.932
1257.5000	545.892
1258.0000	545.877
1258.5000	545.874
1259.0000	545.907
1259.5000	545.953
1260.0000	545.943
1260.5000	545.951
1261.0000	546.05
1261.5000	546.179
1262.0000	546.176
1262.5000	546.208
1263.0000	546.199
1263.5000	546.07
1264.0000	546.101
1264.5000	546.087
1265.0000	546.081
1265.5000	546.188
1266.0000	546.216
1266.5000	546.261
1267.0000	546.249
1267.5000	546.188
1268.0000	546.185
1268.5000	546.168
1269.0000	546.261
1269.5000	546.268
1270.0000	546.241
1270.5000	546.343
1271.0000	546.323
1271.5000	546.363
1272.0000	546.397
1272.5000	546.268
1273.0000	546.331
1273.5000	546.351
1274.0000	546.496
1274.5000	546.53
1275.0000	546.472
1275.5000	546.434
1276.0000	546.308
1276.5000	546.318
1277.0000	546.393
1277.5000	546.411
1278.0000	546.479
1278.5000	546.546
1279.0000	546.551
1279.5000	546.569
1280.0000	546.512
1280.5000	546.533
1281.0000	546.393
1281.5000	546.423
1282.0000	546.485
1282.5000	546.424
1283.0000	546.544
1283.5000	546.608
1284.0000	546.633
1284.5000	546.707
1285.0000	546.715
1285.5000	546.699
1286.0000	546.65
1286.5000	546.66
1287.0000	546.673
1287.5000	546.687
1288.0000	546.71
1288.5000	546.63
1289.0000	546.582
1289.5000	546.588
1290.0000	546.666
1290.5000	546.756
1291.0000	546.784
1291.5000	546.805
1292.0000	546.76
1292.5000	546.725
1293.0000	546.773
1293.5000	546.812
1294.0000	546.811
1294.5000	546.834
1295.0000	546.88
1295.5000	546.811
1296.0000	546.833
1296.5000	546.887
1297.0000	546.979
1297.5000	547.067
1298.0000	547.164
1298.5000	547.179
1299.0000	547.117
1299.5000	547.091
1300.0000	547.039
1300.5000	547.081
1301.0000	547.08
1301.5000	547.077
1302.0000	547.128
1302.5000	547.091
1303.0000	547.003
1303.5000	546.996
1304.0000	547.045
1304.5000	547.074
1305.0000	547.151
1305.5000	547.183
1306.0000	547.11
1306.5000	547.108
1307.0000	547.085
1307.5000	547.149
1308.0000	547.171
1308.5000	547.157
1309.0000	547.187
1309.5000	547.211
1310.0000	547.154
1310.5000	547.268
1311.0000	547.379
1311.5000	547.358
1312.0000	547.456
1312.5000	547.426
1313.0000	547.41
1313.5000	547.386
1314.0000	547.3
1314.5000	547.275
1315.0000	547.245
1315.5000	547.25
1316.0000	547.319
1316.5000	547.303
1317.0000	547.359
1317.5000	547.383
1318.0000	547.404
1318.5000	547.386
1319.0000	547.354
1319.5000	547.444
1320.0000	547.448
1320.5000	547.495
1321.0000	547.538
1321.5000	547.502
1322.0000	547.564
1322.5000	547.564
1323.0000	547.528
1323.5000	547.464
1324.0000	547.424
1324.5000	547.465
1325.0000	547.525
1325.5000	547.619
1326.0000	547.658
1326.5000	547.638
1327.0000	547.595
1327.5000	547.588
1328.0000	547.594
1328.5000	547.647
1329.0000	547.632
1329.5000	547.703
1330.0000	547.71
1330.5000	547.678
1331.0000	547.723
1331.5000	547.668
1332.0000	547.653
1332.5000	547.664
1333.0000	547.745
1333.5000	547.71
1334.0000	547.7
1334.5000	547.763
1335.0000	547.746
1335.5000	547.785
1336.0000	547.851
1336.5000	547.848
1337.0000	547.764
1337.5000	547.778
1338.0000	547.772
1338.5000	547.81
1339.0000	547.866
1339.5000	547.963
1340.0000	547.852
1340.5000	547.824
1341.0000	547.801
1341.5000	547.785
1342.0000	547.893
1342.5000	547.892
1343.0000	547.929
1343.5000	547.912
1344.0000	547.996
1344.5000	548.029
1345.0000	548.038
1345.5000	548.078
1346.0000	548.037
1346.5000	548.087
1347.0000	548.087
1347.5000	548.084
1348.0000	548.039
1348.5000	548.002
1349.0000	548.087
1349.5000	548.079
1350.0000	548.175
1350.5000	548.163
1351.0000	548.154
1351.5000	548.169
1352.0000	548.13
1352.5000	548.233
1353.0000	548.205
1353.5000	548.182
1354.0000	548.212
1354.5000	548.069
1355.0000	548.182
1355.5000	548.258
1356.0000	548.299
1356.5000	548.465
1357.0000	548.401
1357.5000	548.255
1358.0000	548.241
1358.5000	548.241
1359.0000	548.221
1359.5000	548.373
1360.0000	548.326
1360.5000	548.286
1361.0000	548.394
1361.5000	548.316
1362.0000	548.311
1362.5000	548.359
1363.0000	548.278
1363.5000	548.278
1364.0000	548.378
1364.5000	548.36
1365.0000	548.389
1365.5000	548.427
1366.0000	548.408
1366.5000	548.379
1367.0000	548.396
1367.5000	548.449
1368.0000	548.467
1368.5000	548.524
1369.0000	548.483
1369.5000	548.486
1370.0000	548.435
1370.5000	548.424
1371.0000	548.48
1371.5000	548.431
1372.0000	548.544
1372.5000	548.566
1373.0000	548.518
1373.5000	548.604
1374.0000	548.586
1374.5000	548.644
1375.0000	548.677
1375.5000	548.619
1376.0000	548.62
1376.5000	548.58
1377.0000	548.583
1377.5000	548.675
1378.0000	548.644
1378.5000	548.621
1379.0000	548.675
1379.5000	548.595
1380.0000	548.583
1380.5000	548.635
1381.0000	548.694
1381.5000	548.729
1382.0000	548.753
1382.5000	548.753
1383.0000	548.711
1383.5000	548.726
1384.0000	548.787
1384.5000	548.794
1385.0000	548.793
1385.5000	548.843
1386.0000	548.835
1386.5000	548.873
1387.0000	548.939
1387.5000	548.906
1388.0000	548.932
1388.5000	548.894
1389.0000	548.809
1389.5000	548.731
1390.0000	548.777
1390.5000	548.833
1391.0000	548.903
1391.5000	549.038
1392.0000	548.996
1392.5000	548.946
1393.0000	548.869
1393.5000	548.864
1394.0000	548.945
1394.5000	548.986
1395.0000	548.987
1395.5000	549.04
1396.0000	548.947
1396.5000	548.857
1397.0000	548.934
1397.5000	548.934
1398.0000	548.981
1398.5000	549.06
1399.0000	549.002
1399.5000	549.022
1400.0000	549.052
1400.5000	549.128
1401.0000	549.301
1401.5000	549.293
1402.0000	549.268
1402.5000	549.26
1403.0000	549.187
1403.5000	549.085
1404.0000	549.076
1404.5000	549.053
1405.0000	549.01
1405.5000	549.14
1406.0000	549.278
1406.5000	549.233
1407.0000	549.224
1407.5000	549.19
1408.0000	549.044
1408.5000	549.117
1409.0000	549.203
1409.5000	549.201
1410.0000	549.261
1410.5000	549.283
1411.0000	549.327
1411.5000	549.294
1412.0000	549.322
1412.5000	549.36
1413.0000	549.36
1413.5000	549.444
1414.0000	549.475
1414.5000	549.482
1415.0000	549.436
1415.5000	549.517
1416.0000	549.455
1416.5000	549.392
1417.0000	549.438
1417.5000	549.283
1418.0000	549.327
1418.5000	549.388
1419.0000	549.313
1419.5000	549.308
1420.0000	549.296
1420.5000	549.21
1421.0000	549.325
1421.5000	549.42
1422.0000	549.371
1422.5000	549.426
1423.0000	549.447
1423.5000	549.456
1424.0000	549.507
1424.5000	549.576
1425.0000	549.478
1425.5000	549.473
1426.0000	549.392
1426.5000	549.293
1427.0000	549.224
1427.5000	549.239
1428.0000	549.32
1428.5000	549.303
1429.0000	549.448
1429.5000	549.453
1430.0000	549.521
1430.5000	549.498
1431.0000	549.537
1431.5000	549.541
1432.0000	549.542
1432.5000	549.654
1433.0000	549.578
1433.5000	549.61
1434.0000	549.661
1434.5000	549.611
1435.0000	549.667
1435.5000	549.653
1436.0000	549.537
1436.5000	549.636
1437.0000	549.646
1437.5000	549.674
1438.0000	549.804
1438.5000	549.834
1439.0000	549.747
1439.5000	549.727
1440.0000	549.722
1440.5000	549.709
1441.0000	549.751
1441.5000	549.75
1442.0000	549.732
1442.5000	549.643
1443.0000	549.684
1443.5000	549.786
1444.0000	549.782
1444.5000	549.834
1445.0000	549.843
1445.5000	549.787
1446.0000	549.812
1446.5000	549.863
1447.0000	549.873
1447.5000	549.887
1448.0000	549.896
1448.5000	549.887
1449.0000	549.889
1449.5000	549.908
1450.0000	549.997
1450.5000	550.068
1451.0000	550.193
1451.5000	550.196
1452.0000	550.196
1452.5000	550.226
1453.0000	550.153
1453.5000	550.185
1454.0000	550.136
1454.5000	550.051
1455.0000	550.105
1455.5000	550.051
1456.0000	550.068
1456.5000	550.085
1457.0000	550.018
1457.5000	549.997
1458.0000	550.108
1458.5000	550.168
1459.0000	550.164
1459.5000	550.298
1460.0000	550.17
1460.5000	550.117
1461.0000	550.173
1461.5000	550.185
1462.0000	550.277
1462.5000	550.335
1463.0000	550.432
1463.5000	550.296
1464.0000	550.172
1464.5000	550.171
1465.0000	550.161
1465.5000	550.271
1466.0000	550.439
1466.5000	550.538
1467.0000	550.555
1467.5000	550.536
1468.0000	550.433
1468.5000	550.342
1469.0000	550.333
1469.5000	550.356
1470.0000	550.327
1470.5000	550.355
1471.0000	550.343
1471.5000	550.349
1472.0000	550.365
1472.5000	550.385
1473.0000	550.35
1473.5000	550.365
1474.0000	550.496
1474.5000	550.439
1475.0000	550.448
1475.5000	550.336
1476.0000	550.243
1476.5000	550.307
1477.0000	550.327
1477.5000	550.462
1478.0000	550.52
1478.5000	550.537
1479.0000	550.655
1479.5000	550.638
1480.0000	550.69
1480.5000	550.709
1481.0000	550.686
1481.5000	550.675
1482.0000	550.707
1482.5000	550.681
1483.0000	550.653
1483.5000	550.736
1484.0000	550.683
1484.5000	550.822
1485.0000	550.785
1485.5000	550.765
1486.0000	550.803
1486.5000	550.718
1487.0000	550.741
1487.5000	550.805
1488.0000	550.783
1488.5000	550.8
1489.0000	550.846
1489.5000	550.827
1490.0000	550.893
1490.5000	550.899
1491.0000	550.858
1491.5000	550.893
1492.0000	550.937
1492.5000	550.975
1493.0000	550.946
1493.5000	550.938
1494.0000	550.871
1494.5000	550.871
1495.0000	550.855
1495.5000	550.878
1496.0000	550.886
1496.5000	550.821
1497.0000	550.998
1497.5000	550.891
1498.0000	550.866
1498.5000	550.856
1499.0000	550.74
1499.5000	550.808
1500.0000	550.926
1500.5000	550.968
1501.0000	550.997
1501.5000	551.08
1502.0000	551.052
1502.5000	551.061
1503.0000	551.07
1503.5000	551.001
1504.0000	551.003
1504.5000	551.049
1505.0000	551.115
1505.5000	551.215
1506.0000	551.189
1506.5000	551.224
1507.0000	551.194
1507.5000	551.148
1508.0000	551.179
1508.5000	551.176
1509.0000	551.196
1509.5000	551.241
1510.0000	551.184
1510.5000	551.19
1511.0000	551.241
1511.5000	551.272
1512.0000	551.37
1512.5000	551.378
1513.0000	551.372
1513.5000	551.341
1514.0000	551.356
1514.5000	551.409
1515.0000	551.425
1515.5000	551.367
1516.0000	551.396
1516.5000	551.3
1517.0000	551.305
1517.5000	551.398
1518.0000	551.372
1518.5000	551.464
1519.0000	551.51
1519.5000	551.483
1520.0000	551.473
1520.5000	551.534
1521.0000	551.434
1521.5000	551.408
1522.0000	551.403
1522.5000	551.302
1523.0000	551.332
1523.5000	551.411
1524.0000	551.452
1524.5000	551.574
1525.0000	551.593
1525.5000	551.604
1526.0000	551.598
1526.5000	551.472
1527.0000	551.438
1527.5000	551.451
1528.0000	551.453
1528.5000	551.506
1529.0000	551.606
1529.5000	551.552
1530.0000	551.5
1530.5000	551.428
1531.0000	551.436
1531.5000	551.487
1532.0000	551.561
1532.5000	551.601
1533.0000	551.566
1533.5000	551.494
1534.0000	551.526
1534.5000	551.604
1535.0000	551.586
1535.5000	551.546
1536.0000	551.512
1536.5000	551.448
1537.0000	551.533
1537.5000	551.706
1538.0000	551.737
1538.5000	551.755
1539.0000	551.682
1539.5000	551.658
1540.0000	551.655
1540.5000	551.685
1541.0000	551.78
1541.5000	551.734
1542.0000	551.668
1542.5000	551.705
1543.0000	551.591
1543.5000	551.621
1544.0000	551.7
1544.5000	551.692
1545.0000	551.683
1545.5000	551.716
1546.0000	551.807
1546.5000	551.77
1547.0000	551.855
1547.5000	551.925
1548.0000	551.836
1548.5000	551.873
1549.0000	551.952
1549.5000	551.918
1550.0000	551.92
1550.5000	552.041
1551.0000	552.005
1551.5000	551.954
1552.0000	552.03
1552.5000	551.976
1553.0000	551.836
1553.5000	551.841
1554.0000	551.794
1554.5000	551.766
1555.0000	551.879
1555.5000	551.904
1556.0000	551.936
1556.5000	551.941
1557.0000	551.982
1557.5000	551.953
1558.0000	551.915
1558.5000	551.934
1559.0000	551.959
1559.5000	552.003
1560.0000	551.981
1560.5000	551.952
1561.0000	551.988
1561.5000	551.902
1562.0000	551.889
1562.5000	551.896
1563.0000	551.831
1563.5000	551.981
1564.0000	552.084
1564.5000	552.166
1565.0000	552.225
1565.5000	552.131
1566.0000	552.181
1566.5000	552.15
1567.0000	552.164
1567.5000	552.288
1568.0000	552.207
1568.5000	552.172
1569.0000	552.115
1569.5000	552.061
1570.0000	552.084
1570.5000	552.112
1571.0000	552.085
1571.5000	552.079
1572.0000	552.086
1572.5000	552.027
1573.0000	552.176
1573.5000	552.219
1574.0000	552.254
1574.5000	552.344
1575.0000	552.271
1575.5000	552.335
1576.0000	552.351
1576.5000	552.297
1577.0000	552.268
1577.5000	552.185
1578.0000	552.143
1578.5000	552.233
1579.0000	552.343
1579.5000	552.33
1580.0000	552.363
1580.5000	552.301
1581.0000	552.278
1581.5000	552.357
1582.0000	552.362
1582.5000	552.392
1583.0000	552.356
1583.5000	552.342
1584.0000	552.358
1584.5000	552.379
1585.0000	552.449
1585.5000	552.437
1586.0000	552.434
1586.5000	552.455
1587.0000	552.373
1587.5000	552.401
1588.0000	552.413
1588.5000	552.404
1589.0000	552.439
1589.5000	552.429
1590.0000	552.462
1590.5000	552.518
1591.0000	552.561
1591.5000	552.653
1592.0000	552.7
1592.5000	552.734
1593.0000	552.709
1593.5000	552.724
1594.0000	552.711
1594.5000	552.629
1595.0000	552.608
1595.5000	552.522
1596.0000	552.445
1596.5000	552.525
1597.0000	552.46
1597.5000	552.494
1598.0000	552.568
1598.5000	552.54
1599.0000	552.624
1599.5000	552.6
1600.0000	552.591
1600.5000	552.588
1601.0000	552.482
1601.5000	552.516
1602.0000	552.538
1602.5000	552.557
1603.0000	552.698
1603.5000	552.721
1604.0000	552.711
1604.5000	552.775
1605.0000	552.812
1605.5000	552.804
1606.0000	552.867
1606.5000	552.831
1607.0000	552.799
1607.5000	552.81
1608.0000	552.768
1608.5000	552.765
1609.0000	552.803
1609.5000	552.755
1610.0000	552.729
1610.5000	552.73
1611.0000	552.718
1611.5000	552.746
1612.0000	552.774
1612.5000	552.856
1613.0000	552.812
1613.5000	552.81
1614.0000	552.779
1614.5000	552.719
1615.0000	552.796
1615.5000	552.766
1616.0000	552.867
1616.5000	552.934
1617.0000	552.948
1617.5000	553.047
1618.0000	553.051
1618.5000	552.918
1619.0000	552.892
1619.5000	552.886
1620.0000	552.769
1620.5000	552.888
1621.0000	552.909
1621.5000	552.832
1622.0000	552.906
1622.5000	552.816
1623.0000	552.757
1623.5000	552.795
1624.0000	552.793
1624.5000	552.882
1625.0000	552.961
1625.5000	552.953
1626.0000	552.98
1626.5000	552.971
1627.0000	552.937
1627.5000	552.968
1628.0000	552.995
1628.5000	552.953
1629.0000	553.055
1629.5000	553.105
1630.0000	553.121
1630.5000	553.137
1631.0000	553.108
1631.5000	553.07
1632.0000	553.059
1632.5000	553.107
1633.0000	553.089
1633.5000	553.086
1634.0000	553.11
1634.5000	553.13
1635.0000	553.107
1635.5000	553.145
1636.0000	553.097
1636.5000	553.108
1637.0000	553.125
1637.5000	553.081
1638.0000	553.062
1638.5000	552.977
1639.0000	552.973
1639.5000	552.995
1640.0000	553.02
1640.5000	553.086
1641.0000	553.034
1641.5000	553.041
1642.0000	553.015
1642.5000	552.985
1643.0000	553.002
1643.5000	553.079
1644.0000	553.091
1644.5000	553.087
1645.0000	553.195
1645.5000	553.146
1646.0000	553.237
1646.5000	553.196
1647.0000	553.114
1647.5000	553.12
1648.0000	553.031
1648.5000	553.126
1649.0000	553.186
1649.5000	553.249
1650.0000	553.262
1650.5000	553.262
1651.0000	553.268
1651.5000	553.251
1652.0000	553.313
1652.5000	553.215
1653.0000	553.193
1653.5000	553.211
1654.0000	553.216
1654.5000	553.197
1655.0000	553.285
1655.5000	553.255
1656.0000	553.217
1656.5000	553.304
1657.0000	553.314
1657.5000	553.289
1658.0000	553.261
1658.5000	553.203
1659.0000	553.137
1659.5000	553.194
1660.0000	553.321
1660.5000	553.442
1661.0000	553.446
1661.5000	553.455
1662.0000	553.346
1662.5000	553.349
1663.0000	553.314
1663.5000	553.257
1664.0000	553.298
1664.5000	553.183
1665.0000	553.224
1665.5000	553.155
1666.0000	553.189
1666.5000	553.311
1667.0000	553.33
1667.5000	553.327
1668.0000	553.299
1668.5000	553.337
1669.0000	553.258
1669.5000	553.349
1670.0000	553.356
1670.5000	553.242
1671.0000	553.307
1671.5000	553.279
1672.0000	553.28
1672.5000	553.41
1673.0000	553.38
1673.5000	553.422
1674.0000	553.498
1674.5000	553.436
1675.0000	553.426
1675.5000	553.42
1676.0000	553.309
1676.5000	553.362
1677.0000	553.371
1677.5000	553.469
1678.0000	553.462
1678.5000	553.422
1679.0000	553.44
1679.5000	553.354
1680.0000	553.443
1680.5000	553.44
1681.0000	553.482
1681.5000	553.466
1682.0000	553.415
1682.5000	553.388
1683.0000	553.382
1683.5000	553.336
1684.0000	553.36
1684.5000	553.362
1685.0000	553.385
1685.5000	553.481
1686.0000	553.422
1686.5000	553.454
1687.0000	553.419
1687.5000	553.423
1688.0000	553.448
1688.5000	553.434
1689.0000	553.458
1689.5000	553.395
1690.0000	553.383
1690.5000	553.397
1691.0000	553.45
1691.5000	553.412
1692.0000	553.447
1692.5000	553.404
1693.0000	553.325
1693.5000	553.395
1694.0000	553.448
1694.5000	553.463
1695.0000	553.434
1695.5000	553.426
1696.0000	553.317
1696.5000	553.325
1697.0000	553.288
1697.5000	553.339
1698.0000	553.381
1698.5000	553.342
1699.0000	553.42
1699.5000	553.382
1700.0000	553.369
1700.5000	553.369
1701.0000	553.294
1701.5000	553.232
1702.0000	553.218
1702.5000	553.144
1703.0000	553.207
1703.5000	553.265
1704.0000	553.305
1704.5000	553.367
1705.0000	553.355
1705.5000	553.294
1706.0000	553.23
1706.5000	553.276
1707.0000	553.252
1707.5000	553.202
1708.0000	553.193
1708.5000	553.15
1709.0000	553.158
1709.5000	553.198
1710.0000	553.185
1710.5000	553.203
1711.0000	553.203
1711.5000	553.238
1712.0000	553.212
1712.5000	553.153
1713.0000	553.179
1713.5000	553.212
1714.0000	553.309
1714.5000	553.418
1715.0000	553.371
1715.5000	553.377
1716.0000	553.364
1716.5000	553.288
1717.0000	553.328
1717.5000	553.213
1718.0000	553.275
1718.5000	553.332
1719.0000	553.346
1719.5000	553.416
1720.0000	553.332
1720.5000	553.239
1721.0000	553.224
1721.5000	553.221
1722.0000	553.209
1722.5000	553.225
1723.0000	553.2
1723.5000	553.208
1724.0000	553.213
1724.5000	553.215
1725.0000	553.19
1725.5000	553.132
1726.0000	553.104
1726.5000	553.108
1727.0000	553.177
1727.5000	553.231
1728.0000	553.212
1728.5000	553.206
1729.0000	553.183
1729.5000	553.171
1730.0000	553.196
1730.5000	553.179
1731.0000	553.133
1731.5000	553.152
1732.0000	553.173
1732.5000	553.195
1733.0000	553.173
1733.5000	553.152
1734.0000	553.189
1734.5000	553.196
1735.0000	553.195
1735.5000	553.218
1736.0000	553.131
1736.5000	553.165
1737.0000	553.173
1737.5000	553.127
1738.0000	553.241
1738.5000	553.16
1739.0000	553.194
1739.5000	553.15
1740.0000	553.082
1740.5000	553.098
1741.0000	553.089
1741.5000	553.141
1742.0000	553.096
1742.5000	553.157
1743.0000	553.159
1743.5000	553.253
1744.0000	553.258
1744.5000	553.231
1745.0000	553.219
1745.5000	553.215
1746.0000	553.206
1746.5000	553.178
1747.0000	553.162
1747.5000	553.096
1748.0000	553.081
1748.5000	553.109
1749.0000	553.043
1749.5000	553.047
1750.0000	553.099
1750.5000	553.061
1751.0000	553.092
1751.5000	553.057
1752.0000	553.076
1752.5000	553.072
1753.0000	553.142
1753.5000	553.195
1754.0000	553.209
1754.5000	553.217
1755.0000	553.163
1755.5000	553.069
1756.0000	552.994
1756.5000	552.948
1757.0000	552.977
1757.5000	552.999
1758.0000	553.108
1758.5000	553.207
1759.0000	553.203
1759.5000	553.181
1760.0000	553.085
1760.5000	553.058
1761.0000	552.962
1761.5000	552.937
1762.0000	552.972
1762.5000	552.943
1763.0000	552.958
1763.5000	553.017
1764.0000	553
1764.5000	552.981
1765.0000	553.049
1765.5000	552.989
1766.0000	552.997
1766.5000	553.039
1767.0000	553.05
1767.5000	553.156
1768.0000	553.182
1768.5000	553.184
1769.0000	553.167
1769.5000	553.135
1770.0000	553.027
1770.5000	553.073
1771.0000	553.129
1771.5000	553.134
1772.0000	553.145
1772.5000	553.059
1773.0000	553.029
1773.5000	553.015
1774.0000	553.014
1774.5000	553.006
1775.0000	552.899
1775.5000	552.883
1776.0000	552.884
1776.5000	552.907
1777.0000	552.939
1777.5000	552.884
1778.0000	552.978
1778.5000	552.976
1779.0000	553.032
1779.5000	553.099
1780.0000	553.061
1780.5000	553.012
1781.0000	553.027
1781.5000	553.106
1782.0000	553.047
1782.5000	553.03
1783.0000	552.988
1783.5000	552.89
1784.0000	552.887
1784.5000	552.972
1785.0000	553.012
1785.5000	552.926
1786.0000	552.997
1786.5000	552.975
1787.0000	552.935
1787.5000	553.001
1788.0000	552.965
1788.5000	552.928
1789.0000	552.923
1789.5000	552.947
1790.0000	552.969
1790.5000	553.007
1791.0000	552.917
1791.5000	552.827
1792.0000	552.776
1792.5000	552.787
1793.0000	552.879
1793.5000	552.974
1794.0000	552.993
1794.5000	552.928
1795.0000	552.871
1795.5000	552.879
1796.0000	552.929
1796.5000	552.967
1797.0000	552.936
1797.5000	552.854
1798.0000	552.76
1798.5000	552.687
1799.0000	552.638
1799.5000	552.686
1800.0000	552.716
1800.5000	552.753
1801.0000	552.853
1801.5000	552.836
1802.0000	552.732
1802.5000	552.695
1803.0000	552.745
1803.5000	552.659
1804.0000	552.701
1804.5000	552.758
1805.0000	552.609
1805.5000	552.593
1806.0000	552.583
1806.5000	552.567
1807.0000	552.651
1807.5000	552.653
1808.0000	552.662
1808.5000	552.655
1809.0000	552.594
1809.5000	552.68
1810.0000	552.771
1810.5000	552.716
1811.0000	552.71
1811.5000	552.699
1812.0000	552.625
1812.5000	552.689
1813.0000	552.769
1813.5000	552.753
1814.0000	552.81
1814.5000	552.707
1815.0000	552.696
1815.5000	552.708
1816.0000	552.653
1816.5000	552.693
1817.0000	552.588
1817.5000	552.642
1818.0000	552.55
1818.5000	552.568
1819.0000	552.725
1819.5000	552.572
1820.0000	552.722
1820.5000	552.741
1821.0000	552.629
1821.5000	552.69
1822.0000	552.563
1822.5000	552.558
1823.0000	552.595
1823.5000	552.589
1824.0000	552.661
1824.5000	552.643
1825.0000	552.582
1825.5000	552.578
1826.0000	552.498
1826.5000	552.409
1827.0000	552.451
1827.5000	552.384
1828.0000	552.362
1828.5000	552.406
1829.0000	552.332
1829.5000	552.387
1830.0000	552.39
1830.5000	552.37
1831.0000	552.325
1831.5000	552.33
1832.0000	552.361
1832.5000	552.353
1833.0000	552.43
1833.5000	552.395
1834.0000	552.383
1834.5000	552.392
1835.0000	552.424
1835.5000	552.347
1836.0000	552.365
1836.5000	552.356
1837.0000	552.34
1837.5000	552.376
1838.0000	552.314
1838.5000	552.311
1839.0000	552.334
1839.5000	552.325
1840.0000	552.345
1840.5000	552.292
1841.0000	552.158
1841.5000	552.291
1842.0000	552.26
1842.5000	552.378
1843.0000	552.448
1843.5000	552.277
1844.0000	552.224
1844.5000	552.115
1845.0000	552.074
1845.5000	552.059
1846.0000	552.124
1846.5000	552.134
1847.0000	552.105
1847.5000	552.232
1848.0000	552.273
1848.5000	552.33
1849.0000	552.366
1849.5000	552.307
1850.0000	552.264
1850.5000	552.192
1851.0000	552.107
1851.5000	552.074
1852.0000	552.046
1852.5000	552.023
1853.0000	552.138
1853.5000	552.114
1854.0000	552.086
1854.5000	552.017
1855.0000	552.017
1855.5000	551.995
1856.0000	552.054
1856.5000	552.14
1857.0000	552.025
1857.5000	552.039
1858.0000	551.963
1858.5000	551.943
1859.0000	551.976
1859.5000	552.008
1860.0000	552.027
1860.5000	552.047
1861.0000	552.124
1861.5000	552.254
1862.0000	552.259
1862.5000	552.218
1863.0000	552.123
1863.5000	551.98
1864.0000	551.975
1864.5000	551.961
1865.0000	551.962
1865.5000	551.901
1866.0000	551.939
1866.5000	552.022
1867.0000	551.971
1867.5000	551.985
1868.0000	551.978
1868.5000	551.917
1869.0000	551.977
1869.5000	552.004
1870.0000	551.884
1870.5000	551.897
1871.0000	551.847
1871.5000	551.741
1872.0000	551.854
1872.5000	551.754
1873.0000	551.806
1873.5000	551.8
1874.0000	551.728
1874.5000	551.768
1875.0000	551.752
1875.5000	551.769
1876.0000	551.796
1876.5000	551.801
1877.0000	551.721
1877.5000	551.765
1878.0000	551.716
1878.5000	551.63
1879.0000	551.674
1879.5000	551.64
1880.0000	551.682
1880.5000	551.743
1881.0000	551.724
1881.5000	551.729
1882.0000	551.64
1882.5000	551.675
1883.0000	551.625
1883.5000	551.669
1884.0000	551.735
1884.5000	551.672
1885.0000	551.713
1885.5000	551.606
1886.0000	551.522
1886.5000	551.606
1887.0000	551.589
1887.5000	551.575
1888.0000	551.614
1888.5000	551.597
1889.0000	551.623
1889.5000	551.635
1890.0000	551.611
1890.5000	551.581
1891.0000	551.595
1891.5000	551.594
1892.0000	551.583
1892.5000	551.559
1893.0000	551.511
1893.5000	551.551
1894.0000	551.595
1894.5000	551.605
1895.0000	551.633
1895.5000	551.653
1896.0000	551.553
1896.5000	551.53
1897.0000	551.399
1897.5000	551.362
1898.0000	551.412
1898.5000	551.392
1899.0000	551.453
1899.5000	551.42
1900.0000	551.423
1900.5000	551.407
1901.0000	551.331
1901.5000	551.375
1902.0000	551.394
1902.5000	551.33
1903.0000	551.404
1903.5000	551.379
1904.0000	551.302
1904.5000	551.333
1905.0000	551.376
1905.5000	551.288
1906.0000	551.28
1906.5000	551.285
1907.0000	551.215
1907.5000	551.242
1908.0000	551.285
1908.5000	551.194
1909.0000	551.281
1909.5000	551.327
1910.0000	551.286
1910.5000	551.36
1911.0000	551.251
1911.5000	551.209
1912.0000	551.177
1912.5000	551.09
1913.0000	551.087
1913.5000	551.044
1914.0000	551.092
1914.5000	551.204
1915.0000	551.149
1915.5000	551.163
1916.0000	551.184
1916.5000	551.152
1917.0000	551.223
1917.5000	551.199
1918.0000	551.068
1918.5000	551.043
1919.0000	551.06
1919.5000	551.105
1920.0000	551.23
1920.5000	551.283
1921.0000	551.205
1921.5000	551.189
1922.0000	551.097
1922.5000	550.903
1923.0000	550.909
1923.5000	550.884
1924.0000	550.96
1924.5000	551.035
1925.0000	551.017
1925.5000	551.05
1926.0000	550.977
1926.5000	551.027
1927.0000	551.05
1927.5000	550.93
1928.0000	550.917
1928.5000	550.851
1929.0000	550.745
1929.5000	550.771
1930.0000	550.803
1930.5000	550.787
1931.0000	550.819
1931.5000	550.861
1932.0000	550.866
1932.5000	550.885
1933.0000	550.938
1933.5000	550.877
1934.0000	550.749
1934.5000	550.743
1935.0000	550.767
1935.5000	550.833
1936.0000	550.861
1936.5000	550.855
1937.0000	550.859
1937.5000	550.793
1938.0000	550.799
1938.5000	550.8
1939.0000	550.701
1939.5000	550.593
1940.0000	550.632
1940.5000	550.609
1941.0000	550.547
1941.5000	550.583
1942.0000	550.547
1942.5000	550.537
1943.0000	550.643
1943.5000	550.747
1944.0000	550.833
1944.5000	550.841
1945.0000	550.862
1945.5000	550.84
1946.0000	550.803
1946.5000	550.737
1947.0000	550.65
1947.5000	550.638
1948.0000	550.554
1948.5000	550.626
1949.0000	550.662
1949.5000	550.617
1950.0000	550.54
1950.5000	550.578
1951.0000	550.556
1951.5000	550.582
1952.0000	550.647
1952.5000	550.595
1953.0000	550.556
1953.5000	550.565
1954.0000	550.601
1954.5000	550.564
1955.0000	550.581
1955.5000	550.525
1956.0000	550.422
1956.5000	550.441
1957.0000	550.433
1957.5000	550.484
1958.0000	550.492
1958.5000	550.433
1959.0000	550.383
1959.5000	550.31
1960.0000	550.284
1960.5000	550.333
1961.0000	550.294
1961.5000	550.215
1962.0000	550.273
1962.5000	550.276
1963.0000	550.349
1963.5000	550.407
1964.0000	550.415
1964.5000	550.369
1965.0000	550.327
1965.5000	550.3
1966.0000	550.231
1966.5000	550.227
1967.0000	550.236
1967.5000	550.3
1968.0000	550.336
1968.5000	550.317
1969.0000	550.261
1969.5000	550.223
1970.0000	550.221
1970.5000	550.188
1971.0000	550.186
1971.5000	550.17
1972.0000	550.197
1972.5000	550.187
1973.0000	550.171
1973.5000	550.095
1974.0000	550.024
1974.5000	550.042
1975.0000	550.121
1975.5000	550.203
1976.0000	550.188
1976.5000	550.209
1977.0000	550.171
1977.5000	550.174
1978.0000	550.277
1978.5000	550.259
1979.0000	550.241
1979.5000	550.179
1980.0000	550.151
1980.5000	550.12
1981.0000	550.058
1981.5000	550.035
1982.0000	549.973
1982.5000	549.924
1983.0000	549.923
1983.5000	549.965
1984.0000	549.906
1984.5000	549.943
1985.0000	550.007
1985.5000	550.022
1986.0000	550.046
1986.5000	550.066
1987.0000	550.005
1987.5000	549.906
1988.0000	549.954
1988.5000	549.9
1989.0000	549.961
1989.5000	549.931
1990.0000	549.812
1990.5000	549.77
1991.0000	549.779
1991.5000	549.845
1992.0000	549.857
1992.5000	549.802
1993.0000	549.663
1993.5000	549.589
1994.0000	549.583
1994.5000	549.721
1995.0000	549.737
1995.5000	549.727
1996.0000	549.742
1996.5000	549.65
1997.0000	549.633
1997.5000	549.669
1998.0000	549.683
1998.5000	549.697
1999.0000	549.726
1999.5000	549.69
2000.0000	549.628
