TITLE	
DATA TYPE	
ORIGIN	JASCO
OWNER	
DATE	22/04/19
TIME	19:28:11
SPECTROMETER/DATA SYSTEM	
RESOLUTION	
DELTAX	0.5
XUNITS	SEC
YUNITS	INTENSITY
FIRSTX	0.0000
LASTX	1944.0000
NPOINTS	3889
FIRSTY	419.32019
MAXY	421.34268
MINY	-110.36031
XYDATA
0.0000	419.32
0.5000	419.311
1.0000	419.355
1.5000	419.438
2.0000	419.549
2.5000	419.655
3.0000	419.583
3.5000	419.595
4.0000	419.632
4.5000	419.638
5.0000	419.695
5.5000	419.686
6.0000	419.662
6.5000	419.699
7.0000	419.751
7.5000	419.803
8.0000	419.807
8.5000	419.8
9.0000	419.847
9.5000	419.894
10.0000	419.807
10.5000	419.877
11.0000	419.899
11.5000	419.823
12.0000	419.921
12.5000	419.856
13.0000	419.81
13.5000	419.978
14.0000	420.01
14.5000	420.044
15.0000	420.096
15.5000	420.088
16.0000	420.071
16.5000	420.143
17.0000	420.248
17.5000	420.219
18.0000	420.372
18.5000	420.466
19.0000	420.466
19.5000	420.538
20.0000	420.612
20.5000	420.608
21.0000	420.663
21.5000	420.687
22.0000	420.7
22.5000	420.786
23.0000	420.806
23.5000	420.952
24.0000	420.869
24.5000	420.911
25.0000	420.886
25.5000	420.799
26.0000	420.829
26.5000	420.806
27.0000	420.848
27.5000	420.857
28.0000	420.86
28.5000	420.824
29.0000	420.903
29.5000	420.993
30.0000	421.051
30.5000	421.121
31.0000	421.145
31.5000	421.06
32.0000	421.09
32.5000	421.07
33.0000	421.076
33.5000	421.135
34.0000	421.284
34.5000	421.3
35.0000	421.279
35.5000	421.343
36.0000	421.229
36.5000	421.239
37.0000	421.233
37.5000	421.216
38.0000	421.143
38.5000	421.099
39.0000	421.089
39.5000	421.081
40.0000	421.099
40.5000	421.133
41.0000	421.212
41.5000	421.215
42.0000	421.267
42.5000	420.122
43.0000	404.174
43.5000	382.245
44.0000	327.438
44.5000	-110.36
45.0000	-56.4226
45.5000	-35.9182
46.0000	-31.4505
46.5000	-29.812
47.0000	-28.809
47.5000	-27.9021
48.0000	-27.2432
48.5000	-26.8158
49.0000	-26.3415
49.5000	-26.0884
50.0000	-25.83
50.5000	116.649
51.0000	102.953
51.5000	94.7218
52.0000	91.2203
52.5000	81.1539
53.0000	77.0766
53.5000	76.7979
54.0000	76.7064
54.5000	76.6428
55.0000	76.6105
55.5000	76.5857
56.0000	76.5609
56.5000	76.5631
57.0000	76.5596
57.5000	76.5586
58.0000	76.6285
58.5000	76.6289
59.0000	76.6266
59.5000	76.6554
60.0000	76.6306
60.5000	76.6503
61.0000	76.6663
61.5000	76.6554
62.0000	76.6738
62.5000	76.6373
63.0000	76.5998
63.5000	76.556
64.0000	76.5321
64.5000	76.5767
65.0000	76.6264
65.5000	76.6959
66.0000	76.7291
66.5000	76.765
67.0000	76.7969
67.5000	76.8181
68.0000	76.8531
68.5000	76.8847
69.0000	76.9107
69.5000	76.9489
70.0000	76.9593
70.5000	76.9589
71.0000	77.0052
71.5000	77.0126
72.0000	77.0698
72.5000	77.1316
73.0000	77.1925
73.5000	77.2684
74.0000	77.3279
74.5000	77.377
75.0000	77.421
75.5000	77.4607
76.0000	77.4815
76.5000	77.5064
77.0000	77.5501
77.5000	77.5638
78.0000	77.6077
78.5000	77.6673
79.0000	77.6668
79.5000	77.7118
80.0000	77.7026
80.5000	77.6927
81.0000	77.6934
81.5000	77.6879
82.0000	77.6928
82.5000	77.7243
83.0000	77.7271
83.5000	77.7426
84.0000	77.751
84.5000	77.7251
85.0000	77.7563
85.5000	77.7947
86.0000	77.8403
86.5000	77.902
87.0000	77.9531
87.5000	77.9993
88.0000	78.0767
88.5000	78.1243
89.0000	78.2056
89.5000	78.2928
90.0000	78.3582
90.5000	78.4063
91.0000	78.4547
91.5000	78.4651
92.0000	78.4788
92.5000	78.5352
93.0000	78.5373
93.5000	78.572
94.0000	78.6032
94.5000	78.6243
95.0000	78.6528
95.5000	78.6839
96.0000	78.7009
96.5000	78.7307
97.0000	78.7506
97.5000	78.7731
98.0000	78.8248
98.5000	78.8557
99.0000	78.9159
99.5000	78.9573
100.0000	78.9565
100.5000	78.9952
101.0000	79.0029
101.5000	79.0178
102.0000	79.0627
102.5000	79.1039
103.0000	79.1312
103.5000	79.1585
104.0000	79.1693
104.5000	79.1645
105.0000	79.2081
105.5000	79.2325
106.0000	79.2874
106.5000	79.3634
107.0000	79.3688
107.5000	79.3818
108.0000	79.3903
108.5000	79.3805
109.0000	79.4089
109.5000	79.4923
110.0000	79.5466
110.5000	79.5989
111.0000	79.6225
111.5000	79.6442
112.0000	79.6742
112.5000	79.6662
113.0000	79.7272
113.5000	79.744
114.0000	79.772
114.5000	79.8276
115.0000	79.8489
115.5000	79.8905
116.0000	79.8973
116.5000	79.9322
117.0000	79.9285
117.5000	79.938
118.0000	79.992
118.5000	80.0217
119.0000	80.0796
119.5000	80.1212
120.0000	80.1632
120.5000	80.2206
121.0000	80.253
121.5000	80.2742
122.0000	80.2829
122.5000	80.2687
123.0000	80.3071
123.5000	80.3746
124.0000	80.4034
124.5000	80.4674
125.0000	80.4961
125.5000	80.5004
126.0000	80.5508
126.5000	80.564
127.0000	80.5947
127.5000	80.622
128.0000	80.6551
128.5000	80.6679
129.0000	80.7213
129.5000	80.7573
130.0000	80.7893
130.5000	80.8189
131.0000	80.826
131.5000	80.8397
132.0000	80.8204
132.5000	80.8789
133.0000	80.9444
133.5000	81.0042
134.0000	81.0605
134.5000	81.099
135.0000	81.1152
135.5000	81.1325
136.0000	81.1614
136.5000	81.1868
137.0000	81.2143
137.5000	81.2243
138.0000	81.2771
138.5000	81.3125
139.0000	81.3247
139.5000	81.3658
140.0000	81.3887
140.5000	81.3986
141.0000	81.4384
141.5000	81.4844
142.0000	81.4924
142.5000	81.514
143.0000	81.5241
143.5000	81.5648
144.0000	81.6102
144.5000	81.6646
145.0000	81.7159
145.5000	81.6971
146.0000	81.7053
146.5000	81.6891
147.0000	81.7052
147.5000	81.7184
148.0000	81.7504
148.5000	81.7846
149.0000	81.8159
149.5000	81.8752
150.0000	81.899
150.5000	81.959
151.0000	81.9657
151.5000	81.9887
152.0000	82.0535
152.5000	82.0682
153.0000	82.1026
153.5000	82.1285
154.0000	82.134
154.5000	82.1425
155.0000	82.1586
155.5000	82.1771
156.0000	82.1739
156.5000	82.2291
157.0000	82.2947
157.5000	82.3247
158.0000	82.3867
158.5000	82.3956
159.0000	82.4096
159.5000	82.4482
160.0000	82.4546
160.5000	82.477
161.0000	82.5355
161.5000	82.5656
162.0000	82.6139
162.5000	82.6464
163.0000	82.6609
163.5000	82.7226
164.0000	82.7538
164.5000	82.7489
165.0000	82.7541
165.5000	82.7216
166.0000	82.7587
166.5000	82.8248
167.0000	82.8389
167.5000	82.8578
168.0000	82.8767
168.5000	82.8888
169.0000	82.9256
169.5000	82.9798
170.0000	83.025
170.5000	83.0724
171.0000	83.1054
171.5000	83.1471
172.0000	83.1085
172.5000	83.1238
173.0000	83.1155
173.5000	83.1431
174.0000	83.2313
174.5000	83.2404
175.0000	83.318
175.5000	83.3614
176.0000	83.3932
176.5000	83.4353
177.0000	83.4519
177.5000	83.4479
178.0000	83.4487
178.5000	83.4908
179.0000	83.5123
179.5000	83.5655
180.0000	83.5941
180.5000	83.5891
181.0000	83.6047
181.5000	83.624
182.0000	83.644
182.5000	83.6934
183.0000	83.7325
183.5000	83.7424
184.0000	83.765
184.5000	83.8074
185.0000	83.8276
185.5000	83.8502
186.0000	83.8654
186.5000	83.882
187.0000	83.9019
187.5000	83.9282
188.0000	83.9486
188.5000	83.936
189.0000	83.9773
189.5000	84.0004
190.0000	84.0353
190.5000	84.0956
191.0000	84.1378
191.5000	84.1636
192.0000	84.2019
192.5000	84.2257
193.0000	84.2053
193.5000	84.2425
194.0000	84.2779
194.5000	84.2693
195.0000	84.3256
195.5000	84.374
196.0000	84.4079
196.5000	84.4396
197.0000	84.4401
197.5000	84.4484
198.0000	84.4639
198.5000	84.5046
199.0000	84.5385
199.5000	84.5291
200.0000	84.5237
200.5000	84.554
201.0000	84.5649
201.5000	84.6008
202.0000	84.6416
202.5000	84.703
203.0000	84.7278
203.5000	84.7677
204.0000	84.842
204.5000	84.8176
205.0000	84.8569
205.5000	84.8596
206.0000	84.8515
206.5000	84.8827
207.0000	84.8984
207.5000	84.9287
208.0000	84.9173
208.5000	84.9276
209.0000	84.9896
209.5000	85.0149
210.0000	85.0504
210.5000	85.0757
211.0000	85.0658
211.5000	85.0702
212.0000	85.0929
212.5000	85.1298
213.0000	85.1534
213.5000	85.1902
214.0000	85.2146
214.5000	85.2453
215.0000	85.2567
215.5000	85.2689
216.0000	85.3156
216.5000	85.3618
217.0000	85.3904
217.5000	85.4348
218.0000	85.4397
218.5000	85.448
219.0000	85.4832
219.5000	85.5136
220.0000	85.5455
220.5000	85.5385
221.0000	85.5649
221.5000	85.5811
222.0000	85.5651
222.5000	85.6104
223.0000	85.6306
223.5000	85.6874
224.0000	85.7241
224.5000	85.7376
225.0000	85.7628
225.5000	85.7338
226.0000	85.7739
226.5000	85.8123
227.0000	85.8176
227.5000	85.826
228.0000	85.8685
228.5000	85.8677
229.0000	85.8757
229.5000	85.915
230.0000	85.9439
230.5000	85.9565
231.0000	86.0152
231.5000	86.0443
232.0000	86.0292
232.5000	86.021
233.0000	86.0171
233.5000	86.024
234.0000	86.0547
234.5000	86.1276
235.0000	86.191
235.5000	86.1837
236.0000	86.2089
236.5000	86.2201
237.0000	86.2101
237.5000	86.2565
238.0000	86.2569
238.5000	86.2731
239.0000	86.2837
239.5000	86.3157
240.0000	86.3307
240.5000	86.3178
241.0000	86.3402
241.5000	86.3683
242.0000	86.4138
242.5000	86.4576
243.0000	86.4811
243.5000	86.5033
244.0000	86.516
244.5000	86.5805
245.0000	86.5944
245.5000	86.6108
246.0000	86.6132
246.5000	86.6296
247.0000	86.6556
247.5000	86.6986
248.0000	86.731
248.5000	86.735
249.0000	86.73
249.5000	86.7437
250.0000	86.7724
250.5000	86.7617
251.0000	86.8171
251.5000	86.8349
252.0000	86.8018
252.5000	86.8361
253.0000	86.8234
253.5000	86.8166
254.0000	86.9155
254.5000	86.9603
255.0000	87.0068
255.5000	87.0216
256.0000	87.0115
256.5000	87.0047
257.0000	87.0438
257.5000	87.102
258.0000	87.1325
258.5000	87.2075
259.0000	87.1934
259.5000	87.1954
260.0000	87.1749
260.5000	87.1467
261.0000	87.2164
261.5000	87.2457
262.0000	87.2877
262.5000	87.2997
263.0000	87.3144
263.5000	87.3276
264.0000	87.3204
264.5000	87.3308
265.0000	87.3173
265.5000	87.3473
266.0000	87.4208
266.5000	87.4689
267.0000	87.5074
267.5000	87.5276
268.0000	87.5121
268.5000	87.5553
269.0000	87.5778
269.5000	87.5713
270.0000	87.5975
270.5000	87.6063
271.0000	87.6161
271.5000	87.6529
272.0000	87.7182
272.5000	87.734
273.0000	87.7243
273.5000	87.7446
274.0000	87.726
274.5000	87.7044
275.0000	87.75
275.5000	87.765
276.0000	87.8284
276.5000	87.894
277.0000	87.903
277.5000	87.9092
278.0000	87.9269
278.5000	87.8986
279.0000	87.9441
279.5000	88.0154
280.0000	88.0011
280.5000	88.0223
281.0000	88.044
281.5000	88.0355
282.0000	88.0428
282.5000	88.1002
283.0000	88.1273
283.5000	88.1219
284.0000	88.1442
284.5000	88.1835
285.0000	88.1899
285.5000	88.236
286.0000	88.2758
286.5000	88.2812
287.0000	88.3086
287.5000	88.2852
288.0000	88.3255
288.5000	88.3458
289.0000	88.3466
289.5000	88.3972
290.0000	88.3836
290.5000	88.4145
291.0000	88.422
291.5000	88.4484
292.0000	88.4398
292.5000	88.4305
293.0000	88.4823
293.5000	88.516
294.0000	88.5943
294.5000	88.6268
295.0000	88.6473
295.5000	88.6663
296.0000	88.6486
296.5000	88.6468
297.0000	88.6646
297.5000	88.654
298.0000	88.7002
298.5000	88.7379
299.0000	88.7162
299.5000	88.7419
300.0000	88.7571
300.5000	88.7791
301.0000	88.8148
301.5000	88.8234
302.0000	88.8363
302.5000	88.8514
303.0000	88.8727
303.5000	88.9154
304.0000	88.9117
304.5000	88.9111
305.0000	88.9431
305.5000	88.9729
306.0000	89.0125
306.5000	89.05
307.0000	89.0351
307.5000	89.0537
308.0000	89.0935
308.5000	89.1251
309.0000	89.167
309.5000	89.1674
310.0000	89.1723
310.5000	89.1635
311.0000	89.1763
311.5000	89.2082
312.0000	89.2197
312.5000	89.2377
313.0000	89.2709
313.5000	89.2715
314.0000	89.2838
314.5000	89.2999
315.0000	89.317
315.5000	89.3547
316.0000	89.3519
316.5000	89.3808
317.0000	89.3608
317.5000	89.3711
318.0000	89.4399
318.5000	89.4951
319.0000	89.5545
319.5000	89.545
320.0000	89.559
320.5000	89.5635
321.0000	89.5609
321.5000	89.5956
322.0000	89.5884
322.5000	89.5656
323.0000	89.5828
323.5000	89.6381
324.0000	89.6476
324.5000	89.6776
325.0000	89.721
325.5000	89.7112
326.0000	89.7369
326.5000	89.7585
327.0000	89.7806
327.5000	89.7862
328.0000	89.8353
328.5000	89.8405
329.0000	89.8411
329.5000	89.8722
330.0000	89.8472
330.5000	89.8805
331.0000	89.9253
331.5000	89.9398
332.0000	89.9905
332.5000	90.0273
333.0000	90.009
333.5000	90.045
334.0000	90.0453
334.5000	90.0432
335.0000	90.0467
335.5000	90.0243
336.0000	90.0816
336.5000	90.1364
337.0000	90.1607
337.5000	90.2235
338.0000	90.23
338.5000	90.225
339.0000	90.2816
339.5000	90.2673
340.0000	90.2394
340.5000	90.2579
341.0000	90.2657
341.5000	90.3029
342.0000	90.3736
342.5000	90.3596
343.0000	90.3924
343.5000	90.4145
344.0000	90.408
344.5000	90.4864
345.0000	90.466
345.5000	90.4858
346.0000	90.4794
346.5000	90.4447
347.0000	90.4876
347.5000	90.4941
348.0000	90.5378
348.5000	90.5987
349.0000	90.6229
349.5000	90.6579
350.0000	90.6821
350.5000	90.6946
351.0000	90.6764
351.5000	90.6898
352.0000	90.6881
352.5000	90.6846
353.0000	90.7336
353.5000	90.7391
354.0000	90.7657
354.5000	90.7996
355.0000	90.8036
355.5000	90.8042
356.0000	90.8316
356.5000	90.8147
357.0000	90.8477
357.5000	90.8595
358.0000	90.8864
358.5000	90.9245
359.0000	90.9221
359.5000	90.9721
360.0000	91.0018
360.5000	91.0061
361.0000	91.0671
361.5000	91.0697
362.0000	91.0767
362.5000	91.1228
363.0000	91.1031
363.5000	91.1278
364.0000	91.1442
364.5000	91.1559
365.0000	91.1948
365.5000	91.2246
366.0000	91.2161
366.5000	91.2079
367.0000	91.2096
367.5000	91.2102
368.0000	91.2053
368.5000	91.2061
369.0000	91.2476
369.5000	91.2833
370.0000	91.341
370.5000	91.3867
371.0000	91.3839
371.5000	91.3871
372.0000	91.4051
372.5000	91.4464
373.0000	91.443
373.5000	91.4582
374.0000	91.4622
374.5000	91.4622
375.0000	91.4747
375.5000	91.5059
376.0000	91.5436
376.5000	91.5355
377.0000	91.5815
377.5000	91.5914
378.0000	91.5747
378.5000	91.5978
379.0000	91.6257
379.5000	91.6456
380.0000	91.6739
380.5000	91.7268
381.0000	91.7525
381.5000	91.7508
382.0000	91.7725
382.5000	91.7772
383.0000	91.7567
383.5000	91.6735
384.0000	91.5262
384.5000	91.4625
385.0000	91.333
385.5000	91.3772
386.0000	91.4483
386.5000	91.4739
387.0000	91.5463
387.5000	91.5797
388.0000	91.6366
388.5000	91.6679
389.0000	91.7139
389.5000	91.7493
390.0000	91.8116
390.5000	91.8509
391.0000	91.8934
391.5000	91.9335
392.0000	91.9492
392.5000	91.988
393.0000	92.0125
393.5000	92.0038
394.0000	92.0295
394.5000	92.0409
395.0000	92.0858
395.5000	92.1357
396.0000	92.1771
396.5000	92.1628
397.0000	92.181
397.5000	92.2091
398.0000	92.2024
398.5000	92.2519
399.0000	92.24
399.5000	92.2531
400.0000	92.2851
400.5000	92.3123
401.0000	92.3706
401.5000	92.363
402.0000	92.3632
402.5000	92.3661
403.0000	92.3869
403.5000	92.4435
404.0000	92.4512
404.5000	92.4664
405.0000	92.4382
405.5000	92.4542
406.0000	92.4704
406.5000	92.5132
407.0000	92.5828
407.5000	92.6015
408.0000	92.6572
408.5000	92.6924
409.0000	92.6494
409.5000	92.6552
410.0000	92.6704
410.5000	92.6478
411.0000	92.7445
411.5000	92.771
412.0000	92.7733
412.5000	92.7927
413.0000	92.7743
413.5000	92.7809
414.0000	92.8189
414.5000	92.8551
415.0000	92.8564
415.5000	92.872
416.0000	92.8644
416.5000	92.866
417.0000	92.8846
417.5000	92.9045
418.0000	92.9284
418.5000	92.9183
419.0000	92.9377
419.5000	92.9712
420.0000	92.9611
420.5000	93.0136
421.0000	93.0237
421.5000	93.0161
422.0000	93.0339
422.5000	93.0307
423.0000	93.0779
423.5000	93.0865
424.0000	93.1215
424.5000	93.1643
425.0000	93.1272
425.5000	93.1378
426.0000	93.1501
426.5000	93.1487
427.0000	93.2409
427.5000	93.2559
428.0000	93.2689
428.5000	93.2711
429.0000	93.2558
429.5000	93.2965
430.0000	93.3354
430.5000	93.3686
431.0000	93.3658
431.5000	93.3541
432.0000	93.3187
432.5000	93.3422
433.0000	93.3634
433.5000	93.4159
434.0000	93.4952
434.5000	93.5027
435.0000	93.5175
435.5000	93.4986
436.0000	93.501
436.5000	93.5154
437.0000	93.5133
437.5000	93.559
438.0000	93.5839
438.5000	93.5807
439.0000	93.6083
439.5000	93.6304
440.0000	93.611
440.5000	93.6462
441.0000	93.6678
441.5000	93.6945
442.0000	93.7003
442.5000	93.7187
443.0000	93.7298
443.5000	93.7111
444.0000	93.7444
444.5000	93.7878
445.0000	93.8105
445.5000	93.8058
446.0000	93.8252
446.5000	93.8033
447.0000	93.8196
447.5000	93.9015
448.0000	93.9051
448.5000	93.9659
449.0000	93.9505
449.5000	94.0048
450.0000	94.0458
450.5000	94.0121
451.0000	94.0516
451.5000	93.9944
452.0000	93.9996
452.5000	94.0214
453.0000	94.032
453.5000	94.0536
454.0000	94.0522
454.5000	94.0858
455.0000	94.1234
455.5000	94.1363
456.0000	94.17
456.5000	94.1509
457.0000	94.1417
457.5000	94.1342
458.0000	94.1539
458.5000	94.1631
459.0000	94.1719
459.5000	94.1799
460.0000	94.175
460.5000	94.2176
461.0000	94.2401
461.5000	94.2715
462.0000	94.3076
462.5000	94.288
463.0000	94.318
463.5000	94.3551
464.0000	94.3291
464.5000	94.3847
465.0000	94.4086
465.5000	94.4107
466.0000	94.4458
466.5000	94.5076
467.0000	94.4921
467.5000	94.4905
468.0000	94.5097
468.5000	94.4607
469.0000	94.5194
469.5000	94.5488
470.0000	94.5741
470.5000	94.5909
471.0000	94.5852
471.5000	94.6087
472.0000	94.6225
472.5000	94.6325
473.0000	94.6372
473.5000	94.6216
474.0000	94.6414
474.5000	94.6437
475.0000	94.673
475.5000	94.7279
476.0000	94.7482
476.5000	94.7753
477.0000	94.7849
477.5000	94.8066
478.0000	94.793
478.5000	94.8325
479.0000	94.8469
479.5000	94.8214
480.0000	94.8754
480.5000	94.887
481.0000	94.9101
481.5000	94.9235
482.0000	94.9361
482.5000	94.9641
483.0000	94.9378
483.5000	94.9536
484.0000	94.9344
484.5000	94.9334
485.0000	94.9955
485.5000	95.0401
486.0000	95.059
486.5000	95.0716
487.0000	95.0859
487.5000	95.0961
488.0000	95.1136
488.5000	95.1364
489.0000	95.1407
489.5000	95.1602
490.0000	95.1561
490.5000	95.1619
491.0000	95.1692
491.5000	95.1806
492.0000	95.2395
492.5000	95.2624
493.0000	95.2398
493.5000	95.2509
494.0000	95.2344
494.5000	95.2247
495.0000	95.2913
495.5000	95.3213
496.0000	95.3591
496.5000	95.3935
497.0000	95.3866
497.5000	95.3745
498.0000	95.3778
498.5000	95.362
499.0000	95.3958
499.5000	95.3962
500.0000	95.4053
500.5000	95.449
501.0000	95.4537
501.5000	95.4788
502.0000	95.4888
502.5000	95.4996
503.0000	95.5603
503.5000	95.6058
504.0000	95.6469
504.5000	95.6555
505.0000	95.6567
505.5000	95.6247
506.0000	95.644
506.5000	95.685
507.0000	95.6767
507.5000	95.7443
508.0000	95.7413
508.5000	95.7217
509.0000	95.7356
509.5000	95.7291
510.0000	95.7345
510.5000	95.7651
511.0000	95.7867
511.5000	95.819
512.0000	95.8234
512.5000	95.8246
513.0000	95.8381
513.5000	95.8354
514.0000	95.8872
514.5000	95.9204
515.0000	95.9666
515.5000	95.9658
516.0000	95.9476
516.5000	95.9592
517.0000	95.9391
517.5000	95.9509
518.0000	96.008
518.5000	96.0248
519.0000	96.0286
519.5000	96.0439
520.0000	96.024
520.5000	96.0485
521.0000	96.0629
521.5000	96.0925
522.0000	96.1085
522.5000	96.1137
523.0000	96.1344
523.5000	96.1756
524.0000	96.1959
524.5000	96.2219
525.0000	96.2409
525.5000	96.2149
526.0000	96.2265
526.5000	96.2378
527.0000	96.2365
527.5000	96.2713
528.0000	96.2805
528.5000	96.2537
529.0000	96.2969
529.5000	96.3154
530.0000	96.3132
530.5000	96.3418
531.0000	96.3609
531.5000	96.3467
532.0000	96.3703
532.5000	96.4016
533.0000	96.4098
533.5000	96.4495
534.0000	96.4846
534.5000	96.4823
535.0000	96.4983
535.5000	96.4695
536.0000	96.4629
536.5000	96.5145
537.0000	96.4891
537.5000	96.5316
538.0000	96.5553
538.5000	96.5405
539.0000	96.5711
539.5000	96.5909
540.0000	96.6143
540.5000	96.6452
541.0000	96.6785
541.5000	96.6554
542.0000	96.6331
542.5000	96.6275
543.0000	96.6082
543.5000	96.648
544.0000	96.6859
544.5000	96.7137
545.0000	96.7139
545.5000	96.7591
546.0000	96.7793
546.5000	96.7688
547.0000	96.8196
547.5000	96.8233
548.0000	96.8329
548.5000	96.8515
549.0000	96.852
549.5000	96.8637
550.0000	96.8709
550.5000	96.8745
551.0000	96.8943
551.5000	96.914
552.0000	96.9578
552.5000	97.0031
553.0000	96.9874
553.5000	96.9781
554.0000	96.9737
554.5000	96.9761
555.0000	97.044
555.5000	97.0422
556.0000	97.0439
556.5000	97.0933
557.0000	97.095
557.5000	97.137
558.0000	97.1763
558.5000	97.1451
559.0000	97.1716
559.5000	97.1866
560.0000	97.1618
560.5000	97.177
561.0000	97.1764
561.5000	97.163
562.0000	97.2057
562.5000	97.2305
563.0000	97.2405
563.5000	97.2626
564.0000	97.251
564.5000	97.2675
565.0000	97.2687
565.5000	97.3257
566.0000	97.3533
566.5000	97.352
567.0000	97.355
567.5000	97.3608
568.0000	97.3811
568.5000	97.3905
569.0000	97.4459
569.5000	97.4685
570.0000	97.4667
570.5000	97.5014
571.0000	97.4658
571.5000	97.4563
572.0000	97.4806
572.5000	97.5086
573.0000	97.5413
573.5000	97.5322
574.0000	97.5671
574.5000	97.5981
575.0000	97.6021
575.5000	97.6399
576.0000	97.6291
576.5000	97.6416
577.0000	97.6858
577.5000	97.7252
578.0000	97.7997
578.5000	97.7868
579.0000	97.7924
579.5000	97.788
580.0000	97.7552
580.5000	97.704
581.0000	97.703
581.5000	97.7019
582.0000	97.7196
582.5000	97.8031
583.0000	97.8598
583.5000	97.8804
584.0000	97.9139
584.5000	97.9563
585.0000	97.9371
585.5000	97.9804
586.0000	97.9466
586.5000	97.974
587.0000	98.0179
587.5000	97.9688
588.0000	98.0239
588.5000	97.9956
589.0000	98.0049
589.5000	98.0461
590.0000	98.0217
590.5000	98.0476
591.0000	98.0398
591.5000	98.0831
592.0000	98.1161
592.5000	98.1285
593.0000	98.1482
593.5000	98.133
594.0000	98.1356
594.5000	98.1482
595.0000	98.1577
595.5000	98.1417
596.0000	98.1756
596.5000	98.1697
597.0000	98.1895
597.5000	98.2345
598.0000	98.2455
598.5000	98.2692
599.0000	98.2669
599.5000	98.2828
600.0000	98.3269
600.5000	98.3342
601.0000	98.364
601.5000	98.3954
602.0000	98.3466
602.5000	98.3543
603.0000	98.347
603.5000	98.3478
604.0000	98.4306
604.5000	98.4769
605.0000	98.5035
605.5000	98.5225
606.0000	98.5274
606.5000	98.5106
607.0000	98.5449
607.5000	98.575
608.0000	98.5755
608.5000	98.6322
609.0000	98.6381
609.5000	98.6307
610.0000	98.6497
610.5000	98.6405
611.0000	98.6622
611.5000	98.6806
612.0000	98.6737
612.5000	98.6865
613.0000	98.6892
613.5000	98.7089
614.0000	98.7571
614.5000	98.7743
615.0000	98.7829
615.5000	98.8199
616.0000	98.8107
616.5000	98.8121
617.0000	98.8602
617.5000	98.8473
618.0000	98.8702
618.5000	98.8975
619.0000	98.8956
619.5000	98.9321
620.0000	98.9732
620.5000	98.9976
621.0000	99.0029
621.5000	99.0254
622.0000	99.0088
622.5000	99.0318
623.0000	99.0591
623.5000	99.055
624.0000	99.0711
624.5000	99.0706
625.0000	99.1053
625.5000	99.1077
626.0000	99.1327
626.5000	99.1624
627.0000	99.146
627.5000	99.177
628.0000	99.1922
628.5000	99.2163
629.0000	99.2299
629.5000	99.2419
630.0000	99.2404
630.5000	99.256
631.0000	99.3422
631.5000	99.375
632.0000	99.4783
632.5000	99.475
633.0000	99.4252
633.5000	99.4628
634.0000	99.3749
634.5000	99.4059
635.0000	99.4504
635.5000	99.4415
636.0000	99.498
636.5000	99.4856
637.0000	99.4954
637.5000	99.4807
638.0000	99.4927
638.5000	99.555
639.0000	99.5649
639.5000	99.5923
640.0000	99.617
640.5000	99.6016
641.0000	99.6263
641.5000	99.6969
642.0000	99.7028
642.5000	99.7462
643.0000	99.7694
643.5000	99.7833
644.0000	99.8591
644.5000	99.8629
645.0000	99.8542
645.5000	99.8642
646.0000	99.8254
646.5000	99.8365
647.0000	99.9097
647.5000	99.9308
648.0000	99.9581
648.5000	99.9836
649.0000	99.9414
649.5000	99.9543
650.0000	99.9869
650.5000	100.053
651.0000	100.087
651.5000	100.092
652.0000	100.113
652.5000	100.114
653.0000	100.167
653.5000	100.207
654.0000	100.201
654.5000	100.181
655.0000	100.193
655.5000	100.207
656.0000	100.163
656.5000	100.182
657.0000	100.169
657.5000	100.216
658.0000	100.334
658.5000	100.38
659.0000	100.409
659.5000	100.36
660.0000	100.337
660.5000	100.323
661.0000	100.349
661.5000	100.407
662.0000	100.415
662.5000	100.49
663.0000	100.524
663.5000	100.505
664.0000	100.544
664.5000	100.533
665.0000	100.52
665.5000	100.578
666.0000	100.59
666.5000	100.576
667.0000	100.629
667.5000	100.622
668.0000	100.672
668.5000	100.737
669.0000	100.717
669.5000	100.756
670.0000	100.752
670.5000	100.736
671.0000	100.77
671.5000	100.748
672.0000	100.749
672.5000	100.795
673.0000	100.802
673.5000	100.849
674.0000	100.89
674.5000	100.903
675.0000	100.932
675.5000	100.953
676.0000	100.982
676.5000	100.988
677.0000	101.016
677.5000	101.031
678.0000	101.073
678.5000	101.086
679.0000	101.091
679.5000	101.084
680.0000	101.068
680.5000	101.096
681.0000	101.098
681.5000	101.142
682.0000	101.187
682.5000	101.224
683.0000	101.276
683.5000	101.285
684.0000	101.245
684.5000	101.197
685.0000	101.141
685.5000	101.132
686.0000	101.157
686.5000	101.209
687.0000	101.275
687.5000	101.307
688.0000	101.331
688.5000	101.376
689.0000	101.392
689.5000	101.399
690.0000	101.438
690.5000	101.422
691.0000	101.45
691.5000	101.505
692.0000	101.517
692.5000	101.538
693.0000	101.589
693.5000	101.613
694.0000	101.608
694.5000	101.61
695.0000	101.615
695.5000	101.631
696.0000	101.643
696.5000	101.666
697.0000	101.661
697.5000	101.637
698.0000	101.694
698.5000	101.718
699.0000	101.742
699.5000	101.766
700.0000	101.771
700.5000	101.814
701.0000	101.827
701.5000	101.849
702.0000	101.875
702.5000	101.856
703.0000	101.889
703.5000	101.948
704.0000	101.938
704.5000	101.994
705.0000	102.001
705.5000	101.973
706.0000	102
706.5000	102.001
707.0000	102.02
707.5000	102.028
708.0000	102.083
708.5000	102.084
709.0000	102.094
709.5000	102.182
710.0000	102.186
710.5000	102.214
711.0000	102.237
711.5000	102.204
712.0000	102.191
712.5000	102.214
713.0000	102.278
713.5000	102.298
714.0000	102.349
714.5000	102.373
715.0000	102.35
715.5000	102.369
716.0000	102.348
716.5000	102.384
717.0000	102.385
717.5000	102.397
718.0000	102.454
718.5000	102.451
719.0000	102.468
719.5000	102.504
720.0000	102.477
720.5000	102.504
721.0000	102.532
721.5000	102.56
722.0000	102.579
722.5000	102.574
723.0000	102.592
723.5000	102.613
724.0000	102.651
724.5000	102.677
725.0000	102.703
725.5000	102.726
726.0000	102.733
726.5000	102.781
727.0000	102.763
727.5000	102.77
728.0000	102.792
728.5000	102.777
729.0000	102.785
729.5000	102.805
730.0000	102.846
730.5000	102.905
731.0000	102.947
731.5000	102.979
732.0000	102.96
732.5000	102.924
733.0000	102.962
733.5000	102.963
734.0000	102.992
734.5000	103.004
735.0000	103.005
735.5000	103.003
736.0000	103.05
736.5000	103.072
737.0000	103.088
737.5000	103.085
738.0000	103.086
738.5000	103.128
739.0000	103.14
739.5000	103.182
740.0000	103.185
740.5000	103.152
741.0000	103.174
741.5000	103.191
742.0000	103.197
742.5000	103.252
743.0000	103.275
743.5000	103.299
744.0000	103.357
744.5000	103.37
745.0000	103.382
745.5000	103.388
746.0000	103.377
746.5000	103.388
747.0000	103.424
747.5000	103.45
748.0000	103.506
748.5000	103.529
749.0000	103.523
749.5000	103.529
750.0000	103.511
750.5000	103.541
751.0000	103.555
751.5000	103.601
752.0000	103.64
752.5000	103.636
753.0000	103.632
753.5000	103.643
754.0000	103.639
754.5000	103.667
755.0000	103.692
755.5000	103.658
756.0000	103.665
756.5000	103.713
757.0000	103.725
757.5000	103.803
758.0000	103.801
758.5000	103.78
759.0000	103.836
759.5000	103.846
760.0000	103.846
760.5000	103.89
761.0000	103.872
761.5000	103.87
762.0000	103.924
762.5000	103.918
763.0000	103.951
763.5000	103.953
764.0000	103.971
764.5000	103.993
765.0000	103.995
765.5000	104.052
766.0000	104.059
766.5000	104.067
767.0000	104.116
767.5000	104.103
768.0000	104.141
768.5000	104.172
769.0000	104.214
769.5000	104.23
770.0000	104.261
770.5000	104.271
771.0000	104.244
771.5000	104.252
772.0000	104.27
772.5000	104.303
773.0000	104.332
773.5000	104.359
774.0000	104.377
774.5000	104.357
775.0000	104.373
775.5000	104.387
776.0000	104.386
776.5000	104.424
777.0000	104.438
777.5000	104.476
778.0000	104.476
778.5000	104.478
779.0000	104.5
779.5000	104.493
780.0000	104.522
780.5000	104.551
781.0000	104.563
781.5000	104.621
782.0000	104.622
782.5000	104.649
783.0000	104.657
783.5000	104.664
784.0000	104.679
784.5000	104.68
785.0000	104.671
785.5000	104.663
786.0000	104.728
786.5000	104.734
787.0000	104.8
787.5000	104.818
788.0000	104.787
788.5000	104.842
789.0000	104.871
789.5000	104.873
790.0000	104.917
790.5000	104.937
791.0000	104.921
791.5000	104.955
792.0000	104.95
792.5000	104.945
793.0000	104.964
793.5000	104.99
794.0000	105.056
794.5000	105.072
795.0000	105.059
795.5000	105.037
796.0000	105.002
796.5000	105.023
797.0000	105.089
797.5000	105.202
798.0000	105.239
798.5000	105.229
799.0000	105.194
799.5000	105.14
800.0000	105.182
800.5000	105.221
801.0000	105.326
801.5000	105.369
802.0000	105.357
802.5000	105.392
803.0000	105.35
803.5000	105.353
804.0000	105.382
804.5000	105.419
805.0000	105.471
805.5000	105.449
806.0000	105.459
806.5000	105.411
807.0000	105.391
807.5000	105.429
808.0000	105.449
808.5000	105.519
809.0000	105.553
809.5000	105.546
810.0000	105.525
810.5000	105.52
811.0000	105.538
811.5000	105.574
812.0000	105.628
812.5000	105.642
813.0000	105.633
813.5000	105.653
814.0000	105.664
814.5000	105.683
815.0000	105.723
815.5000	105.746
816.0000	105.738
816.5000	105.771
817.0000	105.801
817.5000	105.828
818.0000	105.875
818.5000	105.863
819.0000	105.876
819.5000	105.86
820.0000	105.867
820.5000	105.918
821.0000	105.908
821.5000	105.96
822.0000	105.961
822.5000	105.965
823.0000	105.992
823.5000	106.004
824.0000	106
824.5000	105.995
825.0000	106.023
825.5000	106.029
826.0000	106.078
826.5000	106.06
827.0000	106.089
827.5000	106.083
828.0000	106.119
828.5000	106.185
829.0000	106.179
829.5000	106.199
830.0000	106.188
830.5000	106.174
831.0000	106.188
831.5000	106.214
832.0000	106.226
832.5000	106.257
833.0000	106.281
833.5000	106.3
834.0000	106.315
834.5000	106.346
835.0000	106.325
835.5000	106.332
836.0000	106.361
836.5000	106.368
837.0000	106.413
837.5000	106.438
838.0000	106.446
838.5000	106.429
839.0000	106.433
839.5000	106.448
840.0000	106.456
840.5000	106.521
841.0000	106.549
841.5000	106.542
842.0000	106.6
842.5000	106.604
843.0000	106.593
843.5000	106.654
844.0000	106.61
844.5000	106.621
845.0000	106.685
845.5000	106.659
846.0000	106.701
846.5000	106.727
847.0000	106.692
847.5000	106.729
848.0000	106.718
848.5000	106.712
849.0000	106.766
849.5000	106.779
850.0000	106.829
850.5000	106.888
851.0000	106.85
851.5000	106.879
852.0000	106.86
852.5000	106.828
853.0000	106.884
853.5000	106.917
854.0000	106.95
854.5000	106.95
855.0000	106.956
855.5000	106.936
856.0000	106.931
856.5000	106.985
857.0000	106.975
857.5000	107.017
858.0000	107.036
858.5000	107.018
859.0000	107.025
859.5000	107.028
860.0000	107.062
860.5000	107.119
861.0000	107.155
861.5000	107.176
862.0000	107.207
862.5000	107.166
863.0000	107.16
863.5000	107.134
864.0000	107.112
864.5000	107.146
865.0000	107.175
865.5000	107.197
866.0000	107.24
866.5000	107.234
867.0000	107.278
867.5000	107.278
868.0000	107.299
868.5000	107.335
869.0000	107.332
869.5000	107.412
870.0000	107.441
870.5000	107.448
871.0000	107.486
871.5000	107.474
872.0000	107.451
872.5000	107.467
873.0000	107.432
873.5000	107.42
874.0000	107.459
874.5000	107.484
875.0000	107.544
875.5000	107.563
876.0000	107.544
876.5000	107.543
877.0000	107.568
877.5000	107.562
878.0000	107.567
878.5000	107.59
879.0000	107.572
879.5000	107.615
880.0000	107.664
880.5000	107.699
881.0000	107.708
881.5000	107.734
882.0000	107.734
882.5000	107.734
883.0000	107.741
883.5000	107.748
884.0000	107.753
884.5000	107.765
885.0000	107.804
885.5000	107.808
886.0000	107.808
886.5000	107.833
887.0000	107.85
887.5000	107.88
888.0000	107.923
888.5000	107.94
889.0000	107.967
889.5000	107.967
890.0000	107.971
890.5000	107.975
891.0000	107.986
891.5000	107.968
892.0000	108.008
892.5000	108.017
893.0000	107.999
893.5000	108.099
894.0000	108.131
894.5000	108.161
895.0000	108.19
895.5000	108.159
896.0000	108.169
896.5000	108.173
897.0000	108.185
897.5000	108.195
898.0000	108.197
898.5000	108.21
899.0000	108.217
899.5000	108.237
900.0000	108.247
900.5000	108.273
901.0000	108.311
901.5000	108.319
902.0000	108.354
902.5000	108.342
903.0000	108.34
903.5000	108.361
904.0000	108.391
904.5000	108.46
905.0000	108.465
905.5000	108.467
906.0000	108.433
906.5000	108.376
907.0000	108.403
907.5000	108.413
908.0000	108.417
908.5000	108.462
909.0000	108.482
909.5000	108.491
910.0000	108.549
910.5000	108.582
911.0000	108.602
911.5000	108.638
912.0000	108.646
912.5000	108.684
913.0000	108.711
913.5000	108.686
914.0000	108.708
914.5000	108.668
915.0000	108.66
915.5000	108.701
916.0000	108.682
916.5000	108.698
917.0000	108.76
917.5000	108.777
918.0000	108.803
918.5000	108.869
919.0000	108.864
919.5000	108.903
920.0000	108.907
920.5000	108.893
921.0000	108.891
921.5000	108.848
922.0000	108.889
922.5000	108.934
923.0000	108.914
923.5000	108.989
924.0000	109.003
924.5000	108.989
925.0000	109.059
925.5000	109.04
926.0000	109.009
926.5000	109.03
927.0000	109.022
927.5000	109.039
928.0000	109.073
928.5000	109.105
929.0000	109.097
929.5000	109.163
930.0000	109.16
930.5000	109.124
931.0000	109.165
931.5000	109.145
932.0000	109.195
932.5000	109.251
933.0000	109.3
933.5000	109.268
934.0000	109.282
934.5000	109.284
935.0000	109.249
935.5000	109.295
936.0000	109.296
936.5000	109.317
937.0000	109.386
937.5000	109.418
938.0000	109.45
938.5000	109.451
939.0000	109.41
939.5000	109.399
940.0000	109.38
940.5000	109.426
941.0000	109.436
941.5000	109.469
942.0000	109.52
942.5000	109.521
943.0000	109.558
943.5000	109.541
944.0000	109.556
944.5000	109.548
945.0000	109.517
945.5000	109.554
946.0000	109.55
946.5000	109.554
947.0000	109.577
947.5000	109.585
948.0000	109.614
948.5000	109.636
949.0000	109.66
949.5000	109.709
950.0000	109.711
950.5000	109.729
951.0000	109.742
951.5000	109.743
952.0000	109.751
952.5000	109.763
953.0000	109.801
953.5000	109.806
954.0000	109.813
954.5000	109.827
955.0000	109.815
955.5000	109.806
956.0000	109.855
956.5000	109.861
957.0000	109.862
957.5000	109.913
958.0000	109.88
958.5000	109.891
959.0000	109.96
959.5000	109.954
960.0000	109.985
960.5000	109.983
961.0000	109.951
961.5000	109.958
962.0000	109.957
962.5000	109.967
963.0000	109.953
963.5000	109.944
964.0000	109.998
964.5000	110.048
965.0000	110.084
965.5000	110.111
966.0000	110.097
966.5000	110.087
967.0000	110.105
967.5000	110.141
968.0000	110.137
968.5000	110.196
969.0000	110.246
969.5000	110.261
970.0000	110.248
970.5000	110.242
971.0000	110.246
971.5000	110.271
972.0000	110.346
972.5000	110.374
973.0000	110.371
973.5000	110.379
974.0000	110.339
974.5000	110.264
975.0000	110.296
975.5000	110.289
976.0000	110.351
976.5000	110.403
977.0000	110.408
977.5000	110.451
978.0000	110.44
978.5000	110.44
979.0000	110.403
979.5000	110.415
980.0000	110.448
980.5000	110.485
981.0000	110.571
981.5000	110.575
982.0000	110.576
982.5000	110.589
983.0000	110.592
983.5000	110.626
984.0000	110.61
984.5000	110.61
985.0000	110.605
985.5000	110.564
986.0000	110.576
986.5000	110.606
987.0000	110.628
987.5000	110.615
988.0000	110.668
988.5000	110.657
989.0000	110.651
989.5000	110.698
990.0000	110.633
990.5000	110.63
991.0000	110.6
991.5000	110.615
992.0000	110.681
992.5000	110.721
993.0000	110.792
993.5000	110.792
994.0000	110.829
994.5000	110.824
995.0000	110.841
995.5000	110.851
996.0000	110.81
996.5000	110.848
997.0000	110.86
997.5000	110.869
998.0000	110.925
998.5000	110.939
999.0000	110.945
999.5000	110.96
1000.0000	110.957
1000.5000	110.988
1001.0000	110.959
1001.5000	111.025
1002.0000	111.079
1002.5000	111.077
1003.0000	111.138
1003.5000	111.09
1004.0000	111.086
1004.5000	111.058
1005.0000	111.062
1005.5000	111.104
1006.0000	111.127
1006.5000	111.166
1007.0000	111.184
1007.5000	111.204
1008.0000	111.204
1008.5000	111.196
1009.0000	111.158
1009.5000	111.135
1010.0000	111.134
1010.5000	111.153
1011.0000	111.206
1011.5000	111.25
1012.0000	111.26
1012.5000	111.292
1013.0000	111.301
1013.5000	111.294
1014.0000	111.317
1014.5000	111.339
1015.0000	111.351
1015.5000	111.372
1016.0000	111.407
1016.5000	111.394
1017.0000	111.4
1017.5000	111.473
1018.0000	111.442
1018.5000	111.444
1019.0000	111.441
1019.5000	111.408
1020.0000	111.385
1020.5000	111.408
1021.0000	111.42
1021.5000	111.424
1022.0000	111.466
1022.5000	111.459
1023.0000	111.463
1023.5000	111.471
1024.0000	111.497
1024.5000	111.512
1025.0000	111.562
1025.5000	111.592
1026.0000	111.59
1026.5000	111.651
1027.0000	111.631
1027.5000	111.626
1028.0000	111.641
1028.5000	111.634
1029.0000	111.669
1029.5000	111.688
1030.0000	111.735
1030.5000	111.754
1031.0000	111.762
1031.5000	111.754
1032.0000	111.758
1032.5000	111.773
1033.0000	111.76
1033.5000	111.825
1034.0000	111.821
1034.5000	111.822
1035.0000	111.818
1035.5000	111.783
1036.0000	111.769
1036.5000	111.745
1037.0000	111.818
1037.5000	111.83
1038.0000	111.856
1038.5000	111.909
1039.0000	111.895
1039.5000	111.903
1040.0000	111.961
1040.5000	111.962
1041.0000	111.972
1041.5000	111.991
1042.0000	111.975
1042.5000	111.934
1043.0000	111.964
1043.5000	111.928
1044.0000	111.934
1044.5000	112.018
1045.0000	111.975
1045.5000	112.024
1046.0000	112.025
1046.5000	112.034
1047.0000	112.099
1047.5000	112.106
1048.0000	112.138
1048.5000	112.106
1049.0000	112.093
1049.5000	112.107
1050.0000	112.1
1050.5000	112.113
1051.0000	112.138
1051.5000	112.15
1052.0000	112.18
1052.5000	112.189
1053.0000	112.187
1053.5000	112.192
1054.0000	112.17
1054.5000	112.212
1055.0000	112.237
1055.5000	112.268
1056.0000	112.317
1056.5000	112.319
1057.0000	112.3
1057.5000	112.315
1058.0000	112.316
1058.5000	112.285
1059.0000	112.327
1059.5000	112.345
1060.0000	112.335
1060.5000	112.432
1061.0000	112.432
1061.5000	112.42
1062.0000	112.401
1062.5000	112.375
1063.0000	112.4
1063.5000	112.417
1064.0000	112.483
1064.5000	112.497
1065.0000	112.482
1065.5000	112.51
1066.0000	112.542
1066.5000	112.533
1067.0000	112.522
1067.5000	112.546
1068.0000	112.544
1068.5000	112.565
1069.0000	112.593
1069.5000	112.587
1070.0000	112.57
1070.5000	112.584
1071.0000	112.603
1071.5000	112.606
1072.0000	112.621
1072.5000	112.593
1073.0000	112.593
1073.5000	112.6
1074.0000	112.584
1074.5000	112.674
1075.0000	112.711
1075.5000	112.722
1076.0000	112.766
1076.5000	112.724
1077.0000	112.691
1077.5000	112.707
1078.0000	112.73
1078.5000	112.772
1079.0000	112.83
1079.5000	112.874
1080.0000	112.849
1080.5000	112.892
1081.0000	112.935
1081.5000	112.905
1082.0000	112.942
1082.5000	112.891
1083.0000	112.867
1083.5000	112.923
1084.0000	112.937
1084.5000	112.958
1085.0000	113.013
1085.5000	112.974
1086.0000	112.935
1086.5000	112.973
1087.0000	112.933
1087.5000	112.94
1088.0000	112.989
1088.5000	112.944
1089.0000	112.966
1089.5000	113.013
1090.0000	113.003
1090.5000	113.057
1091.0000	113.086
1091.5000	113.055
1092.0000	113.065
1092.5000	113.047
1093.0000	113.011
1093.5000	113.033
1094.0000	113.049
1094.5000	113.052
1095.0000	113.103
1095.5000	113.121
1096.0000	113.14
1096.5000	113.19
1097.0000	113.168
1097.5000	113.183
1098.0000	113.205
1098.5000	113.213
1099.0000	113.248
1099.5000	113.229
1100.0000	113.25
1100.5000	113.245
1101.0000	113.259
1101.5000	113.29
1102.0000	113.285
1102.5000	113.316
1103.0000	113.313
1103.5000	113.334
1104.0000	113.366
1104.5000	113.373
1105.0000	113.367
1105.5000	113.333
1106.0000	113.342
1106.5000	113.294
1107.0000	113.314
1107.5000	113.35
1108.0000	113.328
1108.5000	113.361
1109.0000	113.317
1109.5000	113.368
1110.0000	113.41
1110.5000	113.427
1111.0000	113.497
1111.5000	113.457
1112.0000	113.41
1112.5000	113.416
1113.0000	113.449
1113.5000	113.501
1114.0000	113.553
1114.5000	113.58
1115.0000	113.599
1115.5000	113.571
1116.0000	113.585
1116.5000	113.605
1117.0000	113.597
1117.5000	113.598
1118.0000	113.602
1118.5000	113.602
1119.0000	113.628
1119.5000	113.634
1120.0000	113.636
1120.5000	113.647
1121.0000	113.652
1121.5000	113.666
1122.0000	113.674
1122.5000	113.676
1123.0000	113.686
1123.5000	113.723
1124.0000	113.728
1124.5000	113.738
1125.0000	113.717
1125.5000	113.715
1126.0000	113.751
1126.5000	113.728
1127.0000	113.726
1127.5000	113.762
1128.0000	113.769
1128.5000	113.802
1129.0000	113.835
1129.5000	113.836
1130.0000	113.844
1130.5000	113.881
1131.0000	113.887
1131.5000	113.908
1132.0000	113.883
1132.5000	113.861
1133.0000	113.876
1133.5000	113.8
1134.0000	113.809
1134.5000	113.855
1135.0000	113.878
1135.5000	113.95
1136.0000	113.991
1136.5000	113.972
1137.0000	113.987
1137.5000	113.986
1138.0000	114.011
1138.5000	114.049
1139.0000	114.064
1139.5000	114.091
1140.0000	114.078
1140.5000	114.066
1141.0000	114.042
1141.5000	114.078
1142.0000	114.086
1142.5000	114.068
1143.0000	114.086
1143.5000	114.08
1144.0000	114.078
1144.5000	114.115
1145.0000	114.092
1145.5000	114.066
1146.0000	114.078
1146.5000	114.098
1147.0000	114.141
1147.5000	114.18
1148.0000	114.205
1148.5000	114.205
1149.0000	114.216
1149.5000	114.235
1150.0000	114.282
1150.5000	114.277
1151.0000	114.271
1151.5000	114.249
1152.0000	114.2
1152.5000	114.249
1153.0000	114.265
1153.5000	114.272
1154.0000	114.31
1154.5000	114.32
1155.0000	114.358
1155.5000	114.424
1156.0000	114.398
1156.5000	114.36
1157.0000	114.323
1157.5000	114.282
1158.0000	114.315
1158.5000	114.358
1159.0000	114.38
1159.5000	114.403
1160.0000	114.409
1160.5000	114.419
1161.0000	114.394
1161.5000	114.392
1162.0000	114.413
1162.5000	114.405
1163.0000	114.437
1163.5000	114.427
1164.0000	114.418
1164.5000	114.425
1165.0000	114.412
1165.5000	114.43
1166.0000	114.431
1166.5000	114.461
1167.0000	114.519
1167.5000	114.514
1168.0000	114.553
1168.5000	114.58
1169.0000	114.552
1169.5000	114.587
1170.0000	114.596
1170.5000	114.6
1171.0000	114.643
1171.5000	114.657
1172.0000	114.667
1172.5000	114.641
1173.0000	114.65
1173.5000	114.651
1174.0000	114.655
1174.5000	114.66
1175.0000	114.696
1175.5000	114.715
1176.0000	114.732
1176.5000	114.796
1177.0000	114.763
1177.5000	114.752
1178.0000	114.767
1178.5000	114.747
1179.0000	114.776
1179.5000	114.785
1180.0000	114.792
1180.5000	114.801
1181.0000	114.824
1181.5000	114.805
1182.0000	114.791
1182.5000	114.78
1183.0000	114.731
1183.5000	114.75
1184.0000	114.79
1184.5000	114.808
1185.0000	114.864
1185.5000	114.882
1186.0000	114.884
1186.5000	114.872
1187.0000	114.854
1187.5000	114.861
1188.0000	114.842
1188.5000	114.933
1189.0000	114.982
1189.5000	114.996
1190.0000	115.047
1190.5000	115.005
1191.0000	114.979
1191.5000	115.027
1192.0000	115.01
1192.5000	115.042
1193.0000	115.052
1193.5000	115.075
1194.0000	115.112
1194.5000	115.124
1195.0000	115.173
1195.5000	115.146
1196.0000	115.144
1196.5000	115.144
1197.0000	115.119
1197.5000	115.158
1198.0000	115.145
1198.5000	115.124
1199.0000	115.152
1199.5000	115.117
1200.0000	115.139
1200.5000	115.169
1201.0000	115.202
1201.5000	115.23
1202.0000	115.24
1202.5000	115.224
1203.0000	115.185
1203.5000	115.199
1204.0000	115.215
1204.5000	115.261
1205.0000	115.298
1205.5000	115.304
1206.0000	115.307
1206.5000	115.319
1207.0000	115.34
1207.5000	115.336
1208.0000	115.318
1208.5000	115.306
1209.0000	115.305
1209.5000	115.352
1210.0000	115.401
1210.5000	115.416
1211.0000	115.421
1211.5000	115.435
1212.0000	115.431
1212.5000	115.403
1213.0000	115.391
1213.5000	115.375
1214.0000	115.403
1214.5000	115.435
1215.0000	115.466
1215.5000	115.475
1216.0000	115.458
1216.5000	115.485
1217.0000	115.512
1217.5000	115.529
1218.0000	115.537
1218.5000	115.546
1219.0000	115.508
1219.5000	115.503
1220.0000	115.501
1220.5000	115.535
1221.0000	115.562
1221.5000	115.581
1222.0000	115.645
1222.5000	115.632
1223.0000	115.67
1223.5000	115.664
1224.0000	115.636
1224.5000	115.624
1225.0000	115.616
1225.5000	115.624
1226.0000	115.651
1226.5000	115.682
1227.0000	115.695
1227.5000	115.705
1228.0000	115.653
1228.5000	115.664
1229.0000	115.674
1229.5000	115.67
1230.0000	115.702
1230.5000	115.745
1231.0000	115.74
1231.5000	115.806
1232.0000	115.85
1232.5000	115.807
1233.0000	115.841
1233.5000	115.808
1234.0000	115.78
1234.5000	115.824
1235.0000	115.819
1235.5000	115.858
1236.0000	115.924
1236.5000	115.903
1237.0000	115.887
1237.5000	115.858
1238.0000	115.823
1238.5000	115.846
1239.0000	115.885
1239.5000	115.9
1240.0000	115.924
1240.5000	115.936
1241.0000	115.925
1241.5000	115.956
1242.0000	115.98
1242.5000	115.976
1243.0000	116.001
1243.5000	116.023
1244.0000	116.027
1244.5000	116.022
1245.0000	116.053
1245.5000	116.084
1246.0000	116.053
1246.5000	116.057
1247.0000	116.03
1247.5000	115.978
1248.0000	116.036
1248.5000	116.067
1249.0000	116.119
1249.5000	116.116
1250.0000	116.096
1250.5000	116.115
1251.0000	116.065
1251.5000	116.137
1252.0000	116.191
1252.5000	116.202
1253.0000	116.239
1253.5000	116.196
1254.0000	116.19
1254.5000	116.18
1255.0000	116.233
1255.5000	116.265
1256.0000	116.285
1256.5000	116.32
1257.0000	116.296
1257.5000	116.303
1258.0000	116.253
1258.5000	116.236
1259.0000	116.243
1259.5000	116.272
1260.0000	116.284
1260.5000	116.3
1261.0000	116.317
1261.5000	116.292
1262.0000	116.344
1262.5000	116.396
1263.0000	116.371
1263.5000	116.383
1264.0000	116.394
1264.5000	116.347
1265.0000	116.37
1265.5000	116.375
1266.0000	116.361
1266.5000	116.418
1267.0000	116.433
1267.5000	116.483
1268.0000	116.512
1268.5000	116.481
1269.0000	116.519
1269.5000	116.496
1270.0000	116.499
1270.5000	116.524
1271.0000	116.492
1271.5000	116.526
1272.0000	116.55
1272.5000	116.551
1273.0000	116.63
1273.5000	116.646
1274.0000	116.586
1274.5000	116.605
1275.0000	116.582
1275.5000	116.564
1276.0000	116.654
1276.5000	116.681
1277.0000	116.663
1277.5000	116.715
1278.0000	116.676
1278.5000	116.674
1279.0000	116.745
1279.5000	116.731
1280.0000	116.778
1280.5000	116.777
1281.0000	116.757
1281.5000	116.788
1282.0000	116.754
1282.5000	116.766
1283.0000	116.728
1283.5000	116.693
1284.0000	116.703
1284.5000	116.688
1285.0000	116.732
1285.5000	116.766
1286.0000	116.79
1286.5000	116.809
1287.0000	116.826
1287.5000	116.835
1288.0000	116.861
1288.5000	116.873
1289.0000	116.859
1289.5000	116.857
1290.0000	116.871
1290.5000	116.886
1291.0000	116.959
1291.5000	116.939
1292.0000	116.961
1292.5000	117.019
1293.0000	116.974
1293.5000	117.027
1294.0000	117.025
1294.5000	116.986
1295.0000	116.983
1295.5000	116.969
1296.0000	116.987
1296.5000	117.01
1297.0000	117.012
1297.5000	117.055
1298.0000	117.111
1298.5000	117.12
1299.0000	117.195
1299.5000	117.195
1300.0000	117.166
1300.5000	117.145
1301.0000	117.071
1301.5000	117.076
1302.0000	117.036
1302.5000	117.072
1303.0000	117.131
1303.5000	117.124
1304.0000	117.138
1304.5000	117.125
1305.0000	117.155
1305.5000	117.175
1306.0000	117.215
1306.5000	117.263
1307.0000	117.279
1307.5000	117.299
1308.0000	117.324
1308.5000	117.314
1309.0000	117.327
1309.5000	117.31
1310.0000	117.296
1310.5000	117.31
1311.0000	117.235
1311.5000	117.259
1312.0000	117.254
1312.5000	117.241
1313.0000	117.315
1313.5000	117.306
1314.0000	117.332
1314.5000	117.361
1315.0000	117.319
1315.5000	117.343
1316.0000	117.375
1316.5000	117.403
1317.0000	117.403
1317.5000	117.419
1318.0000	117.416
1318.5000	117.368
1319.0000	117.468
1319.5000	117.451
1320.0000	117.461
1320.5000	117.537
1321.0000	117.533
1321.5000	117.551
1322.0000	117.537
1322.5000	117.496
1323.0000	117.486
1323.5000	117.523
1324.0000	117.546
1324.5000	117.577
1325.0000	117.561
1325.5000	117.557
1326.0000	117.539
1326.5000	117.557
1327.0000	117.565
1327.5000	117.576
1328.0000	117.62
1328.5000	117.645
1329.0000	117.64
1329.5000	117.663
1330.0000	117.622
1330.5000	117.609
1331.0000	117.608
1331.5000	117.575
1332.0000	117.624
1332.5000	117.619
1333.0000	117.661
1333.5000	117.692
1334.0000	117.705
1334.5000	117.728
1335.0000	117.702
1335.5000	117.721
1336.0000	117.727
1336.5000	117.715
1337.0000	117.745
1337.5000	117.73
1338.0000	117.714
1338.5000	117.75
1339.0000	117.784
1339.5000	117.788
1340.0000	117.798
1340.5000	117.823
1341.0000	117.833
1341.5000	117.876
1342.0000	117.908
1342.5000	117.894
1343.0000	117.924
1343.5000	117.929
1344.0000	117.924
1344.5000	117.925
1345.0000	117.896
1345.5000	117.898
1346.0000	117.949
1346.5000	117.94
1347.0000	117.953
1347.5000	117.994
1348.0000	117.976
1348.5000	118.02
1349.0000	117.987
1349.5000	117.949
1350.0000	117.964
1350.5000	117.949
1351.0000	117.985
1351.5000	117.986
1352.0000	117.983
1352.5000	117.987
1353.0000	118
1353.5000	117.999
1354.0000	117.938
1354.5000	117.969
1355.0000	117.958
1355.5000	117.993
1356.0000	118.097
1356.5000	118.091
1357.0000	118.123
1357.5000	118.13
1358.0000	118.093
1358.5000	118.102
1359.0000	118.095
1359.5000	118.112
1360.0000	118.145
1360.5000	118.159
1361.0000	118.173
1361.5000	118.215
1362.0000	118.198
1362.5000	118.217
1363.0000	118.252
1363.5000	118.209
1364.0000	118.231
1364.5000	118.235
1365.0000	118.245
1365.5000	118.281
1366.0000	118.277
1366.5000	118.312
1367.0000	118.323
1367.5000	118.302
1368.0000	118.37
1368.5000	118.364
1369.0000	118.356
1369.5000	118.35
1370.0000	118.31
1370.5000	118.303
1371.0000	118.271
1371.5000	118.3
1372.0000	118.304
1372.5000	118.321
1373.0000	118.357
1373.5000	118.36
1374.0000	118.356
1374.5000	118.337
1375.0000	118.327
1375.5000	118.37
1376.0000	118.397
1376.5000	118.436
1377.0000	118.474
1377.5000	118.456
1378.0000	118.44
1378.5000	118.455
1379.0000	118.467
1379.5000	118.47
1380.0000	118.505
1380.5000	118.501
1381.0000	118.524
1381.5000	118.55
1382.0000	118.538
1382.5000	118.537
1383.0000	118.486
1383.5000	118.504
1384.0000	118.553
1384.5000	118.582
1385.0000	118.617
1385.5000	118.653
1386.0000	118.627
1386.5000	118.625
1387.0000	118.648
1387.5000	118.593
1388.0000	118.604
1388.5000	118.571
1389.0000	118.59
1389.5000	118.607
1390.0000	118.647
1390.5000	118.64
1391.0000	118.674
1391.5000	118.678
1392.0000	118.693
1392.5000	118.753
1393.0000	118.751
1393.5000	118.774
1394.0000	118.767
1394.5000	118.805
1395.0000	118.804
1395.5000	118.806
1396.0000	118.833
1396.5000	118.81
1397.0000	118.798
1397.5000	118.81
1398.0000	118.805
1398.5000	118.833
1399.0000	118.833
1399.5000	118.819
1400.0000	118.843
1400.5000	118.842
1401.0000	118.874
1401.5000	118.88
1402.0000	118.84
1402.5000	118.829
1403.0000	118.811
1403.5000	118.821
1404.0000	118.853
1404.5000	118.858
1405.0000	118.901
1405.5000	118.936
1406.0000	118.947
1406.5000	118.951
1407.0000	118.909
1407.5000	118.882
1408.0000	118.887
1408.5000	118.892
1409.0000	118.969
1409.5000	119.026
1410.0000	119.01
1410.5000	119.015
1411.0000	118.994
1411.5000	118.983
1412.0000	118.984
1412.5000	119.03
1413.0000	119.038
1413.5000	119.029
1414.0000	119.051
1414.5000	119.056
1415.0000	119.015
1415.5000	119.019
1416.0000	119.067
1416.5000	119.088
1417.0000	119.108
1417.5000	119.192
1418.0000	119.154
1418.5000	119.113
1419.0000	119.124
1419.5000	119.104
1420.0000	119.136
1420.5000	119.141
1421.0000	119.158
1421.5000	119.157
1422.0000	119.166
1422.5000	119.179
1423.0000	119.232
1423.5000	119.209
1424.0000	119.229
1424.5000	119.235
1425.0000	119.188
1425.5000	119.158
1426.0000	119.157
1426.5000	119.165
1427.0000	119.184
1427.5000	119.241
1428.0000	119.208
1428.5000	119.228
1429.0000	119.246
1429.5000	119.247
1430.0000	119.288
1430.5000	119.287
1431.0000	119.285
1431.5000	119.285
1432.0000	119.289
1432.5000	119.339
1433.0000	119.319
1433.5000	119.332
1434.0000	119.338
1434.5000	119.302
1435.0000	119.31
1435.5000	119.323
1436.0000	119.35
1436.5000	119.364
1437.0000	119.409
1437.5000	119.476
1438.0000	119.493
1438.5000	119.506
1439.0000	119.498
1439.5000	119.441
1440.0000	119.424
1440.5000	119.427
1441.0000	119.456
1441.5000	119.467
1442.0000	119.433
1442.5000	119.454
1443.0000	119.451
1443.5000	119.459
1444.0000	119.493
1444.5000	119.474
1445.0000	119.484
1445.5000	119.478
1446.0000	119.498
1446.5000	119.523
1447.0000	119.532
1447.5000	119.553
1448.0000	119.541
1448.5000	119.561
1449.0000	119.558
1449.5000	119.569
1450.0000	119.599
1450.5000	119.591
1451.0000	119.602
1451.5000	119.627
1452.0000	119.705
1452.5000	119.701
1453.0000	119.727
1453.5000	119.723
1454.0000	119.668
1454.5000	119.743
1455.0000	119.779
1455.5000	119.785
1456.0000	119.788
1456.5000	119.765
1457.0000	119.721
1457.5000	119.78
1458.0000	119.742
1458.5000	119.731
1459.0000	119.75
1459.5000	119.718
1460.0000	119.797
1460.5000	119.811
1461.0000	119.824
1461.5000	119.842
1462.0000	119.803
1462.5000	119.815
1463.0000	119.824
1463.5000	119.795
1464.0000	119.847
1464.5000	119.845
1465.0000	119.825
1465.5000	119.865
1466.0000	119.846
1466.5000	119.865
1467.0000	119.923
1467.5000	119.934
1468.0000	119.934
1468.5000	119.957
1469.0000	119.947
1469.5000	119.903
1470.0000	119.9
1470.5000	119.929
1471.0000	119.935
1471.5000	119.93
1472.0000	119.941
1472.5000	119.919
1473.0000	119.968
1473.5000	119.985
1474.0000	120.036
1474.5000	120.054
1475.0000	119.98
1475.5000	119.986
1476.0000	120.003
1476.5000	119.978
1477.0000	120.013
1477.5000	120.055
1478.0000	120.072
1478.5000	120.09
1479.0000	120.114
1479.5000	120.136
1480.0000	120.138
1480.5000	120.155
1481.0000	120.176
1481.5000	120.164
1482.0000	120.117
1482.5000	120.144
1483.0000	120.201
1483.5000	120.282
1484.0000	120.347
1484.5000	120.338
1485.0000	120.321
1485.5000	120.255
1486.0000	120.208
1486.5000	120.242
1487.0000	120.218
1487.5000	120.253
1488.0000	120.298
1488.5000	120.304
1489.0000	120.303
1489.5000	120.371
1490.0000	120.389
1490.5000	120.41
1491.0000	120.438
1491.5000	120.393
1492.0000	120.404
1492.5000	120.404
1493.0000	120.429
1493.5000	120.425
1494.0000	120.396
1494.5000	120.412
1495.0000	120.414
1495.5000	120.42
1496.0000	120.472
1496.5000	120.468
1497.0000	120.467
1497.5000	120.475
1498.0000	120.502
1498.5000	120.522
1499.0000	120.554
1499.5000	120.556
1500.0000	120.571
1500.5000	120.555
1501.0000	120.576
1501.5000	120.624
1502.0000	120.604
1502.5000	120.618
1503.0000	120.63
1503.5000	120.658
1504.0000	120.672
1504.5000	120.688
1505.0000	120.66
1505.5000	120.674
1506.0000	120.678
1506.5000	120.683
1507.0000	120.671
1507.5000	120.657
1508.0000	120.661
1508.5000	120.688
1509.0000	120.742
1509.5000	120.76
1510.0000	120.737
1510.5000	120.812
1511.0000	120.82
1511.5000	120.858
1512.0000	120.931
1512.5000	120.87
1513.0000	120.883
1513.5000	120.844
1514.0000	120.854
1514.5000	120.892
1515.0000	120.899
1515.5000	120.907
1516.0000	120.924
1516.5000	120.937
1517.0000	120.964
1517.5000	120.97
1518.0000	120.951
1518.5000	120.956
1519.0000	120.956
1519.5000	121.015
1520.0000	121.033
1520.5000	121.053
1521.0000	121.044
1521.5000	121.06
1522.0000	121.089
1522.5000	121.068
1523.0000	121.072
1523.5000	121.066
1524.0000	121.064
1524.5000	121.101
1525.0000	121.127
1525.5000	121.102
1526.0000	121.094
1526.5000	121.138
1527.0000	121.134
1527.5000	121.178
1528.0000	121.227
1528.5000	121.181
1529.0000	121.243
1529.5000	121.252
1530.0000	121.238
1530.5000	121.248
1531.0000	121.246
1531.5000	121.264
1532.0000	121.301
1532.5000	121.329
1533.0000	121.351
1533.5000	121.342
1534.0000	121.321
1534.5000	121.313
1535.0000	121.29
1535.5000	121.32
1536.0000	121.359
1536.5000	121.346
1537.0000	121.39
1537.5000	121.387
1538.0000	121.345
1538.5000	121.428
1539.0000	121.463
1539.5000	121.47
1540.0000	121.51
1540.5000	121.483
1541.0000	121.452
1541.5000	121.471
1542.0000	121.513
1542.5000	121.533
1543.0000	121.529
1543.5000	121.507
1544.0000	121.509
1544.5000	121.54
1545.0000	121.524
1545.5000	121.558
1546.0000	121.543
1546.5000	121.556
1547.0000	121.624
1547.5000	121.636
1548.0000	121.671
1548.5000	121.649
1549.0000	121.639
1549.5000	121.655
1550.0000	121.65
1550.5000	121.637
1551.0000	121.671
1551.5000	121.674
1552.0000	121.674
1552.5000	121.712
1553.0000	121.685
1553.5000	121.712
1554.0000	121.735
1554.5000	121.75
1555.0000	121.771
1555.5000	121.778
1556.0000	121.821
1556.5000	121.819
1557.0000	121.846
1557.5000	121.833
1558.0000	121.775
1558.5000	121.775
1559.0000	121.74
1559.5000	121.78
1560.0000	121.853
1560.5000	121.894
1561.0000	121.929
1561.5000	121.906
1562.0000	121.898
1562.5000	121.867
1563.0000	121.869
1563.5000	121.914
1564.0000	121.878
1564.5000	121.897
1565.0000	121.952
1565.5000	121.978
1566.0000	121.99
1566.5000	121.996
1567.0000	122.001
1567.5000	121.987
1568.0000	122.026
1568.5000	122.042
1569.0000	122.005
1569.5000	122.01
1570.0000	122.005
1570.5000	122.006
1571.0000	122.02
1571.5000	122.009
1572.0000	122.022
1572.5000	122.091
1573.0000	122.113
1573.5000	122.125
1574.0000	122.096
1574.5000	122.062
1575.0000	122.069
1575.5000	122.084
1576.0000	122.12
1576.5000	122.136
1577.0000	122.167
1577.5000	122.163
1578.0000	122.194
1578.5000	122.142
1579.0000	122.139
1579.5000	122.158
1580.0000	122.144
1580.5000	122.208
1581.0000	122.197
1581.5000	122.213
1582.0000	122.264
1582.5000	122.257
1583.0000	122.28
1583.5000	122.299
1584.0000	122.3
1584.5000	122.324
1585.0000	122.303
1585.5000	122.317
1586.0000	122.316
1586.5000	122.337
1587.0000	122.314
1587.5000	122.293
1588.0000	122.302
1588.5000	122.302
1589.0000	122.381
1589.5000	122.435
1590.0000	122.472
1590.5000	122.441
1591.0000	122.476
1591.5000	122.462
1592.0000	122.437
1592.5000	122.475
1593.0000	122.472
1593.5000	122.486
1594.0000	122.438
1594.5000	122.458
1595.0000	122.467
1595.5000	122.459
1596.0000	122.537
1596.5000	122.599
1597.0000	122.619
1597.5000	122.634
1598.0000	122.628
1598.5000	122.622
1599.0000	122.549
1599.5000	122.59
1600.0000	122.601
1600.5000	122.571
1601.0000	122.624
1601.5000	122.575
1602.0000	122.57
1602.5000	122.555
1603.0000	122.523
1603.5000	122.594
1604.0000	122.584
1604.5000	122.665
1605.0000	122.688
1605.5000	122.659
1606.0000	122.715
1606.5000	122.64
1607.0000	122.633
1607.5000	122.644
1608.0000	122.651
1608.5000	122.672
1609.0000	122.735
1609.5000	122.763
1610.0000	122.721
1610.5000	122.779
1611.0000	122.794
1611.5000	122.786
1612.0000	122.859
1612.5000	122.819
1613.0000	122.795
1613.5000	122.825
1614.0000	122.829
1614.5000	122.892
1615.0000	122.878
1615.5000	122.879
1616.0000	122.857
1616.5000	122.815
1617.0000	122.853
1617.5000	122.849
1618.0000	122.869
1618.5000	122.9
1619.0000	122.938
1619.5000	122.929
1620.0000	122.922
1620.5000	122.917
1621.0000	122.916
1621.5000	122.916
1622.0000	122.909
1622.5000	122.896
1623.0000	122.873
1623.5000	122.911
1624.0000	122.941
1624.5000	122.958
1625.0000	122.981
1625.5000	122.988
1626.0000	123.011
1626.5000	123.065
1627.0000	123.091
1627.5000	123.102
1628.0000	123.074
1628.5000	123.071
1629.0000	123.094
1629.5000	123.09
1630.0000	123.122
1630.5000	123.139
1631.0000	123.161
1631.5000	123.158
1632.0000	123.19
1632.5000	123.179
1633.0000	123.153
1633.5000	123.189
1634.0000	123.142
1634.5000	123.165
1635.0000	123.184
1635.5000	123.194
1636.0000	123.242
1636.5000	123.226
1637.0000	123.23
1637.5000	123.21
1638.0000	123.202
1638.5000	123.201
1639.0000	123.17
1639.5000	123.173
1640.0000	123.221
1640.5000	123.237
1641.0000	123.276
1641.5000	123.331
1642.0000	123.312
1642.5000	123.33
1643.0000	123.337
1643.5000	123.297
1644.0000	123.338
1644.5000	123.34
1645.0000	123.37
1645.5000	123.396
1646.0000	123.355
1646.5000	123.353
1647.0000	123.304
1647.5000	123.348
1648.0000	123.329
1648.5000	123.301
1649.0000	123.305
1649.5000	123.258
1650.0000	123.324
1650.5000	123.367
1651.0000	123.389
1651.5000	123.446
1652.0000	123.445
1652.5000	123.457
1653.0000	123.504
1653.5000	123.455
1654.0000	123.427
1654.5000	123.426
1655.0000	123.393
1655.5000	123.4
1656.0000	123.413
1656.5000	123.434
1657.0000	123.428
1657.5000	123.458
1658.0000	123.443
1658.5000	123.432
1659.0000	123.466
1659.5000	123.475
1660.0000	123.522
1660.5000	123.537
1661.0000	123.538
1661.5000	123.529
1662.0000	123.536
1662.5000	123.538
1663.0000	123.527
1663.5000	123.509
1664.0000	123.556
1664.5000	123.552
1665.0000	123.567
1665.5000	123.588
1666.0000	123.506
1666.5000	123.52
1667.0000	123.539
1667.5000	123.563
1668.0000	123.608
1668.5000	123.593
1669.0000	123.589
1669.5000	123.613
1670.0000	123.614
1670.5000	123.637
1671.0000	123.701
1671.5000	123.677
1672.0000	123.688
1672.5000	123.708
1673.0000	123.661
1673.5000	123.717
1674.0000	123.741
1674.5000	123.754
1675.0000	123.767
1675.5000	123.724
1676.0000	123.665
1676.5000	123.67
1677.0000	123.672
1677.5000	123.698
1678.0000	123.735
1678.5000	123.759
1679.0000	123.785
1679.5000	123.779
1680.0000	123.828
1680.5000	123.803
1681.0000	123.8
1681.5000	123.819
1682.0000	123.816
1682.5000	123.791
1683.0000	123.796
1683.5000	123.806
1684.0000	123.841
1684.5000	123.88
1685.0000	123.873
1685.5000	123.851
1686.0000	123.804
1686.5000	123.822
1687.0000	123.843
1687.5000	123.867
1688.0000	123.904
1688.5000	123.916
1689.0000	123.879
1689.5000	123.845
1690.0000	123.896
1690.5000	123.872
1691.0000	123.938
1691.5000	124.019
1692.0000	123.952
1692.5000	123.997
1693.0000	123.986
1693.5000	123.991
1694.0000	124.001
1694.5000	123.983
1695.0000	123.972
1695.5000	123.962
1696.0000	123.991
1696.5000	124.04
1697.0000	124.06
1697.5000	124.021
1698.0000	124.02
1698.5000	124.025
1699.0000	124.034
1699.5000	124.056
1700.0000	124.092
1700.5000	124.039
1701.0000	124.03
1701.5000	124.062
1702.0000	124.046
1702.5000	124.056
1703.0000	124.104
1703.5000	124.096
1704.0000	124.102
1704.5000	124.136
1705.0000	124.112
1705.5000	124.152
1706.0000	124.174
1706.5000	124.198
1707.0000	124.2
1707.5000	124.189
1708.0000	124.178
1708.5000	124.156
1709.0000	124.186
1709.5000	124.188
1710.0000	124.205
1710.5000	124.269
1711.0000	124.295
1711.5000	124.273
1712.0000	124.276
1712.5000	124.224
1713.0000	124.223
1713.5000	124.247
1714.0000	124.276
1714.5000	124.299
1715.0000	124.286
1715.5000	124.316
1716.0000	124.335
1716.5000	124.361
1717.0000	124.372
1717.5000	124.38
1718.0000	124.338
1718.5000	124.294
1719.0000	124.317
1719.5000	124.305
1720.0000	124.287
1720.5000	124.297
1721.0000	124.299
1721.5000	124.307
1722.0000	124.328
1722.5000	124.399
1723.0000	124.397
1723.5000	124.448
1724.0000	124.453
1724.5000	124.412
1725.0000	124.474
1725.5000	124.44
1726.0000	124.457
1726.5000	124.487
1727.0000	124.433
1727.5000	124.446
1728.0000	124.479
1728.5000	124.438
1729.0000	124.441
1729.5000	124.425
1730.0000	124.414
1730.5000	124.411
1731.0000	124.416
1731.5000	124.45
1732.0000	124.455
1732.5000	124.477
1733.0000	124.49
1733.5000	124.484
1734.0000	124.521
1734.5000	124.533
1735.0000	124.528
1735.5000	124.547
1736.0000	124.515
1736.5000	124.562
1737.0000	124.579
1737.5000	124.532
1738.0000	124.544
1738.5000	124.507
1739.0000	124.501
1739.5000	124.505
1740.0000	124.517
1740.5000	124.538
1741.0000	124.527
1741.5000	124.552
1742.0000	124.507
1742.5000	124.483
1743.0000	124.466
1743.5000	124.428
1744.0000	124.436
1744.5000	124.46
1745.0000	124.436
1745.5000	124.484
1746.0000	124.481
1746.5000	124.49
1747.0000	124.512
1747.5000	124.472
1748.0000	124.524
1748.5000	124.514
1749.0000	124.526
1749.5000	124.605
1750.0000	124.616
1750.5000	124.607
1751.0000	124.687
1751.5000	124.67
1752.0000	124.695
1752.5000	124.71
1753.0000	124.697
1753.5000	124.808
1754.0000	124.815
1754.5000	124.827
1755.0000	124.84
1755.5000	124.789
1756.0000	124.742
1756.5000	124.786
1757.0000	124.76
1757.5000	124.732
1758.0000	124.788
1758.5000	124.754
1759.0000	124.795
1759.5000	124.844
1760.0000	124.829
1760.5000	124.87
1761.0000	124.906
1761.5000	124.917
1762.0000	124.941
1762.5000	124.956
1763.0000	124.926
1763.5000	124.884
1764.0000	124.895
1764.5000	124.915
1765.0000	124.909
1765.5000	124.934
1766.0000	124.886
1766.5000	124.908
1767.0000	124.928
1767.5000	124.926
1768.0000	124.997
1768.5000	124.929
1769.0000	124.909
1769.5000	124.936
1770.0000	124.904
1770.5000	124.897
1771.0000	124.913
1771.5000	124.9
1772.0000	124.93
1772.5000	125.027
1773.0000	125.075
1773.5000	125.066
1774.0000	125.075
1774.5000	125.019
1775.0000	125.022
1775.5000	125.057
1776.0000	125.095
1776.5000	125.144
1777.0000	125.153
1777.5000	125.116
1778.0000	125.109
1778.5000	125.108
1779.0000	125.065
1779.5000	125.086
1780.0000	125.09
1780.5000	125.086
1781.0000	125.133
1781.5000	125.157
1782.0000	125.161
1782.5000	125.211
1783.0000	125.192
1783.5000	125.218
1784.0000	125.219
1784.5000	125.192
1785.0000	125.206
1785.5000	125.206
1786.0000	125.191
1786.5000	125.189
1787.0000	125.238
1787.5000	125.251
1788.0000	125.244
1788.5000	125.262
1789.0000	125.248
1789.5000	125.278
1790.0000	125.327
1790.5000	125.29
1791.0000	125.291
1791.5000	125.27
1792.0000	125.262
1792.5000	125.321
1793.0000	125.288
1793.5000	125.262
1794.0000	125.271
1794.5000	125.292
1795.0000	125.347
1795.5000	125.402
1796.0000	125.394
1796.5000	125.379
1797.0000	125.35
1797.5000	125.318
1798.0000	125.368
1798.5000	125.318
1799.0000	125.344
1799.5000	125.344
1800.0000	125.34
1800.5000	125.374
1801.0000	125.349
1801.5000	125.38
1802.0000	125.357
1802.5000	125.38
1803.0000	125.413
1803.5000	125.45
1804.0000	125.485
1804.5000	125.5
1805.0000	125.486
1805.5000	125.433
1806.0000	125.396
1806.5000	125.364
1807.0000	125.392
1807.5000	125.446
1808.0000	125.48
1808.5000	125.515
1809.0000	125.604
1809.5000	125.55
1810.0000	125.492
1810.5000	125.504
1811.0000	125.386
1811.5000	125.49
1812.0000	125.563
1812.5000	125.556
1813.0000	125.611
1813.5000	125.571
1814.0000	125.573
1814.5000	125.598
1815.0000	125.629
1815.5000	125.621
1816.0000	125.625
1816.5000	125.608
1817.0000	125.592
1817.5000	125.642
1818.0000	125.639
1818.5000	125.648
1819.0000	125.64
1819.5000	125.581
1820.0000	125.57
1820.5000	125.589
1821.0000	125.595
1821.5000	125.639
1822.0000	125.695
1822.5000	125.718
1823.0000	125.743
1823.5000	125.781
1824.0000	125.783
1824.5000	125.759
1825.0000	125.764
1825.5000	125.723
1826.0000	125.72
1826.5000	125.799
1827.0000	125.784
1827.5000	125.807
1828.0000	125.82
1828.5000	125.779
1829.0000	125.808
1829.5000	125.818
1830.0000	125.804
1830.5000	125.787
1831.0000	125.838
1831.5000	125.845
1832.0000	125.859
1832.5000	125.883
1833.0000	125.864
1833.5000	125.867
1834.0000	125.877
1834.5000	125.857
1835.0000	125.867
1835.5000	125.862
1836.0000	125.872
1836.5000	125.874
1837.0000	125.863
1837.5000	125.874
1838.0000	125.941
1838.5000	125.975
1839.0000	125.957
1839.5000	125.982
1840.0000	125.894
1840.5000	125.897
1841.0000	125.889
1841.5000	125.861
1842.0000	125.918
1842.5000	125.908
1843.0000	125.924
1843.5000	125.973
1844.0000	125.985
1844.5000	126.029
1845.0000	126.051
1845.5000	126.046
1846.0000	126.003
1846.5000	125.987
1847.0000	125.964
1847.5000	125.974
1848.0000	126.03
1848.5000	126.087
1849.0000	126.106
1849.5000	126.081
1850.0000	126.059
1850.5000	126.029
1851.0000	126.087
1851.5000	126.113
1852.0000	126.117
1852.5000	126.16
1853.0000	126.151
1853.5000	126.14
1854.0000	126.166
1854.5000	126.145
1855.0000	126.124
1855.5000	126.151
1856.0000	126.14
1856.5000	126.13
1857.0000	126.155
1857.5000	126.153
1858.0000	126.178
1858.5000	126.21
1859.0000	126.207
1859.5000	126.226
1860.0000	126.239
1860.5000	126.225
1861.0000	126.266
1861.5000	126.231
1862.0000	126.196
1862.5000	126.211
1863.0000	126.181
1863.5000	126.223
1864.0000	126.292
1864.5000	126.307
1865.0000	126.304
1865.5000	126.297
1866.0000	126.241
1866.5000	126.221
1867.0000	126.257
1867.5000	126.254
1868.0000	126.262
1868.5000	126.238
1869.0000	126.253
1869.5000	126.26
1870.0000	126.284
1870.5000	126.357
1871.0000	126.341
1871.5000	126.374
1872.0000	126.377
1872.5000	126.351
1873.0000	126.367
1873.5000	126.411
1874.0000	126.438
1874.5000	126.456
1875.0000	126.496
1875.5000	126.478
1876.0000	126.469
1876.5000	126.472
1877.0000	126.441
1877.5000	126.462
1878.0000	126.51
1878.5000	126.53
1879.0000	126.507
1879.5000	126.487
1880.0000	126.459
1880.5000	126.448
1881.0000	126.488
1881.5000	126.509
1882.0000	126.491
1882.5000	126.476
1883.0000	126.45
1883.5000	126.41
1884.0000	126.454
1884.5000	126.473
1885.0000	126.53
1885.5000	126.522
1886.0000	126.497
1886.5000	126.542
1887.0000	126.549
1887.5000	126.61
1888.0000	126.664
1888.5000	126.623
1889.0000	126.598
1889.5000	126.58
1890.0000	126.55
1890.5000	126.594
1891.0000	126.614
1891.5000	126.621
1892.0000	126.654
1892.5000	126.649
1893.0000	126.661
1893.5000	126.689
1894.0000	126.667
1894.5000	126.678
1895.0000	126.679
1895.5000	126.665
1896.0000	126.666
1896.5000	126.635
1897.0000	126.651
1897.5000	126.65
1898.0000	126.633
1898.5000	126.693
1899.0000	126.699
1899.5000	126.675
1900.0000	126.713
1900.5000	126.71
1901.0000	126.688
1901.5000	126.745
1902.0000	126.774
1902.5000	126.772
1903.0000	126.811
1903.5000	126.83
1904.0000	126.824
1904.5000	126.828
1905.0000	126.794
1905.5000	126.817
1906.0000	126.811
1906.5000	126.82
1907.0000	126.866
1907.5000	126.849
1908.0000	126.879
1908.5000	126.872
1909.0000	126.818
1909.5000	126.797
1910.0000	126.772
1910.5000	126.789
1911.0000	126.859
1911.5000	126.871
1912.0000	126.897
1912.5000	126.925
1913.0000	126.915
1913.5000	126.92
1914.0000	126.915
1914.5000	126.884
1915.0000	126.927
1915.5000	126.914
1916.0000	126.95
1916.5000	126.99
1917.0000	126.957
1917.5000	126.975
1918.0000	126.956
1918.5000	126.922
1919.0000	126.896
1919.5000	126.919
1920.0000	126.955
1920.5000	126.992
1921.0000	127.023
1921.5000	127.051
1922.0000	127.046
1922.5000	127.052
1923.0000	127.073
1923.5000	127.071
1924.0000	127.087
1924.5000	127.115
1925.0000	127.148
1925.5000	127.12
1926.0000	127.085
1926.5000	127.094
1927.0000	127.064
1927.5000	127.071
1928.0000	127.059
1928.5000	127.053
1929.0000	127.098
1929.5000	127.16
1930.0000	127.168
1930.5000	127.154
1931.0000	127.139
1931.5000	127.118
1932.0000	127.116
1932.5000	127.167
1933.0000	127.129
1933.5000	127.116
1934.0000	127.16
1934.5000	127.1
1935.0000	127.13
1935.5000	127.15
1936.0000	127.161
1936.5000	127.175
1937.0000	127.177
1937.5000	127.189
1938.0000	127.241
1938.5000	127.262
1939.0000	127.272
1939.5000	127.296
1940.0000	127.243
1940.5000	127.263
1941.0000	127.285
1941.5000	127.302
1942.0000	127.361
1942.5000	127.327
1943.0000	127.3
1943.5000	127.317
1944.0000	127.281
