TITLE	
DATA TYPE	
ORIGIN	JASCO
OWNER	
DATE	22/04/19
TIME	18:54:04
SPECTROMETER/DATA SYSTEM	
RESOLUTION	
DELTAX	0.5
XUNITS	SEC
YUNITS	INTENSITY
FIRSTX	0.0000
LASTX	2171.5000
NPOINTS	4344
FIRSTY	473.24854
MAXY	475.04233
MINY	-77.87471
XYDATA
0.0000	473.249
0.5000	473.238
1.0000	473.387
1.5000	473.365
2.0000	473.427
2.5000	473.363
3.0000	473.326
3.5000	473.413
4.0000	473.437
4.5000	473.506
5.0000	473.496
5.5000	473.434
6.0000	473.392
6.5000	473.486
7.0000	473.519
7.5000	473.643
8.0000	473.671
8.5000	473.675
9.0000	473.762
9.5000	473.75
10.0000	473.861
10.5000	473.865
11.0000	473.942
11.5000	474.04
12.0000	474.042
12.5000	474.095
13.0000	474.083
13.5000	474.129
14.0000	474.226
14.5000	474.361
15.0000	474.349
15.5000	474.384
16.0000	474.441
16.5000	474.417
17.0000	474.542
17.5000	474.528
18.0000	474.433
18.5000	474.36
19.0000	474.296
19.5000	474.243
20.0000	474.336
20.5000	474.427
21.0000	474.453
21.5000	474.57
22.0000	474.612
22.5000	474.641
23.0000	474.649
23.5000	474.749
24.0000	474.738
24.5000	474.775
25.0000	474.841
25.5000	474.788
26.0000	474.824
26.5000	474.794
27.0000	474.794
27.5000	474.788
28.0000	474.825
28.5000	474.932
29.0000	474.928
29.5000	474.954
30.0000	475.042
30.5000	474.982
31.0000	463.211
31.5000	443.74
32.0000	403.526
32.5000	228.245
33.0000	-77.8747
33.5000	-40.1036
34.0000	-32.6386
34.5000	-30.1319
35.0000	-28.857
35.5000	-28.1294
36.0000	-27.5442
36.5000	-27.1476
37.0000	-26.8353
37.5000	-26.382
38.0000	246.633
38.5000	286.489
39.0000	286.099
39.5000	285.495
40.0000	271.87
40.5000	266.425
41.0000	266.006
41.5000	265.961
42.0000	265.933
42.5000	265.947
43.0000	265.994
43.5000	265.975
44.0000	266.079
44.5000	266.144
45.0000	266.19
45.5000	266.329
46.0000	266.425
46.5000	266.512
47.0000	266.573
47.5000	266.664
48.0000	266.739
48.5000	266.81
49.0000	266.937
49.5000	266.96
50.0000	266.985
50.5000	267.062
51.0000	267.108
51.5000	267.163
52.0000	267.267
52.5000	267.292
53.0000	267.303
53.5000	267.391
54.0000	267.474
54.5000	267.62
55.0000	267.764
55.5000	267.869
56.0000	267.927
56.5000	267.969
57.0000	268.049
57.5000	268.094
58.0000	268.168
58.5000	268.296
59.0000	268.388
59.5000	268.449
60.0000	268.509
60.5000	268.535
61.0000	268.601
61.5000	268.729
62.0000	268.846
62.5000	268.92
63.0000	268.945
63.5000	269.034
64.0000	269.071
64.5000	269.17
65.0000	269.226
65.5000	269.277
66.0000	269.35
66.5000	269.422
67.0000	269.554
67.5000	269.637
68.0000	269.771
68.5000	269.831
69.0000	269.939
69.5000	269.947
70.0000	269.992
70.5000	270.091
71.0000	270.197
71.5000	270.319
72.0000	270.41
72.5000	270.448
73.0000	270.489
73.5000	270.585
74.0000	270.632
74.5000	270.728
75.0000	270.867
75.5000	270.94
76.0000	271.042
76.5000	271.24
77.0000	271.257
77.5000	271.313
78.0000	271.379
78.5000	271.359
79.0000	271.47
79.5000	271.588
80.0000	271.719
80.5000	271.883
81.0000	271.934
81.5000	272.022
82.0000	272.126
82.5000	272.135
83.0000	272.25
83.5000	272.342
84.0000	272.339
84.5000	272.481
85.0000	272.615
85.5000	272.71
86.0000	272.793
86.5000	272.889
87.0000	272.93
87.5000	272.975
88.0000	273.155
88.5000	273.203
89.0000	273.275
89.5000	273.379
90.0000	273.393
90.5000	273.466
91.0000	273.571
91.5000	273.688
92.0000	273.807
92.5000	273.902
93.0000	273.974
93.5000	273.984
94.0000	274.057
94.5000	274.135
95.0000	274.262
95.5000	274.43
96.0000	274.552
96.5000	274.594
97.0000	274.648
97.5000	274.744
98.0000	274.82
98.5000	274.872
99.0000	274.921
99.5000	274.988
100.0000	275.055
100.5000	275.226
101.0000	275.36
101.5000	275.431
102.0000	275.54
102.5000	275.599
103.0000	275.696
103.5000	275.814
104.0000	275.865
104.5000	275.95
105.0000	276.029
105.5000	276.067
106.0000	276.214
106.5000	276.343
107.0000	276.419
107.5000	276.501
108.0000	276.585
108.5000	276.616
109.0000	276.739
109.5000	276.901
110.0000	276.948
110.5000	277.066
111.0000	277.145
111.5000	277.165
112.0000	277.261
112.5000	277.366
113.0000	277.438
113.5000	277.553
114.0000	277.648
114.5000	277.747
115.0000	277.853
115.5000	277.956
116.0000	278.075
116.5000	278.19
117.0000	278.337
117.5000	278.455
118.0000	278.552
118.5000	278.603
119.0000	278.623
119.5000	278.703
120.0000	278.782
120.5000	278.898
121.0000	279.044
121.5000	279.131
122.0000	279.246
122.5000	279.393
123.0000	279.435
123.5000	279.52
124.0000	279.622
124.5000	279.656
125.0000	279.763
125.5000	279.876
126.0000	279.909
126.5000	280.011
127.0000	280.094
127.5000	280.205
128.0000	280.3
128.5000	280.419
129.0000	280.502
129.5000	280.582
130.0000	280.726
130.5000	280.819
131.0000	280.928
131.5000	281.022
132.0000	281.124
132.5000	281.155
133.0000	281.265
133.5000	281.364
134.0000	281.495
134.5000	281.649
135.0000	281.751
135.5000	281.838
136.0000	281.861
136.5000	281.964
137.0000	282.066
137.5000	282.13
138.0000	282.227
138.5000	282.29
139.0000	282.374
139.5000	282.483
140.0000	282.629
140.5000	282.693
141.0000	282.808
141.5000	282.949
142.0000	283.009
142.5000	283.151
143.0000	283.281
143.5000	283.318
144.0000	283.431
144.5000	283.585
145.0000	283.629
145.5000	283.691
146.0000	283.788
146.5000	283.772
147.0000	283.845
147.5000	284.013
148.0000	284.064
148.5000	284.241
149.0000	284.384
149.5000	284.474
150.0000	284.593
150.5000	284.68
151.0000	284.741
151.5000	284.799
152.0000	284.885
152.5000	284.936
153.0000	285.056
153.5000	285.205
154.0000	285.336
154.5000	285.431
155.0000	285.471
155.5000	285.531
156.0000	285.548
156.5000	285.605
157.0000	285.722
157.5000	285.827
158.0000	285.964
158.5000	286.15
159.0000	286.235
159.5000	286.329
160.0000	286.414
160.5000	286.522
161.0000	286.64
161.5000	286.738
162.0000	286.843
162.5000	286.866
163.0000	286.938
163.5000	286.99
164.0000	287.077
164.5000	287.16
165.0000	287.228
165.5000	287.334
166.0000	287.409
166.5000	287.487
167.0000	287.615
167.5000	287.762
168.0000	287.872
168.5000	287.992
169.0000	288.053
169.5000	288.099
170.0000	288.166
170.5000	288.219
171.0000	288.322
171.5000	288.396
172.0000	288.458
172.5000	288.556
173.0000	288.636
173.5000	288.735
174.0000	288.803
174.5000	288.946
175.0000	289.031
175.5000	289.078
176.0000	289.186
176.5000	289.213
177.0000	289.243
177.5000	289.321
178.0000	289.417
178.5000	289.523
179.0000	289.694
179.5000	289.777
180.0000	289.884
180.5000	289.953
181.0000	290.041
181.5000	290.039
182.0000	290.12
182.5000	290.25
183.0000	290.271
183.5000	290.418
184.0000	290.45
184.5000	290.524
185.0000	290.634
185.5000	290.791
186.0000	290.985
186.5000	291.032
187.0000	291.095
187.5000	291.183
188.0000	291.235
188.5000	291.378
189.0000	291.472
189.5000	291.551
190.0000	291.609
190.5000	291.659
191.0000	291.758
191.5000	291.788
192.0000	291.853
192.5000	291.916
193.0000	291.997
193.5000	292.102
194.0000	292.197
194.5000	292.291
195.0000	292.345
195.5000	292.421
196.0000	292.483
196.5000	292.513
197.0000	292.591
197.5000	292.69
198.0000	292.737
198.5000	292.825
199.0000	292.876
199.5000	292.904
200.0000	293.008
200.5000	293.117
201.0000	293.243
201.5000	293.354
202.0000	293.494
202.5000	293.586
203.0000	293.68
203.5000	293.793
204.0000	293.85
204.5000	293.884
205.0000	293.918
205.5000	293.959
206.0000	293.984
206.5000	294.119
207.0000	294.181
207.5000	294.315
208.0000	294.441
208.5000	294.499
209.0000	294.579
209.5000	294.592
210.0000	294.645
210.5000	294.711
211.0000	294.855
211.5000	294.927
212.0000	294.988
212.5000	295.045
213.0000	295.066
213.5000	295.162
214.0000	295.202
214.5000	295.302
215.0000	295.406
215.5000	295.502
216.0000	295.658
216.5000	295.708
217.0000	295.721
217.5000	295.757
218.0000	295.827
218.5000	295.931
219.0000	296.069
219.5000	296.181
220.0000	296.232
220.5000	296.33
221.0000	296.385
221.5000	296.451
222.0000	296.557
222.5000	296.565
223.0000	296.632
223.5000	296.75
224.0000	296.835
224.5000	296.978
225.0000	297.064
225.5000	297.081
226.0000	297.112
226.5000	297.162
227.0000	297.277
227.5000	297.352
228.0000	297.445
228.5000	297.512
229.0000	297.575
229.5000	297.716
230.0000	297.748
230.5000	297.83
231.0000	297.886
231.5000	297.827
232.0000	297.945
232.5000	297.987
233.0000	298.066
233.5000	298.256
234.0000	298.294
234.5000	298.378
235.0000	298.428
235.5000	298.458
236.0000	298.561
236.5000	298.686
237.0000	298.761
237.5000	298.786
238.0000	298.803
238.5000	298.826
239.0000	298.893
239.5000	299.07
240.0000	299.211
240.5000	299.277
241.0000	299.365
241.5000	299.407
242.0000	299.461
242.5000	299.561
243.0000	299.587
243.5000	299.66
244.0000	299.729
244.5000	299.807
245.0000	299.919
245.5000	299.956
246.0000	299.992
246.5000	300.02
247.0000	300.074
247.5000	300.182
248.0000	300.261
248.5000	300.354
249.0000	300.466
249.5000	300.534
250.0000	300.633
250.5000	300.737
251.0000	300.811
251.5000	300.85
252.0000	300.921
252.5000	300.985
253.0000	301.048
253.5000	301.144
254.0000	301.181
254.5000	301.222
255.0000	301.299
255.5000	301.393
256.0000	301.498
256.5000	301.574
257.0000	301.586
257.5000	301.638
258.0000	301.673
258.5000	301.785
259.0000	301.907
259.5000	301.986
260.0000	302.068
260.5000	302.088
261.0000	302.169
261.5000	302.227
262.0000	302.28
262.5000	302.362
263.0000	302.443
263.5000	302.528
264.0000	302.647
264.5000	302.72
265.0000	302.809
265.5000	302.853
266.0000	302.896
266.5000	302.938
267.0000	302.96
267.5000	303.017
268.0000	303.062
268.5000	303.155
269.0000	303.265
269.5000	303.358
270.0000	303.39
270.5000	303.499
271.0000	303.518
271.5000	303.629
272.0000	303.761
272.5000	303.767
273.0000	303.824
273.5000	303.851
274.0000	303.89
274.5000	303.978
275.0000	304.069
275.5000	304.145
276.0000	304.265
276.5000	304.377
277.0000	304.469
277.5000	304.512
278.0000	304.585
278.5000	304.612
279.0000	304.638
279.5000	304.706
280.0000	304.75
280.5000	304.861
281.0000	304.991
281.5000	305.06
282.0000	305.167
282.5000	305.258
283.0000	305.274
283.5000	305.351
284.0000	305.404
284.5000	305.422
285.0000	305.485
285.5000	305.543
286.0000	305.614
286.5000	305.69
287.0000	305.738
287.5000	305.807
288.0000	305.887
288.5000	305.918
289.0000	306.023
289.5000	306.151
290.0000	306.229
290.5000	306.342
291.0000	306.375
291.5000	306.386
292.0000	306.433
292.5000	306.459
293.0000	306.553
293.5000	306.569
294.0000	306.639
294.5000	306.73
295.0000	306.838
295.5000	307.001
296.0000	307.058
296.5000	307.14
297.0000	307.179
297.5000	307.224
298.0000	307.253
298.5000	307.378
299.0000	307.455
299.5000	307.509
300.0000	307.592
300.5000	307.608
301.0000	307.66
301.5000	307.732
302.0000	307.789
302.5000	307.846
303.0000	307.898
303.5000	307.961
304.0000	308.136
304.5000	308.175
305.0000	308.309
305.5000	308.405
306.0000	308.389
306.5000	308.505
307.0000	308.55
307.5000	308.526
308.0000	308.616
308.5000	308.679
309.0000	308.737
309.5000	308.888
310.0000	308.907
310.5000	309.004
311.0000	309.02
311.5000	309.102
312.0000	309.186
312.5000	309.252
313.0000	309.334
313.5000	309.369
314.0000	309.467
314.5000	309.487
315.0000	309.572
315.5000	309.608
316.0000	309.6
316.5000	309.698
317.0000	309.768
317.5000	309.879
318.0000	310.043
318.5000	310.098
319.0000	310.171
319.5000	310.208
320.0000	310.251
320.5000	310.318
321.0000	310.379
321.5000	310.417
322.0000	310.461
322.5000	310.434
323.0000	310.464
323.5000	310.586
324.0000	310.687
324.5000	310.842
325.0000	310.967
325.5000	311.065
326.0000	311.065
326.5000	311.097
327.0000	311.142
327.5000	311.204
328.0000	311.313
328.5000	311.437
329.0000	311.509
329.5000	311.529
330.0000	311.668
330.5000	311.666
331.0000	311.72
331.5000	311.741
332.0000	311.699
332.5000	311.728
333.0000	311.754
333.5000	311.853
334.0000	311.92
334.5000	312.058
335.0000	312.146
335.5000	312.144
336.0000	312.226
336.5000	312.234
337.0000	312.281
337.5000	312.376
338.0000	312.377
338.5000	312.449
339.0000	312.502
339.5000	312.609
340.0000	312.694
340.5000	312.774
341.0000	312.922
341.5000	312.99
342.0000	313.093
342.5000	313.175
343.0000	313.172
343.5000	313.235
344.0000	313.332
344.5000	313.431
345.0000	313.476
345.5000	313.514
346.0000	313.663
346.5000	313.719
347.0000	313.832
347.5000	313.934
348.0000	313.94
348.5000	313.996
349.0000	314.13
349.5000	314.207
350.0000	314.163
350.5000	314.186
351.0000	314.218
351.5000	314.212
352.0000	314.358
352.5000	314.469
353.0000	314.548
353.5000	314.669
354.0000	314.713
354.5000	314.716
355.0000	314.658
355.5000	314.761
356.0000	314.814
356.5000	314.909
357.0000	315.08
357.5000	315.064
358.0000	315.092
358.5000	315.174
359.0000	315.177
359.5000	315.274
360.0000	315.355
360.5000	315.488
361.0000	315.58
361.5000	315.663
362.0000	315.748
362.5000	315.764
363.0000	315.809
363.5000	315.835
364.0000	315.944
364.5000	316.039
365.0000	316.145
365.5000	316.241
366.0000	316.25
366.5000	316.281
367.0000	316.223
367.5000	316.308
368.0000	316.397
368.5000	316.437
369.0000	316.559
369.5000	316.622
370.0000	316.637
370.5000	316.722
371.0000	316.806
371.5000	316.787
372.0000	316.824
372.5000	316.896
373.0000	316.949
373.5000	317.031
374.0000	317.156
374.5000	317.196
375.0000	317.319
375.5000	317.411
376.0000	317.512
376.5000	317.531
377.0000	317.523
377.5000	317.53
378.0000	317.61
378.5000	317.702
379.0000	317.735
379.5000	317.822
380.0000	317.794
380.5000	317.836
381.0000	317.908
381.5000	317.955
382.0000	318.05
382.5000	318.129
383.0000	318.236
383.5000	318.404
384.0000	318.502
384.5000	318.612
385.0000	318.642
385.5000	318.639
386.0000	318.671
386.5000	318.599
387.0000	318.675
387.5000	318.756
388.0000	318.823
388.5000	318.929
389.0000	319.021
389.5000	319.089
390.0000	319.063
390.5000	319.171
391.0000	319.202
391.5000	319.278
392.0000	319.401
392.5000	319.464
393.0000	319.574
393.5000	319.575
394.0000	319.694
394.5000	319.658
395.0000	319.698
395.5000	319.745
396.0000	319.811
396.5000	319.999
397.0000	320.085
397.5000	320.19
398.0000	320.196
398.5000	320.19
399.0000	320.193
399.5000	320.277
400.0000	320.422
400.5000	320.474
401.0000	320.597
401.5000	320.602
402.0000	320.547
402.5000	320.67
403.0000	320.718
403.5000	320.82
404.0000	320.971
404.5000	320.967
405.0000	320.956
405.5000	320.982
406.0000	320.949
406.5000	321.046
407.0000	321.068
407.5000	321.104
408.0000	321.184
408.5000	321.324
409.0000	321.471
409.5000	321.537
410.0000	321.649
410.5000	321.644
411.0000	321.712
411.5000	321.755
412.0000	321.889
412.5000	321.903
413.0000	321.937
413.5000	322.044
414.0000	321.966
414.5000	322.017
415.0000	322.13
415.5000	322.179
416.0000	322.284
416.5000	322.365
417.0000	322.369
417.5000	322.391
418.0000	322.455
418.5000	322.484
419.0000	322.542
419.5000	322.698
420.0000	322.755
420.5000	322.836
421.0000	322.948
421.5000	322.937
422.0000	322.947
422.5000	323.032
423.0000	323.003
423.5000	323.113
424.0000	323.228
424.5000	323.24
425.0000	323.312
425.5000	323.33
426.0000	323.374
426.5000	323.42
427.0000	323.451
427.5000	323.515
428.0000	323.572
428.5000	323.634
429.0000	323.779
429.5000	323.872
430.0000	323.899
430.5000	324.043
431.0000	324.115
431.5000	324.11
432.0000	324.204
432.5000	324.238
433.0000	324.243
433.5000	324.353
434.0000	324.43
434.5000	324.505
435.0000	324.549
435.5000	324.609
436.0000	324.639
436.5000	324.654
437.0000	324.73
437.5000	324.785
438.0000	324.889
438.5000	324.945
439.0000	325.057
439.5000	325.102
440.0000	325.112
440.5000	325.208
441.0000	325.245
441.5000	325.333
442.0000	325.4
442.5000	325.494
443.0000	325.507
443.5000	325.499
444.0000	325.519
444.5000	325.509
445.0000	325.523
445.5000	325.555
446.0000	325.613
446.5000	325.696
447.0000	325.827
447.5000	326.016
448.0000	326.127
448.5000	326.191
449.0000	326.228
449.5000	326.182
450.0000	326.194
450.5000	326.211
451.0000	326.24
451.5000	326.334
452.0000	326.459
452.5000	326.536
453.0000	326.613
453.5000	326.652
454.0000	326.678
454.5000	326.725
455.0000	326.803
455.5000	326.873
456.0000	326.876
456.5000	326.965
457.0000	327.087
457.5000	327.149
458.0000	327.242
458.5000	327.287
459.0000	327.308
459.5000	327.357
460.0000	327.417
460.5000	327.483
461.0000	327.507
461.5000	327.565
462.0000	327.59
462.5000	327.671
463.0000	327.741
463.5000	327.773
464.0000	327.831
464.5000	327.884
465.0000	327.93
465.5000	327.996
466.0000	328.041
466.5000	328.1
467.0000	328.156
467.5000	328.202
468.0000	328.288
468.5000	328.318
469.0000	328.355
469.5000	328.355
470.0000	328.408
470.5000	328.467
471.0000	328.532
471.5000	328.612
472.0000	328.625
472.5000	328.658
473.0000	328.724
473.5000	328.826
474.0000	328.967
474.5000	329.007
475.0000	329.063
475.5000	329.131
476.0000	329.176
476.5000	329.278
477.0000	329.291
477.5000	329.275
478.0000	329.31
478.5000	329.331
479.0000	329.396
479.5000	329.517
480.0000	329.606
480.5000	329.607
481.0000	329.63
481.5000	329.686
482.0000	329.731
482.5000	329.839
483.0000	329.907
483.5000	329.955
484.0000	329.997
484.5000	330.058
485.0000	330.177
485.5000	330.282
486.0000	330.367
486.5000	330.425
487.0000	330.467
487.5000	330.444
488.0000	330.462
488.5000	330.448
489.0000	330.495
489.5000	330.569
490.0000	330.621
490.5000	330.748
491.0000	330.789
491.5000	330.892
492.0000	330.982
492.5000	331.046
493.0000	331.217
493.5000	331.21
494.0000	331.234
494.5000	331.3
495.0000	331.285
495.5000	331.345
496.0000	331.418
496.5000	331.39
497.0000	331.476
497.5000	331.522
498.0000	331.578
498.5000	331.677
499.0000	331.655
499.5000	331.728
500.0000	331.77
500.5000	331.831
501.0000	331.898
501.5000	331.937
502.0000	331.971
502.5000	332.036
503.0000	332.131
503.5000	332.237
504.0000	332.302
504.5000	332.352
505.0000	332.348
505.5000	332.336
506.0000	332.391
506.5000	332.478
507.0000	332.542
507.5000	332.602
508.0000	332.685
508.5000	332.721
509.0000	332.788
509.5000	332.916
510.0000	332.898
510.5000	332.952
511.0000	333.02
511.5000	333.01
512.0000	333.111
512.5000	333.146
513.0000	333.173
513.5000	333.274
514.0000	333.329
514.5000	333.345
515.0000	333.344
515.5000	333.358
516.0000	333.349
516.5000	333.485
517.0000	333.616
517.5000	333.657
518.0000	333.762
518.5000	333.792
519.0000	333.807
519.5000	333.838
520.0000	333.875
520.5000	333.938
521.0000	334.009
521.5000	334.089
522.0000	334.136
522.5000	334.105
523.0000	334.142
523.5000	334.231
524.0000	334.298
524.5000	334.359
525.0000	334.426
525.5000	334.441
526.0000	334.468
526.5000	334.56
527.0000	334.62
527.5000	334.747
528.0000	334.828
528.5000	334.955
529.0000	335.04
529.5000	335.005
530.0000	335.045
530.5000	335.029
531.0000	335.058
531.5000	335.135
532.0000	335.253
532.5000	335.296
533.0000	335.32
533.5000	335.393
534.0000	335.396
534.5000	335.461
535.0000	335.482
535.5000	335.509
536.0000	335.509
536.5000	335.542
537.0000	335.612
537.5000	335.685
538.0000	335.765
538.5000	335.802
539.0000	335.818
539.5000	335.893
540.0000	335.995
540.5000	336.093
541.0000	336.201
541.5000	336.199
542.0000	336.206
542.5000	336.248
543.0000	336.3
543.5000	336.35
544.0000	336.431
544.5000	336.529
545.0000	336.585
545.5000	336.653
546.0000	336.714
546.5000	336.733
547.0000	336.749
547.5000	336.79
548.0000	336.872
548.5000	336.879
549.0000	336.944
549.5000	337.016
550.0000	337.01
550.5000	337.145
551.0000	337.21
551.5000	337.268
552.0000	337.317
552.5000	337.321
553.0000	337.339
553.5000	337.415
554.0000	337.468
554.5000	337.518
555.0000	337.633
555.5000	337.656
556.0000	337.714
556.5000	337.757
557.0000	337.777
557.5000	337.846
558.0000	337.903
558.5000	337.918
559.0000	338.022
559.5000	338.091
560.0000	338.133
560.5000	338.195
561.0000	338.249
561.5000	338.294
562.0000	338.302
562.5000	338.407
563.0000	338.366
563.5000	338.405
564.0000	338.518
564.5000	338.577
565.0000	338.75
565.5000	338.722
566.0000	338.809
566.5000	338.829
567.0000	338.831
567.5000	338.974
568.0000	339.008
568.5000	339.079
569.0000	339.158
569.5000	339.17
570.0000	339.196
570.5000	339.195
571.0000	339.271
571.5000	339.399
572.0000	339.419
572.5000	339.448
573.0000	339.454
573.5000	339.443
574.0000	339.478
574.5000	339.577
575.0000	339.608
575.5000	339.624
576.0000	339.68
576.5000	339.771
577.0000	339.83
577.5000	339.897
578.0000	339.98
578.5000	340.022
579.0000	340.095
579.5000	340.195
580.0000	340.301
580.5000	340.393
581.0000	340.445
581.5000	340.467
582.0000	340.547
582.5000	340.615
583.0000	340.6
583.5000	340.675
584.0000	340.736
584.5000	340.743
585.0000	340.86
585.5000	340.921
586.0000	340.89
586.5000	340.917
587.0000	340.982
587.5000	341.011
588.0000	341.044
588.5000	341.139
589.0000	341.164
589.5000	341.184
590.0000	341.259
590.5000	341.276
591.0000	341.371
591.5000	341.46
592.0000	341.51
592.5000	341.581
593.0000	341.579
593.5000	341.65
594.0000	341.708
594.5000	341.754
595.0000	341.801
595.5000	341.79
596.0000	341.943
596.5000	341.968
597.0000	342.094
597.5000	342.196
598.0000	342.094
598.5000	342.17
599.0000	342.153
599.5000	342.194
600.0000	342.266
600.5000	342.3
601.0000	342.351
601.5000	342.299
602.0000	342.42
602.5000	342.448
603.0000	342.522
603.5000	342.67
604.0000	342.686
604.5000	342.769
605.0000	342.789
605.5000	342.86
606.0000	342.96
606.5000	343.022
607.0000	343.067
607.5000	343.112
608.0000	343.156
608.5000	343.18
609.0000	343.29
609.5000	343.342
610.0000	343.384
610.5000	343.465
611.0000	343.484
611.5000	343.593
612.0000	343.673
612.5000	343.724
613.0000	343.808
613.5000	343.718
614.0000	343.818
614.5000	343.827
615.0000	343.849
615.5000	343.982
616.0000	343.934
616.5000	343.977
617.0000	344.054
617.5000	344.091
618.0000	344.14
618.5000	344.247
619.0000	344.284
619.5000	344.369
620.0000	344.427
620.5000	344.493
621.0000	344.562
621.5000	344.622
622.0000	344.68
622.5000	344.725
623.0000	344.778
623.5000	344.887
624.0000	344.957
624.5000	344.95
625.0000	345.005
625.5000	345.028
626.0000	345.045
626.5000	345.21
627.0000	345.242
627.5000	345.328
628.0000	345.445
628.5000	345.468
629.0000	345.544
629.5000	345.504
630.0000	345.508
630.5000	345.509
631.0000	345.483
631.5000	345.551
632.0000	345.613
632.5000	345.686
633.0000	345.798
633.5000	345.855
634.0000	345.94
634.5000	346.022
635.0000	346.034
635.5000	346.063
636.0000	346.076
636.5000	346.148
637.0000	346.24
637.5000	346.281
638.0000	346.271
638.5000	346.375
639.0000	346.421
639.5000	346.519
640.0000	346.694
640.5000	346.635
641.0000	346.728
641.5000	346.785
642.0000	346.777
642.5000	346.869
643.0000	346.918
643.5000	346.98
644.0000	347.082
644.5000	347.078
645.0000	347.13
645.5000	347.211
646.0000	347.286
646.5000	347.349
647.0000	347.361
647.5000	347.436
648.0000	347.418
648.5000	347.507
649.0000	347.558
649.5000	347.568
650.0000	347.601
650.5000	347.676
651.0000	347.834
651.5000	347.826
652.0000	347.913
652.5000	347.944
653.0000	347.897
653.5000	347.993
654.0000	348.064
654.5000	348.103
655.0000	348.276
655.5000	348.343
656.0000	348.368
656.5000	348.432
657.0000	348.416
657.5000	348.456
658.0000	348.482
658.5000	348.59
659.0000	348.702
659.5000	348.813
660.0000	348.946
660.5000	348.976
661.0000	348.938
661.5000	348.936
662.0000	349
662.5000	349.014
663.0000	349.129
663.5000	349.151
664.0000	349.191
664.5000	349.256
665.0000	349.324
665.5000	349.375
666.0000	349.401
666.5000	349.516
667.0000	349.56
667.5000	349.71
668.0000	349.75
668.5000	349.779
669.0000	349.761
669.5000	349.79
670.0000	349.884
670.5000	349.942
671.0000	350.05
671.5000	350.083
672.0000	350.163
672.5000	350.212
673.0000	350.259
673.5000	350.308
674.0000	350.365
674.5000	350.449
675.0000	350.497
675.5000	350.625
676.0000	350.641
676.5000	350.658
677.0000	350.801
677.5000	350.817
678.0000	350.899
678.5000	351.042
679.0000	351.024
679.5000	351.084
680.0000	351.089
680.5000	351.02
681.0000	351.139
681.5000	351.18
682.0000	351.354
682.5000	351.425
683.0000	351.403
683.5000	351.459
684.0000	351.439
684.5000	351.494
685.0000	351.544
685.5000	351.592
686.0000	351.667
686.5000	351.76
687.0000	351.812
687.5000	351.892
688.0000	351.903
688.5000	352.009
689.0000	352.102
689.5000	352.133
690.0000	352.231
690.5000	352.255
691.0000	352.23
691.5000	352.287
692.0000	352.337
692.5000	352.394
693.0000	352.515
693.5000	352.631
694.0000	352.694
694.5000	352.716
695.0000	352.809
695.5000	352.843
696.0000	352.949
696.5000	352.993
697.0000	353.04
697.5000	353.056
698.0000	353.113
698.5000	353.238
699.0000	353.293
699.5000	353.375
700.0000	353.439
700.5000	353.486
701.0000	353.554
701.5000	353.595
702.0000	353.627
702.5000	353.694
703.0000	353.753
703.5000	353.831
704.0000	353.9
704.5000	353.97
705.0000	354.091
705.5000	354.192
706.0000	354.242
706.5000	354.211
707.0000	354.138
707.5000	354.146
708.0000	354.199
708.5000	354.317
709.0000	354.396
709.5000	354.486
710.0000	354.538
710.5000	354.652
711.0000	354.725
711.5000	354.71
712.0000	354.753
712.5000	354.752
713.0000	354.821
713.5000	354.97
714.0000	355.016
714.5000	355.119
715.0000	355.236
715.5000	355.274
716.0000	355.368
716.5000	355.421
717.0000	355.476
717.5000	355.513
718.0000	355.528
718.5000	355.552
719.0000	355.554
719.5000	355.653
720.0000	355.752
720.5000	355.842
721.0000	355.942
721.5000	355.95
722.0000	355.949
722.5000	355.994
723.0000	356.027
723.5000	356.167
724.0000	356.313
724.5000	356.385
725.0000	356.477
725.5000	356.484
726.0000	356.47
726.5000	356.508
727.0000	356.554
727.5000	356.651
728.0000	356.781
728.5000	356.853
729.0000	356.935
729.5000	356.943
730.0000	356.993
730.5000	357.019
731.0000	357.108
731.5000	357.168
732.0000	357.27
732.5000	357.385
733.0000	357.422
733.5000	357.497
734.0000	357.51
734.5000	357.504
735.0000	357.554
735.5000	357.644
736.0000	357.679
736.5000	357.768
737.0000	357.798
737.5000	357.848
738.0000	357.941
738.5000	357.98
739.0000	358.042
739.5000	358.121
740.0000	358.211
740.5000	358.227
741.0000	358.313
741.5000	358.37
742.0000	358.387
742.5000	358.497
743.0000	358.573
743.5000	358.626
744.0000	358.639
744.5000	358.703
745.0000	358.801
745.5000	358.893
746.0000	358.923
746.5000	358.998
747.0000	359.024
747.5000	359.051
748.0000	359.226
748.5000	359.296
749.0000	359.32
749.5000	359.326
750.0000	359.381
750.5000	359.481
751.0000	359.562
751.5000	359.73
752.0000	359.792
752.5000	359.831
753.0000	359.874
753.5000	359.849
754.0000	359.805
754.5000	359.92
755.0000	359.928
755.5000	360.049
756.0000	360.189
756.5000	360.149
757.0000	360.227
757.5000	360.244
758.0000	360.338
758.5000	360.411
759.0000	360.437
759.5000	360.547
760.0000	360.553
760.5000	360.618
761.0000	360.762
761.5000	360.788
762.0000	360.868
762.5000	360.913
763.0000	360.961
763.5000	361.065
764.0000	361.152
764.5000	361.216
765.0000	361.237
765.5000	361.288
766.0000	361.327
766.5000	361.378
767.0000	361.466
767.5000	361.493
768.0000	361.58
768.5000	361.747
769.0000	361.865
769.5000	361.932
770.0000	362.038
770.5000	362.023
771.0000	362.06
771.5000	362.121
772.0000	362.104
772.5000	362.173
773.0000	362.234
773.5000	362.299
774.0000	362.345
774.5000	362.442
775.0000	362.458
775.5000	362.489
776.0000	362.593
776.5000	362.655
777.0000	362.765
777.5000	362.828
778.0000	362.854
778.5000	362.885
779.0000	362.924
779.5000	363.021
780.0000	363.038
780.5000	363.07
781.0000	363.153
781.5000	363.169
782.0000	363.313
782.5000	363.396
783.0000	363.418
783.5000	363.505
784.0000	363.547
784.5000	363.559
785.0000	363.627
785.5000	363.658
786.0000	363.701
786.5000	363.799
787.0000	363.939
787.5000	364.029
788.0000	364.103
788.5000	364.106
789.0000	364.085
789.5000	364.153
790.0000	364.241
790.5000	364.343
791.0000	364.393
791.5000	364.482
792.0000	364.526
792.5000	364.629
793.0000	364.703
793.5000	364.732
794.0000	364.76
794.5000	364.803
795.0000	364.881
795.5000	364.958
796.0000	365.006
796.5000	365.073
797.0000	365.121
797.5000	365.145
798.0000	365.222
798.5000	365.289
799.0000	365.371
799.5000	365.432
800.0000	365.547
800.5000	365.644
801.0000	365.68
801.5000	365.768
802.0000	365.797
802.5000	365.802
803.0000	365.875
803.5000	365.869
804.0000	365.929
804.5000	366
805.0000	365.995
805.5000	366.113
806.0000	366.215
806.5000	366.207
807.0000	366.334
807.5000	366.453
808.0000	366.544
808.5000	366.675
809.0000	366.734
809.5000	366.736
810.0000	366.684
810.5000	366.763
811.0000	366.9
811.5000	366.942
812.0000	367.035
812.5000	367.117
813.0000	367.089
813.5000	367.174
814.0000	367.236
814.5000	367.221
815.0000	367.283
815.5000	367.349
816.0000	367.353
816.5000	367.473
817.0000	367.538
817.5000	367.554
818.0000	367.686
818.5000	367.715
819.0000	367.867
819.5000	367.964
820.0000	367.972
820.5000	368.077
821.0000	368.063
821.5000	368.105
822.0000	368.181
822.5000	368.243
823.0000	368.251
823.5000	368.335
824.0000	368.397
824.5000	368.481
825.0000	368.583
825.5000	368.664
826.0000	368.721
826.5000	368.729
827.0000	368.766
827.5000	368.797
828.0000	368.857
828.5000	368.885
829.0000	368.935
829.5000	369.028
830.0000	369.114
830.5000	369.281
831.0000	369.482
831.5000	369.525
832.0000	369.562
832.5000	369.585
833.0000	369.567
833.5000	369.61
834.0000	369.733
834.5000	369.767
835.0000	369.787
835.5000	369.943
836.0000	370.011
836.5000	370.093
837.0000	370.181
837.5000	370.211
838.0000	370.312
838.5000	370.382
839.0000	370.497
839.5000	370.519
840.0000	370.414
840.5000	370.548
841.0000	370.595
841.5000	370.627
842.0000	370.861
842.5000	370.833
843.0000	370.838
843.5000	370.997
844.0000	370.957
844.5000	371.089
845.0000	371.192
845.5000	371.235
846.0000	371.322
846.5000	371.345
847.0000	371.463
847.5000	371.527
848.0000	371.661
848.5000	371.729
849.0000	371.67
849.5000	371.737
850.0000	371.75
850.5000	371.809
851.0000	371.933
851.5000	372.008
852.0000	372.086
852.5000	372.166
853.0000	372.295
853.5000	372.329
854.0000	372.424
854.5000	372.5
855.0000	372.507
855.5000	372.557
856.0000	372.575
856.5000	372.623
857.0000	372.747
857.5000	372.877
858.0000	372.993
858.5000	373.09
859.0000	373.122
859.5000	373.123
860.0000	373.171
860.5000	373.219
861.0000	373.205
861.5000	373.349
862.0000	373.454
862.5000	373.523
863.0000	373.735
863.5000	373.798
864.0000	373.851
864.5000	373.896
865.0000	373.899
865.5000	373.955
866.0000	373.985
866.5000	374.092
867.0000	374.204
867.5000	374.251
868.0000	374.341
868.5000	374.39
869.0000	374.425
869.5000	374.561
870.0000	374.619
870.5000	374.777
871.0000	374.861
871.5000	374.862
872.0000	374.971
872.5000	374.944
873.0000	374.991
873.5000	375.075
874.0000	375.169
874.5000	375.228
875.0000	375.334
875.5000	375.457
876.0000	375.453
876.5000	375.536
877.0000	375.66
877.5000	375.619
878.0000	375.736
878.5000	375.825
879.0000	375.859
879.5000	375.954
880.0000	375.974
880.5000	376.034
881.0000	376.078
881.5000	376.072
882.0000	376.179
882.5000	376.199
883.0000	376.269
883.5000	376.477
884.0000	376.519
884.5000	376.613
885.0000	376.659
885.5000	376.675
886.0000	376.742
886.5000	376.828
887.0000	376.915
887.5000	376.963
888.0000	377.077
888.5000	377.195
889.0000	377.273
889.5000	377.364
890.0000	377.41
890.5000	377.44
891.0000	377.455
891.5000	377.535
892.0000	377.726
892.5000	377.739
893.0000	377.858
893.5000	377.885
894.0000	377.814
894.5000	377.879
895.0000	378.053
895.5000	378.187
896.0000	378.311
896.5000	378.412
897.0000	378.408
897.5000	378.412
898.0000	378.488
898.5000	378.534
899.0000	378.585
899.5000	378.657
900.0000	378.651
900.5000	378.743
901.0000	378.835
901.5000	379.001
902.0000	379.084
902.5000	379.131
903.0000	379.199
903.5000	379.243
904.0000	379.37
904.5000	379.496
905.0000	379.514
905.5000	379.534
906.0000	379.536
906.5000	379.586
907.0000	379.662
907.5000	379.75
908.0000	379.839
908.5000	379.908
909.0000	380.012
909.5000	380.075
910.0000	380.137
910.5000	380.193
911.0000	380.205
911.5000	380.303
912.0000	380.357
912.5000	380.408
913.0000	380.459
913.5000	380.49
914.0000	380.542
914.5000	380.602
915.0000	380.696
915.5000	380.705
916.0000	380.777
916.5000	380.912
917.0000	380.918
917.5000	381.02
918.0000	381.058
918.5000	381.028
919.0000	381.139
919.5000	381.21
920.0000	381.316
920.5000	381.407
921.0000	381.479
921.5000	381.542
922.0000	381.56
922.5000	381.68
923.0000	381.766
923.5000	381.82
924.0000	381.937
924.5000	381.957
925.0000	382.02
925.5000	382.062
926.0000	382.167
926.5000	382.174
927.0000	382.268
927.5000	382.344
928.0000	382.312
928.5000	382.375
929.0000	382.412
929.5000	382.524
930.0000	382.593
930.5000	382.753
931.0000	382.741
931.5000	382.739
932.0000	382.784
932.5000	382.806
933.0000	382.919
933.5000	383.007
934.0000	383.164
934.5000	383.204
935.0000	383.257
935.5000	383.317
936.0000	383.312
936.5000	383.473
937.0000	383.524
937.5000	383.596
938.0000	383.643
938.5000	383.608
939.0000	383.67
939.5000	383.711
940.0000	383.78
940.5000	383.885
941.0000	383.924
941.5000	383.971
942.0000	384.038
942.5000	384.088
943.0000	384.172
943.5000	384.197
944.0000	384.187
944.5000	384.237
945.0000	384.301
945.5000	384.451
946.0000	384.531
946.5000	384.558
947.0000	384.58
947.5000	384.543
948.0000	384.716
948.5000	384.77
949.0000	384.769
949.5000	384.874
950.0000	384.896
950.5000	384.941
951.0000	385.068
951.5000	385.139
952.0000	385.171
952.5000	385.304
953.0000	385.376
953.5000	385.421
954.0000	385.504
954.5000	385.493
955.0000	385.55
955.5000	385.691
956.0000	385.763
956.5000	385.861
957.0000	385.897
957.5000	385.907
958.0000	385.901
958.5000	385.916
959.0000	386.015
959.5000	386.029
960.0000	386.087
960.5000	386.169
961.0000	386.177
961.5000	386.241
962.0000	386.314
962.5000	386.384
963.0000	386.456
963.5000	386.427
964.0000	386.486
964.5000	386.534
965.0000	386.614
965.5000	386.809
966.0000	386.865
966.5000	386.953
967.0000	386.965
967.5000	386.983
968.0000	387.048
968.5000	387.14
969.0000	387.192
969.5000	387.236
970.0000	387.223
970.5000	387.209
971.0000	387.251
971.5000	387.33
972.0000	387.421
972.5000	387.391
973.0000	387.453
973.5000	387.487
974.0000	387.525
974.5000	387.652
975.0000	387.744
975.5000	387.837
976.0000	387.92
976.5000	387.958
977.0000	388.064
977.5000	388.025
978.0000	388.105
978.5000	388.18
979.0000	388.144
979.5000	388.295
980.0000	388.33
980.5000	388.349
981.0000	388.452
981.5000	388.487
982.0000	388.555
982.5000	388.607
983.0000	388.696
983.5000	388.691
984.0000	388.755
984.5000	388.852
985.0000	388.835
985.5000	388.947
986.0000	388.96
986.5000	388.928
987.0000	389.015
987.5000	389.068
988.0000	389.123
988.5000	389.228
989.0000	389.202
989.5000	389.218
990.0000	389.232
990.5000	389.25
991.0000	389.384
991.5000	389.522
992.0000	389.684
992.5000	389.769
993.0000	389.742
993.5000	389.706
994.0000	389.624
994.5000	389.705
995.0000	389.785
995.5000	389.838
996.0000	389.968
996.5000	390.035
997.0000	390.098
997.5000	390.145
998.0000	390.171
998.5000	390.144
999.0000	390.239
999.5000	390.263
1000.0000	390.247
1000.5000	390.297
1001.0000	390.257
1001.5000	390.32
1002.0000	390.419
1002.5000	390.467
1003.0000	390.514
1003.5000	390.575
1004.0000	390.602
1004.5000	390.692
1005.0000	390.708
1005.5000	390.748
1006.0000	390.833
1006.5000	390.916
1007.0000	391.044
1007.5000	391.098
1008.0000	391.112
1008.5000	391.082
1009.0000	391.112
1009.5000	391.152
1010.0000	391.232
1010.5000	391.263
1011.0000	391.274
1011.5000	391.333
1012.0000	391.306
1012.5000	391.346
1013.0000	391.487
1013.5000	391.462
1014.0000	391.478
1014.5000	391.608
1015.0000	391.582
1015.5000	391.651
1016.0000	391.742
1016.5000	391.723
1017.0000	391.74
1017.5000	391.745
1018.0000	391.842
1018.5000	391.856
1019.0000	391.892
1019.5000	392.019
1020.0000	392.102
1020.5000	392.111
1021.0000	392.211
1021.5000	392.244
1022.0000	392.219
1022.5000	392.393
1023.0000	392.383
1023.5000	392.392
1024.0000	392.449
1024.5000	392.445
1025.0000	392.485
1025.5000	392.513
1026.0000	392.608
1026.5000	392.574
1027.0000	392.653
1027.5000	392.724
1028.0000	392.733
1028.5000	392.866
1029.0000	392.909
1029.5000	392.979
1030.0000	393.002
1030.5000	392.991
1031.0000	393.058
1031.5000	393.102
1032.0000	393.129
1032.5000	393.212
1033.0000	393.246
1033.5000	393.213
1034.0000	393.256
1034.5000	393.299
1035.0000	393.336
1035.5000	393.387
1036.0000	393.416
1036.5000	393.527
1037.0000	393.566
1037.5000	393.686
1038.0000	393.777
1038.5000	393.794
1039.0000	393.807
1039.5000	393.827
1040.0000	393.827
1040.5000	393.823
1041.0000	393.813
1041.5000	393.89
1042.0000	393.91
1042.5000	393.953
1043.0000	394.083
1043.5000	394.08
1044.0000	394.139
1044.5000	394.142
1045.0000	394.116
1045.5000	394.12
1046.0000	394.219
1046.5000	394.293
1047.0000	394.353
1047.5000	394.442
1048.0000	394.446
1048.5000	394.422
1049.0000	394.454
1049.5000	394.464
1050.0000	394.454
1050.5000	394.52
1051.0000	394.615
1051.5000	394.614
1052.0000	394.7
1052.5000	394.731
1053.0000	394.727
1053.5000	394.797
1054.0000	394.795
1054.5000	394.833
1055.0000	394.93
1055.5000	394.904
1056.0000	395.041
1056.5000	395.143
1057.0000	395.146
1057.5000	395.237
1058.0000	395.205
1058.5000	395.2
1059.0000	395.181
1059.5000	395.2
1060.0000	395.21
1060.5000	395.23
1061.0000	395.373
1061.5000	395.409
1062.0000	395.445
1062.5000	395.506
1063.0000	395.407
1063.5000	395.404
1064.0000	395.412
1064.5000	395.382
1065.0000	395.425
1065.5000	395.449
1066.0000	395.475
1066.5000	395.592
1067.0000	395.688
1067.5000	395.798
1068.0000	395.839
1068.5000	395.816
1069.0000	395.835
1069.5000	395.82
1070.0000	395.876
1070.5000	395.871
1071.0000	395.863
1071.5000	395.955
1072.0000	396.022
1072.5000	396.144
1073.0000	396.222
1073.5000	396.224
1074.0000	396.173
1074.5000	396.177
1075.0000	396.209
1075.5000	396.246
1076.0000	396.382
1076.5000	396.466
1077.0000	396.472
1077.5000	396.476
1078.0000	396.471
1078.5000	396.417
1079.0000	396.495
1079.5000	396.516
1080.0000	396.61
1080.5000	396.71
1081.0000	396.666
1081.5000	396.713
1082.0000	396.701
1082.5000	396.714
1083.0000	396.825
1083.5000	396.865
1084.0000	396.89
1084.5000	396.982
1085.0000	396.941
1085.5000	397.006
1086.0000	397.084
1086.5000	397.085
1087.0000	397.198
1087.5000	397.271
1088.0000	397.205
1088.5000	397.203
1089.0000	397.222
1089.5000	397.212
1090.0000	397.384
1090.5000	397.437
1091.0000	397.517
1091.5000	397.554
1092.0000	397.517
1092.5000	397.501
1093.0000	397.466
1093.5000	397.495
1094.0000	397.517
1094.5000	397.612
1095.0000	397.708
1095.5000	397.752
1096.0000	397.785
1096.5000	397.787
1097.0000	397.805
1097.5000	397.867
1098.0000	397.918
1098.5000	397.92
1099.0000	397.908
1099.5000	397.885
1100.0000	397.902
1100.5000	397.916
1101.0000	397.937
1101.5000	398.015
1102.0000	398.014
1102.5000	398.07
1103.0000	398.152
1103.5000	398.113
1104.0000	398.183
1104.5000	398.302
1105.0000	398.294
1105.5000	398.36
1106.0000	398.382
1106.5000	398.363
1107.0000	398.465
1107.5000	398.441
1108.0000	398.437
1108.5000	398.443
1109.0000	398.475
1109.5000	398.639
1110.0000	398.687
1110.5000	398.767
1111.0000	398.72
1111.5000	398.689
1112.0000	398.774
1112.5000	398.737
1113.0000	398.761
1113.5000	398.769
1114.0000	398.763
1114.5000	398.835
1115.0000	398.833
1115.5000	398.864
1116.0000	398.948
1116.5000	398.952
1117.0000	399.084
1117.5000	399.089
1118.0000	399.096
1118.5000	399.124
1119.0000	399.093
1119.5000	399.127
1120.0000	399.111
1120.5000	399.124
1121.0000	399.177
1121.5000	399.215
1122.0000	399.229
1122.5000	399.299
1123.0000	399.331
1123.5000	399.308
1124.0000	399.334
1124.5000	399.336
1125.0000	399.385
1125.5000	399.47
1126.0000	399.514
1126.5000	399.537
1127.0000	399.549
1127.5000	399.561
1128.0000	399.66
1128.5000	399.748
1129.0000	399.783
1129.5000	399.895
1130.0000	399.925
1130.5000	399.944
1131.0000	399.987
1131.5000	399.945
1132.0000	400.001
1132.5000	400.104
1133.0000	400.062
1133.5000	400.176
1134.0000	400.152
1134.5000	400.112
1135.0000	400.194
1135.5000	400.187
1136.0000	400.18
1136.5000	400.235
1137.0000	400.267
1137.5000	400.29
1138.0000	400.278
1138.5000	400.236
1139.0000	400.263
1139.5000	400.263
1140.0000	400.333
1140.5000	400.427
1141.0000	400.459
1141.5000	400.461
1142.0000	400.498
1142.5000	400.507
1143.0000	400.535
1143.5000	400.611
1144.0000	400.699
1144.5000	400.715
1145.0000	400.736
1145.5000	400.728
1146.0000	400.711
1146.5000	400.681
1147.0000	400.735
1147.5000	400.824
1148.0000	400.868
1148.5000	400.956
1149.0000	400.917
1149.5000	400.888
1150.0000	400.895
1150.5000	400.939
1151.0000	400.971
1151.5000	400.976
1152.0000	401.019
1152.5000	401.041
1153.0000	401.062
1153.5000	401.151
1154.0000	401.115
1154.5000	401.102
1155.0000	401.178
1155.5000	401.203
1156.0000	401.293
1156.5000	401.327
1157.0000	401.358
1157.5000	401.401
1158.0000	401.356
1158.5000	401.309
1159.0000	401.33
1159.5000	401.415
1160.0000	401.504
1160.5000	401.579
1161.0000	401.531
1161.5000	401.424
1162.0000	401.436
1162.5000	401.438
1163.0000	401.511
1163.5000	401.569
1164.0000	401.61
1164.5000	401.7
1165.0000	401.7
1165.5000	401.708
1166.0000	401.721
1166.5000	401.773
1167.0000	401.841
1167.5000	401.864
1168.0000	401.911
1168.5000	401.89
1169.0000	401.992
1169.5000	402.053
1170.0000	402.07
1170.5000	402.148
1171.0000	402.081
1171.5000	402.143
1172.0000	402.223
1172.5000	402.129
1173.0000	402.148
1173.5000	402.135
1174.0000	402.193
1174.5000	402.394
1175.0000	402.473
1175.5000	402.508
1176.0000	402.398
1176.5000	402.383
1177.0000	402.44
1177.5000	402.499
1178.0000	402.547
1178.5000	402.516
1179.0000	402.477
1179.5000	402.495
1180.0000	402.539
1180.5000	402.572
1181.0000	402.535
1181.5000	402.56
1182.0000	402.545
1182.5000	402.606
1183.0000	402.773
1183.5000	402.823
1184.0000	402.869
1184.5000	402.874
1185.0000	402.89
1185.5000	402.885
1186.0000	402.89
1186.5000	402.919
1187.0000	402.906
1187.5000	402.858
1188.0000	402.881
1188.5000	402.918
1189.0000	402.952
1189.5000	403.029
1190.0000	403.164
1190.5000	403.191
1191.0000	403.266
1191.5000	403.301
1192.0000	403.295
1192.5000	403.319
1193.0000	403.261
1193.5000	403.259
1194.0000	403.267
1194.5000	403.306
1195.0000	403.332
1195.5000	403.402
1196.0000	403.443
1196.5000	403.417
1197.0000	403.45
1197.5000	403.516
1198.0000	403.554
1198.5000	403.61
1199.0000	403.613
1199.5000	403.589
1200.0000	403.618
1200.5000	403.642
1201.0000	403.636
1201.5000	403.622
1202.0000	403.625
1202.5000	403.664
1203.0000	403.72
1203.5000	403.797
1204.0000	403.802
1204.5000	403.783
1205.0000	403.873
1205.5000	403.868
1206.0000	403.933
1206.5000	403.958
1207.0000	403.978
1207.5000	404.002
1208.0000	403.984
1208.5000	403.985
1209.0000	403.969
1209.5000	403.963
1210.0000	403.999
1210.5000	404.079
1211.0000	404.126
1211.5000	404.212
1212.0000	404.216
1212.5000	404.313
1213.0000	404.347
1213.5000	404.331
1214.0000	404.391
1214.5000	404.37
1215.0000	404.373
1215.5000	404.435
1216.0000	404.418
1216.5000	404.385
1217.0000	404.405
1217.5000	404.449
1218.0000	404.489
1218.5000	404.538
1219.0000	404.614
1219.5000	404.577
1220.0000	404.577
1220.5000	404.619
1221.0000	404.631
1221.5000	404.72
1222.0000	404.806
1222.5000	404.839
1223.0000	404.837
1223.5000	404.825
1224.0000	404.786
1224.5000	404.8
1225.0000	404.805
1225.5000	404.819
1226.0000	404.95
1226.5000	404.984
1227.0000	405.051
1227.5000	405.097
1228.0000	405.048
1228.5000	405.016
1229.0000	405.086
1229.5000	405.106
1230.0000	405.146
1230.5000	405.236
1231.0000	405.192
1231.5000	405.242
1232.0000	405.232
1232.5000	405.237
1233.0000	405.246
1233.5000	405.248
1234.0000	405.358
1234.5000	405.387
1235.0000	405.433
1235.5000	405.454
1236.0000	405.364
1236.5000	405.312
1237.0000	405.393
1237.5000	405.428
1238.0000	405.497
1238.5000	405.604
1239.0000	405.58
1239.5000	405.537
1240.0000	405.595
1240.5000	405.539
1241.0000	405.579
1241.5000	405.652
1242.0000	405.687
1242.5000	405.806
1243.0000	405.8
1243.5000	405.884
1244.0000	405.905
1244.5000	405.866
1245.0000	405.843
1245.5000	405.813
1246.0000	405.775
1246.5000	405.885
1247.0000	405.944
1247.5000	405.878
1248.0000	405.914
1248.5000	405.867
1249.0000	405.886
1249.5000	405.951
1250.0000	405.98
1250.5000	406.03
1251.0000	406.05
1251.5000	406.109
1252.0000	406.182
1252.5000	406.226
1253.0000	406.222
1253.5000	406.182
1254.0000	406.204
1254.5000	406.254
1255.0000	406.288
1255.5000	406.402
1256.0000	406.384
1256.5000	406.404
1257.0000	406.43
1257.5000	406.376
1258.0000	406.347
1258.5000	406.288
1259.0000	406.309
1259.5000	406.378
1260.0000	406.408
1260.5000	406.353
1261.0000	406.437
1261.5000	406.48
1262.0000	406.54
1262.5000	406.721
1263.0000	406.7
1263.5000	406.713
1264.0000	406.71
1264.5000	406.654
1265.0000	406.659
1265.5000	406.657
1266.0000	406.723
1266.5000	406.75
1267.0000	406.776
1267.5000	406.941
1268.0000	406.926
1268.5000	406.896
1269.0000	406.96
1269.5000	406.881
1270.0000	406.926
1270.5000	407.061
1271.0000	407.076
1271.5000	407.159
1272.0000	407.137
1272.5000	407.115
1273.0000	407.13
1273.5000	407.077
1274.0000	407.07
1274.5000	407.118
1275.0000	407.216
1275.5000	407.207
1276.0000	407.316
1276.5000	407.351
1277.0000	407.301
1277.5000	407.348
1278.0000	407.355
1278.5000	407.243
1279.0000	407.338
1279.5000	407.335
1280.0000	407.298
1280.5000	407.384
1281.0000	407.401
1281.5000	407.458
1282.0000	407.506
1282.5000	407.521
1283.0000	407.477
1283.5000	407.485
1284.0000	407.531
1284.5000	407.522
1285.0000	407.497
1285.5000	407.569
1286.0000	407.627
1286.5000	407.726
1287.0000	407.796
1287.5000	407.776
1288.0000	407.801
1288.5000	407.785
1289.0000	407.837
1289.5000	407.865
1290.0000	407.779
1290.5000	407.792
1291.0000	407.843
1291.5000	407.864
1292.0000	407.947
1292.5000	407.982
1293.0000	407.926
1293.5000	407.98
1294.0000	408.027
1294.5000	408.096
1295.0000	408.156
1295.5000	408.151
1296.0000	408.168
1296.5000	408.112
1297.0000	408.132
1297.5000	408.228
1298.0000	408.166
1298.5000	408.327
1299.0000	408.335
1299.5000	408.277
1300.0000	408.377
1300.5000	408.287
1301.0000	408.325
1301.5000	408.352
1302.0000	408.4
1302.5000	408.441
1303.0000	408.42
1303.5000	408.402
1304.0000	408.382
1304.5000	408.334
1305.0000	408.38
1305.5000	408.406
1306.0000	408.486
1306.5000	408.581
1307.0000	408.651
1307.5000	408.751
1308.0000	408.691
1308.5000	408.789
1309.0000	408.806
1309.5000	408.706
1310.0000	408.785
1310.5000	408.736
1311.0000	408.693
1311.5000	408.786
1312.0000	408.813
1312.5000	408.896
1313.0000	408.925
1313.5000	408.973
1314.0000	409.004
1314.5000	408.975
1315.0000	408.975
1315.5000	408.951
1316.0000	408.958
1316.5000	408.986
1317.0000	408.991
1317.5000	409.089
1318.0000	409.081
1318.5000	409.144
1319.0000	409.308
1319.5000	409.29
1320.0000	409.342
1320.5000	409.281
1321.0000	409.218
1321.5000	409.264
1322.0000	409.285
1322.5000	409.376
1323.0000	409.368
1323.5000	409.316
1324.0000	409.427
1324.5000	409.452
1325.0000	409.539
1325.5000	409.635
1326.0000	409.581
1326.5000	409.589
1327.0000	409.618
1327.5000	409.664
1328.0000	409.7
1328.5000	409.731
1329.0000	409.741
1329.5000	409.718
1330.0000	409.799
1330.5000	409.794
1331.0000	409.794
1331.5000	409.877
1332.0000	409.847
1332.5000	409.832
1333.0000	409.889
1333.5000	409.842
1334.0000	409.934
1334.5000	410.019
1335.0000	410.026
1335.5000	410.128
1336.0000	410.096
1336.5000	410.136
1337.0000	410.175
1337.5000	410.137
1338.0000	410.222
1338.5000	410.225
1339.0000	410.295
1339.5000	410.351
1340.0000	410.37
1340.5000	410.391
1341.0000	410.366
1341.5000	410.351
1342.0000	410.292
1342.5000	410.315
1343.0000	410.318
1343.5000	410.366
1344.0000	410.364
1344.5000	410.363
1345.0000	410.443
1345.5000	410.4
1346.0000	410.43
1346.5000	410.524
1347.0000	410.486
1347.5000	410.58
1348.0000	410.677
1348.5000	410.694
1349.0000	410.749
1349.5000	410.787
1350.0000	410.774
1350.5000	410.732
1351.0000	410.805
1351.5000	410.833
1352.0000	410.812
1352.5000	410.844
1353.0000	410.786
1353.5000	410.766
1354.0000	410.813
1354.5000	410.876
1355.0000	410.883
1355.5000	410.895
1356.0000	410.974
1356.5000	410.995
1357.0000	411.049
1357.5000	411.135
1358.0000	411.092
1358.5000	411.09
1359.0000	411.178
1359.5000	411.182
1360.0000	411.245
1360.5000	411.284
1361.0000	411.236
1361.5000	411.213
1362.0000	411.232
1362.5000	411.265
1363.0000	411.279
1363.5000	411.365
1364.0000	411.403
1364.5000	411.415
1365.0000	411.448
1365.5000	411.448
1366.0000	411.411
1366.5000	411.447
1367.0000	411.479
1367.5000	411.582
1368.0000	411.709
1368.5000	411.662
1369.0000	411.76
1369.5000	411.697
1370.0000	411.641
1370.5000	411.761
1371.0000	411.79
1371.5000	411.748
1372.0000	411.792
1372.5000	411.744
1373.0000	411.722
1373.5000	411.814
1374.0000	411.835
1374.5000	411.928
1375.0000	411.965
1375.5000	411.98
1376.0000	412.039
1376.5000	412.099
1377.0000	412.129
1377.5000	412.107
1378.0000	412.152
1378.5000	412.05
1379.0000	412.001
1379.5000	412.133
1380.0000	412.078
1380.5000	412.12
1381.0000	412.222
1381.5000	412.156
1382.0000	412.244
1382.5000	412.349
1383.0000	412.299
1383.5000	412.362
1384.0000	412.358
1384.5000	412.303
1385.0000	412.375
1385.5000	412.371
1386.0000	412.377
1386.5000	412.421
1387.0000	412.466
1387.5000	412.561
1388.0000	412.606
1388.5000	412.604
1389.0000	412.567
1389.5000	412.587
1390.0000	412.53
1390.5000	412.585
1391.0000	412.598
1391.5000	412.563
1392.0000	412.639
1392.5000	412.695
1393.0000	412.823
1393.5000	412.935
1394.0000	413.048
1394.5000	413.068
1395.0000	413.001
1395.5000	413.008
1396.0000	412.869
1396.5000	412.837
1397.0000	412.909
1397.5000	412.907
1398.0000	413.02
1398.5000	413.098
1399.0000	413.099
1399.5000	413.099
1400.0000	413.082
1400.5000	413.087
1401.0000	413.071
1401.5000	413.102
1402.0000	413.169
1402.5000	413.169
1403.0000	413.225
1403.5000	413.258
1404.0000	413.306
1404.5000	413.297
1405.0000	413.413
1405.5000	413.439
1406.0000	413.391
1406.5000	413.454
1407.0000	413.396
1407.5000	413.377
1408.0000	413.403
1408.5000	413.438
1409.0000	413.399
1409.5000	413.373
1410.0000	413.389
1410.5000	413.439
1411.0000	413.493
1411.5000	413.57
1412.0000	413.658
1412.5000	413.645
1413.0000	413.716
1413.5000	413.758
1414.0000	413.76
1414.5000	413.796
1415.0000	413.793
1415.5000	413.88
1416.0000	413.941
1416.5000	413.895
1417.0000	413.901
1417.5000	413.907
1418.0000	413.87
1418.5000	413.959
1419.0000	413.988
1419.5000	413.979
1420.0000	413.963
1420.5000	414.017
1421.0000	414.104
1421.5000	414.068
1422.0000	414.143
1422.5000	414.149
1423.0000	414.172
1423.5000	414.263
1424.0000	414.254
1424.5000	414.253
1425.0000	414.179
1425.5000	414.158
1426.0000	414.296
1426.5000	414.34
1427.0000	414.476
1427.5000	414.477
1428.0000	414.468
1428.5000	414.454
1429.0000	414.436
1429.5000	414.508
1430.0000	414.514
1430.5000	414.585
1431.0000	414.633
1431.5000	414.704
1432.0000	414.683
1432.5000	414.727
1433.0000	414.75
1433.5000	414.668
1434.0000	414.687
1434.5000	414.726
1435.0000	414.665
1435.5000	414.776
1436.0000	414.851
1436.5000	414.779
1437.0000	414.81
1437.5000	414.81
1438.0000	414.863
1438.5000	414.832
1439.0000	414.906
1439.5000	414.912
1440.0000	414.895
1440.5000	414.986
1441.0000	415.014
1441.5000	415.044
1442.0000	415.038
1442.5000	415.076
1443.0000	415.123
1443.5000	415.15
1444.0000	415.184
1444.5000	415.172
1445.0000	415.175
1445.5000	415.241
1446.0000	415.286
1446.5000	415.369
1447.0000	415.378
1447.5000	415.323
1448.0000	415.29
1448.5000	415.314
1449.0000	415.274
1449.5000	415.346
1450.0000	415.428
1450.5000	415.471
1451.0000	415.602
1451.5000	415.6
1452.0000	415.612
1452.5000	415.526
1453.0000	415.486
1453.5000	415.533
1454.0000	415.558
1454.5000	415.611
1455.0000	415.665
1455.5000	415.677
1456.0000	415.64
1456.5000	415.659
1457.0000	415.685
1457.5000	415.692
1458.0000	415.783
1458.5000	415.858
1459.0000	415.832
1459.5000	415.873
1460.0000	415.853
1460.5000	415.806
1461.0000	415.895
1461.5000	415.899
1462.0000	415.966
1462.5000	416.036
1463.0000	416.003
1463.5000	415.991
1464.0000	415.966
1464.5000	416.046
1465.0000	416.097
1465.5000	416.102
1466.0000	416.141
1466.5000	416.074
1467.0000	415.997
1467.5000	416.113
1468.0000	416.164
1468.5000	416.25
1469.0000	416.383
1469.5000	416.379
1470.0000	416.368
1470.5000	416.364
1471.0000	416.341
1471.5000	416.404
1472.0000	416.391
1472.5000	416.428
1473.0000	416.498
1473.5000	416.521
1474.0000	416.617
1474.5000	416.583
1475.0000	416.574
1475.5000	416.57
1476.0000	416.595
1476.5000	416.602
1477.0000	416.645
1477.5000	416.696
1478.0000	416.635
1478.5000	416.734
1479.0000	416.745
1479.5000	416.681
1480.0000	416.817
1480.5000	416.845
1481.0000	416.808
1481.5000	416.863
1482.0000	416.857
1482.5000	416.906
1483.0000	416.948
1483.5000	416.936
1484.0000	416.861
1484.5000	416.873
1485.0000	416.959
1485.5000	416.991
1486.0000	417.057
1486.5000	417.067
1487.0000	417.017
1487.5000	417.007
1488.0000	417.028
1488.5000	417.063
1489.0000	417.228
1489.5000	417.329
1490.0000	417.343
1490.5000	417.35
1491.0000	417.277
1491.5000	417.23
1492.0000	417.208
1492.5000	417.179
1493.0000	417.263
1493.5000	417.289
1494.0000	417.37
1494.5000	417.408
1495.0000	417.356
1495.5000	417.41
1496.0000	417.509
1496.5000	417.553
1497.0000	417.497
1497.5000	417.469
1498.0000	417.459
1498.5000	417.435
1499.0000	417.534
1499.5000	417.621
1500.0000	417.595
1500.5000	417.751
1501.0000	417.758
1501.5000	417.7
1502.0000	417.725
1502.5000	417.615
1503.0000	417.556
1503.5000	417.566
1504.0000	417.646
1504.5000	417.694
1505.0000	417.768
1505.5000	417.745
1506.0000	417.687
1506.5000	417.709
1507.0000	417.743
1507.5000	417.836
1508.0000	417.899
1508.5000	417.964
1509.0000	418.08
1509.5000	418.163
1510.0000	418.126
1510.5000	418.079
1511.0000	418.031
1511.5000	418.067
1512.0000	418.111
1512.5000	418.048
1513.0000	418.022
1513.5000	418.056
1514.0000	418.083
1514.5000	418.236
1515.0000	418.291
1515.5000	418.23
1516.0000	418.221
1516.5000	418.19
1517.0000	418.185
1517.5000	418.228
1518.0000	418.321
1518.5000	418.406
1519.0000	418.454
1519.5000	418.455
1520.0000	418.411
1520.5000	418.449
1521.0000	418.485
1521.5000	418.416
1522.0000	418.45
1522.5000	418.345
1523.0000	418.29
1523.5000	418.424
1524.0000	418.441
1524.5000	418.538
1525.0000	418.663
1525.5000	418.684
1526.0000	418.701
1526.5000	418.701
1527.0000	418.686
1527.5000	418.668
1528.0000	418.639
1528.5000	418.653
1529.0000	418.69
1529.5000	418.704
1530.0000	418.727
1530.5000	418.656
1531.0000	418.595
1531.5000	418.615
1532.0000	418.679
1532.5000	418.697
1533.0000	418.731
1533.5000	418.751
1534.0000	418.753
1534.5000	418.847
1535.0000	418.811
1535.5000	418.87
1536.0000	418.927
1536.5000	418.99
1537.0000	419.085
1537.5000	419.096
1538.0000	419.091
1538.5000	419.081
1539.0000	419.105
1539.5000	419.01
1540.0000	418.981
1540.5000	418.989
1541.0000	418.891
1541.5000	419.023
1542.0000	419.111
1542.5000	419.142
1543.0000	419.242
1543.5000	419.312
1544.0000	419.276
1544.5000	419.219
1545.0000	419.211
1545.5000	419.244
1546.0000	419.232
1546.5000	419.325
1547.0000	419.35
1547.5000	419.294
1548.0000	419.42
1548.5000	419.476
1549.0000	419.501
1549.5000	419.507
1550.0000	419.453
1550.5000	419.358
1551.0000	419.435
1551.5000	419.467
1552.0000	419.49
1552.5000	419.578
1553.0000	419.631
1553.5000	419.632
1554.0000	419.726
1554.5000	419.787
1555.0000	419.706
1555.5000	419.816
1556.0000	419.728
1556.5000	419.652
1557.0000	419.779
1557.5000	419.74
1558.0000	419.819
1558.5000	419.943
1559.0000	419.867
1559.5000	419.875
1560.0000	419.849
1560.5000	419.768
1561.0000	419.84
1561.5000	419.912
1562.0000	419.885
1562.5000	419.982
1563.0000	419.952
1563.5000	419.882
1564.0000	419.929
1564.5000	419.913
1565.0000	419.98
1565.5000	420.009
1566.0000	420.098
1566.5000	420.146
1567.0000	420.149
1567.5000	420.192
1568.0000	420.227
1568.5000	420.158
1569.0000	420.133
1569.5000	420.169
1570.0000	420.123
1570.5000	420.278
1571.0000	420.354
1571.5000	420.368
1572.0000	420.397
1572.5000	420.339
1573.0000	420.368
1573.5000	420.373
1574.0000	420.42
1574.5000	420.444
1575.0000	420.428
1575.5000	420.423
1576.0000	420.48
1576.5000	420.486
1577.0000	420.574
1577.5000	420.608
1578.0000	420.642
1578.5000	420.676
1579.0000	420.592
1579.5000	420.569
1580.0000	420.571
1580.5000	420.558
1581.0000	420.636
1581.5000	420.721
1582.0000	420.698
1582.5000	420.715
1583.0000	420.744
1583.5000	420.713
1584.0000	420.698
1584.5000	420.74
1585.0000	420.772
1585.5000	420.795
1586.0000	420.899
1586.5000	421.019
1587.0000	420.937
1587.5000	420.985
1588.0000	420.932
1588.5000	420.818
1589.0000	420.97
1589.5000	421.055
1590.0000	421.086
1590.5000	421.153
1591.0000	421.199
1591.5000	421.17
1592.0000	421.204
1592.5000	421.198
1593.0000	421.128
1593.5000	421.134
1594.0000	421.205
1594.5000	421.278
1595.0000	421.312
1595.5000	421.296
1596.0000	421.332
1596.5000	421.337
1597.0000	421.335
1597.5000	421.389
1598.0000	421.367
1598.5000	421.34
1599.0000	421.334
1599.5000	421.365
1600.0000	421.365
1600.5000	421.439
1601.0000	421.495
1601.5000	421.501
1602.0000	421.468
1602.5000	421.536
1603.0000	421.58
1603.5000	421.665
1604.0000	421.773
1604.5000	421.672
1605.0000	421.613
1605.5000	421.539
1606.0000	421.579
1606.5000	421.713
1607.0000	421.859
1607.5000	421.958
1608.0000	421.976
1608.5000	421.978
1609.0000	421.836
1609.5000	421.875
1610.0000	421.837
1610.5000	421.846
1611.0000	421.98
1611.5000	421.925
1612.0000	422.058
1612.5000	422.054
1613.0000	422.133
1613.5000	422.138
1614.0000	422.078
1614.5000	422.197
1615.0000	422.122
1615.5000	422.243
1616.0000	422.32
1616.5000	422.265
1617.0000	422.38
1617.5000	422.385
1618.0000	422.375
1618.5000	422.385
1619.0000	422.419
1619.5000	422.454
1620.0000	422.501
1620.5000	422.546
1621.0000	422.539
1621.5000	422.571
1622.0000	422.558
1622.5000	422.493
1623.0000	422.499
1623.5000	422.503
1624.0000	422.47
1624.5000	422.57
1625.0000	422.61
1625.5000	422.592
1626.0000	422.655
1626.5000	422.689
1627.0000	422.674
1627.5000	422.735
1628.0000	422.786
1628.5000	422.835
1629.0000	422.933
1629.5000	422.94
1630.0000	422.982
1630.5000	422.977
1631.0000	422.968
1631.5000	423.093
1632.0000	423.138
1632.5000	423.238
1633.0000	423.238
1633.5000	423.174
1634.0000	423.132
1634.5000	423.142
1635.0000	423.173
1635.5000	423.228
1636.0000	423.298
1636.5000	423.362
1637.0000	423.417
1637.5000	423.431
1638.0000	423.464
1638.5000	423.352
1639.0000	423.359
1639.5000	423.346
1640.0000	423.335
1640.5000	423.404
1641.0000	423.398
1641.5000	423.424
1642.0000	423.443
1642.5000	423.485
1643.0000	423.55
1643.5000	423.623
1644.0000	423.638
1644.5000	423.697
1645.0000	423.648
1645.5000	423.653
1646.0000	423.714
1646.5000	423.635
1647.0000	423.702
1647.5000	423.759
1648.0000	423.841
1648.5000	423.866
1649.0000	423.906
1649.5000	423.963
1650.0000	423.885
1650.5000	424.014
1651.0000	424.163
1651.5000	424.161
1652.0000	424.245
1652.5000	424.25
1653.0000	424.148
1653.5000	424.202
1654.0000	424.24
1654.5000	424.189
1655.0000	424.291
1655.5000	424.265
1656.0000	424.251
1656.5000	424.365
1657.0000	424.386
1657.5000	424.438
1658.0000	424.553
1658.5000	424.563
1659.0000	424.56
1659.5000	424.541
1660.0000	424.642
1660.5000	424.623
1661.0000	424.726
1661.5000	424.851
1662.0000	424.752
1662.5000	424.816
1663.0000	424.779
1663.5000	424.792
1664.0000	424.851
1664.5000	424.955
1665.0000	425.06
1665.5000	425.08
1666.0000	425.15
1666.5000	425.168
1667.0000	425.098
1667.5000	425.071
1668.0000	425.025
1668.5000	425.074
1669.0000	425.185
1669.5000	425.28
1670.0000	425.361
1670.5000	425.448
1671.0000	425.481
1671.5000	425.529
1672.0000	425.565
1672.5000	425.44
1673.0000	425.388
1673.5000	425.504
1674.0000	425.545
1674.5000	425.66
1675.0000	425.769
1675.5000	425.735
1676.0000	425.739
1676.5000	425.813
1677.0000	425.889
1677.5000	425.852
1678.0000	425.979
1678.5000	426.007
1679.0000	426.067
1679.5000	426.159
1680.0000	426.138
1680.5000	426.183
1681.0000	426.163
1681.5000	426.254
1682.0000	426.296
1682.5000	426.295
1683.0000	426.258
1683.5000	426.244
1684.0000	426.273
1684.5000	426.346
1685.0000	426.443
1685.5000	426.429
1686.0000	426.504
1686.5000	426.438
1687.0000	426.484
1687.5000	426.627
1688.0000	426.583
1688.5000	426.743
1689.0000	426.762
1689.5000	426.696
1690.0000	426.852
1690.5000	426.843
1691.0000	426.835
1691.5000	426.923
1692.0000	426.816
1692.5000	426.831
1693.0000	426.917
1693.5000	426.841
1694.0000	426.901
1694.5000	426.866
1695.0000	426.853
1695.5000	426.985
1696.0000	427.035
1696.5000	427.121
1697.0000	427.241
1697.5000	427.235
1698.0000	427.35
1698.5000	427.436
1699.0000	427.439
1699.5000	427.458
1700.0000	427.487
1700.5000	427.545
1701.0000	427.561
1701.5000	427.633
1702.0000	427.705
1702.5000	427.703
1703.0000	427.735
1703.5000	427.804
1704.0000	427.784
1704.5000	427.762
1705.0000	427.781
1705.5000	427.877
1706.0000	427.904
1706.5000	428.056
1707.0000	428.16
1707.5000	428.129
1708.0000	428.156
1708.5000	428.196
1709.0000	428.189
1709.5000	428.224
1710.0000	428.186
1710.5000	428.221
1711.0000	428.252
1711.5000	428.27
1712.0000	428.388
1712.5000	428.34
1713.0000	428.31
1713.5000	428.355
1714.0000	428.406
1714.5000	428.475
1715.0000	428.628
1715.5000	428.651
1716.0000	428.632
1716.5000	428.692
1717.0000	428.757
1717.5000	428.807
1718.0000	428.944
1718.5000	429.003
1719.0000	429.018
1719.5000	429.045
1720.0000	429.003
1720.5000	428.963
1721.0000	428.974
1721.5000	429.031
1722.0000	429.065
1722.5000	429.176
1723.0000	429.181
1723.5000	429.182
1724.0000	429.216
1724.5000	429.18
1725.0000	429.228
1725.5000	429.208
1726.0000	429.255
1726.5000	429.348
1727.0000	429.287
1727.5000	429.395
1728.0000	429.454
1728.5000	429.479
1729.0000	429.68
1729.5000	429.708
1730.0000	429.67
1730.5000	429.664
1731.0000	429.599
1731.5000	429.635
1732.0000	429.697
1732.5000	429.747
1733.0000	429.839
1733.5000	429.906
1734.0000	429.925
1734.5000	429.943
1735.0000	429.957
1735.5000	429.885
1736.0000	429.909
1736.5000	429.846
1737.0000	429.926
1737.5000	430.02
1738.0000	430.082
1738.5000	430.237
1739.0000	430.211
1739.5000	430.279
1740.0000	430.293
1740.5000	430.319
1741.0000	430.302
1741.5000	430.325
1742.0000	430.378
1742.5000	430.422
1743.0000	430.484
1743.5000	430.499
1744.0000	430.523
1744.5000	430.561
1745.0000	430.631
1745.5000	430.66
1746.0000	430.675
1746.5000	430.723
1747.0000	430.696
1747.5000	430.695
1748.0000	430.767
1748.5000	430.657
1749.0000	430.738
1749.5000	430.822
1750.0000	430.778
1750.5000	430.79
1751.0000	430.757
1751.5000	430.738
1752.0000	430.815
1752.5000	430.905
1753.0000	430.895
1753.5000	430.938
1754.0000	430.98
1754.5000	431.06
1755.0000	431.121
1755.5000	431.161
1756.0000	431.242
1756.5000	431.278
1757.0000	431.393
1757.5000	431.408
1758.0000	431.396
1758.5000	431.356
1759.0000	431.39
1759.5000	431.454
1760.0000	431.466
1760.5000	431.532
1761.0000	431.527
1761.5000	431.488
1762.0000	431.42
1762.5000	431.432
1763.0000	431.482
1763.5000	431.485
1764.0000	431.628
1764.5000	431.676
1765.0000	431.565
1765.5000	431.71
1766.0000	431.647
1766.5000	431.681
1767.0000	431.777
1767.5000	431.692
1768.0000	431.776
1768.5000	431.791
1769.0000	431.799
1769.5000	431.866
1770.0000	431.899
1770.5000	432.003
1771.0000	432.062
1771.5000	432.205
1772.0000	432.189
1772.5000	432.092
1773.0000	432.141
1773.5000	432.047
1774.0000	432.193
1774.5000	432.281
1775.0000	432.287
1775.5000	432.327
1776.0000	432.227
1776.5000	432.323
1777.0000	432.361
1777.5000	432.378
1778.0000	432.413
1778.5000	432.406
1779.0000	432.382
1779.5000	432.477
1780.0000	432.598
1780.5000	432.613
1781.0000	432.662
1781.5000	432.644
1782.0000	432.652
1782.5000	432.625
1783.0000	432.698
1783.5000	432.729
1784.0000	432.745
1784.5000	432.832
1785.0000	432.876
1785.5000	432.915
1786.0000	432.934
1786.5000	432.906
1787.0000	432.883
1787.5000	432.807
1788.0000	432.788
1788.5000	432.855
1789.0000	432.859
1789.5000	432.873
1790.0000	432.96
1790.5000	433.02
1791.0000	433.11
1791.5000	433.239
1792.0000	433.267
1792.5000	433.2
1793.0000	433.209
1793.5000	433.29
1794.0000	433.231
1794.5000	433.215
1795.0000	433.209
1795.5000	433.103
1796.0000	433.184
1796.5000	433.266
1797.0000	433.279
1797.5000	433.372
1798.0000	433.413
1798.5000	433.471
1799.0000	433.528
1799.5000	433.481
1800.0000	433.502
1800.5000	433.53
1801.0000	433.532
1801.5000	433.607
1802.0000	433.636
1802.5000	433.692
1803.0000	433.703
1803.5000	433.728
1804.0000	433.727
1804.5000	433.712
1805.0000	433.643
1805.5000	433.672
1806.0000	433.792
1806.5000	433.791
1807.0000	433.862
1807.5000	433.963
1808.0000	433.871
1808.5000	433.901
1809.0000	434.005
1809.5000	433.961
1810.0000	433.999
1810.5000	434.011
1811.0000	434.011
1811.5000	434.009
1812.0000	434.039
1812.5000	434.084
1813.0000	434.059
1813.5000	434.077
1814.0000	434.116
1814.5000	434.091
1815.0000	434.14
1815.5000	434.248
1816.0000	434.244
1816.5000	434.273
1817.0000	434.379
1817.5000	434.271
1818.0000	434.231
1818.5000	434.163
1819.0000	434.149
1819.5000	434.315
1820.0000	434.432
1820.5000	434.611
1821.0000	434.6
1821.5000	434.581
1822.0000	434.641
1822.5000	434.731
1823.0000	434.802
1823.5000	434.75
1824.0000	434.665
1824.5000	434.604
1825.0000	434.566
1825.5000	434.721
1826.0000	434.819
1826.5000	434.808
1827.0000	434.898
1827.5000	434.783
1828.0000	434.79
1828.5000	434.865
1829.0000	434.863
1829.5000	434.972
1830.0000	435.087
1830.5000	435.141
1831.0000	435.193
1831.5000	435.205
1832.0000	435.096
1832.5000	435.042
1833.0000	435.133
1833.5000	435.205
1834.0000	435.232
1834.5000	435.318
1835.0000	435.27
1835.5000	435.129
1836.0000	435.223
1836.5000	435.168
1837.0000	435.132
1837.5000	435.268
1838.0000	435.228
1838.5000	435.256
1839.0000	435.314
1839.5000	435.233
1840.0000	435.283
1840.5000	435.254
1841.0000	435.253
1841.5000	435.34
1842.0000	435.413
1842.5000	435.545
1843.0000	435.555
1843.5000	435.536
1844.0000	435.514
1844.5000	435.517
1845.0000	435.568
1845.5000	435.665
1846.0000	435.688
1846.5000	435.661
1847.0000	435.699
1847.5000	435.697
1848.0000	435.759
1848.5000	435.833
1849.0000	435.855
1849.5000	435.884
1850.0000	435.901
1850.5000	435.827
1851.0000	435.82
1851.5000	435.807
1852.0000	435.734
1852.5000	435.842
1853.0000	435.853
1853.5000	435.865
1854.0000	435.888
1854.5000	435.89
1855.0000	435.896
1855.5000	435.931
1856.0000	436.108
1856.5000	436.175
1857.0000	436.241
1857.5000	436.296
1858.0000	436.249
1858.5000	436.185
1859.0000	436.219
1859.5000	436.283
1860.0000	436.285
1860.5000	436.383
1861.0000	436.3
1861.5000	436.34
1862.0000	436.427
1862.5000	436.482
1863.0000	436.537
1863.5000	436.48
1864.0000	436.458
1864.5000	436.409
1865.0000	436.4
1865.5000	436.418
1866.0000	436.423
1866.5000	436.455
1867.0000	436.497
1867.5000	436.528
1868.0000	436.371
1868.5000	436.442
1869.0000	436.506
1869.5000	436.479
1870.0000	436.597
1870.5000	436.532
1871.0000	436.582
1871.5000	436.6
1872.0000	436.692
1872.5000	436.741
1873.0000	436.739
1873.5000	436.822
1874.0000	436.787
1874.5000	436.755
1875.0000	436.761
1875.5000	436.766
1876.0000	436.845
1876.5000	436.882
1877.0000	436.926
1877.5000	436.936
1878.0000	436.868
1878.5000	436.889
1879.0000	436.908
1879.5000	436.906
1880.0000	436.901
1880.5000	436.945
1881.0000	436.931
1881.5000	436.91
1882.0000	436.96
1882.5000	436.941
1883.0000	436.953
1883.5000	437.032
1884.0000	437.073
1884.5000	437.022
1885.0000	437.14
1885.5000	437.166
1886.0000	437.195
1886.5000	437.343
1887.0000	437.323
1887.5000	437.342
1888.0000	437.378
1888.5000	437.312
1889.0000	437.267
1889.5000	437.305
1890.0000	437.299
1890.5000	437.439
1891.0000	437.515
1891.5000	437.453
1892.0000	437.472
1892.5000	437.426
1893.0000	437.374
1893.5000	437.468
1894.0000	437.493
1894.5000	437.601
1895.0000	437.672
1895.5000	437.703
1896.0000	437.632
1896.5000	437.524
1897.0000	437.516
1897.5000	437.565
1898.0000	437.69
1898.5000	437.737
1899.0000	437.751
1899.5000	437.73
1900.0000	437.732
1900.5000	437.727
1901.0000	437.741
1901.5000	437.785
1902.0000	437.882
1902.5000	437.95
1903.0000	438.043
1903.5000	437.982
1904.0000	437.89
1904.5000	437.896
1905.0000	437.906
1905.5000	437.979
1906.0000	438.116
1906.5000	438.111
1907.0000	438.109
1907.5000	438.07
1908.0000	437.988
1908.5000	438.09
1909.0000	438.114
1909.5000	438.184
1910.0000	438.322
1910.5000	438.298
1911.0000	438.261
1911.5000	438.29
1912.0000	438.179
1912.5000	438.189
1913.0000	438.239
1913.5000	438.219
1914.0000	438.311
1914.5000	438.371
1915.0000	438.437
1915.5000	438.466
1916.0000	438.447
1916.5000	438.537
1917.0000	438.495
1917.5000	438.491
1918.0000	438.531
1918.5000	438.496
1919.0000	438.532
1919.5000	438.58
1920.0000	438.594
1920.5000	438.427
1921.0000	438.435
1921.5000	438.499
1922.0000	438.465
1922.5000	438.641
1923.0000	438.709
1923.5000	438.643
1924.0000	438.629
1924.5000	438.554
1925.0000	438.557
1925.5000	438.637
1926.0000	438.752
1926.5000	438.797
1927.0000	438.814
1927.5000	438.84
1928.0000	438.839
1928.5000	438.932
1929.0000	438.904
1929.5000	438.864
1930.0000	438.913
1930.5000	438.912
1931.0000	438.99
1931.5000	439.068
1932.0000	439.075
1932.5000	439.028
1933.0000	439.139
1933.5000	439.162
1934.0000	439.138
1934.5000	439.181
1935.0000	439.112
1935.5000	439.056
1936.0000	439.137
1936.5000	439.15
1937.0000	439.107
1937.5000	439.215
1938.0000	439.297
1938.5000	439.337
1939.0000	439.304
1939.5000	439.359
1940.0000	439.264
1940.5000	439.305
1941.0000	439.452
1941.5000	439.443
1942.0000	439.506
1942.5000	439.439
1943.0000	439.486
1943.5000	439.412
1944.0000	439.357
1944.5000	439.516
1945.0000	439.407
1945.5000	439.429
1946.0000	439.489
1946.5000	439.408
1947.0000	439.462
1947.5000	439.484
1948.0000	439.512
1948.5000	439.578
1949.0000	439.577
1949.5000	439.587
1950.0000	439.644
1950.5000	439.658
1951.0000	439.817
1951.5000	439.784
1952.0000	439.743
1952.5000	439.706
1953.0000	439.605
1953.5000	439.759
1954.0000	439.755
1954.5000	439.825
1955.0000	439.892
1955.5000	439.819
1956.0000	439.82
1956.5000	439.86
1957.0000	439.84
1957.5000	439.928
1958.0000	439.994
1958.5000	440.028
1959.0000	440.069
1959.5000	440.069
1960.0000	440.148
1960.5000	440.109
1961.0000	440.09
1961.5000	440.133
1962.0000	439.975
1962.5000	439.923
1963.0000	439.93
1963.5000	439.916
1964.0000	440.067
1964.5000	440.157
1965.0000	440.198
1965.5000	440.256
1966.0000	440.34
1966.5000	440.329
1967.0000	440.464
1967.5000	440.454
1968.0000	440.357
1968.5000	440.454
1969.0000	440.303
1969.5000	440.352
1970.0000	440.427
1970.5000	440.406
1971.0000	440.506
1971.5000	440.463
1972.0000	440.492
1972.5000	440.573
1973.0000	440.513
1973.5000	440.537
1974.0000	440.549
1974.5000	440.495
1975.0000	440.571
1975.5000	440.601
1976.0000	440.614
1976.5000	440.633
1977.0000	440.593
1977.5000	440.603
1978.0000	440.598
1978.5000	440.689
1979.0000	440.786
1979.5000	440.822
1980.0000	440.869
1980.5000	440.845
1981.0000	440.883
1981.5000	440.914
1982.0000	440.863
1982.5000	440.848
1983.0000	440.753
1983.5000	440.811
1984.0000	440.886
1984.5000	440.897
1985.0000	441.001
1985.5000	440.968
1986.0000	441.014
1986.5000	441.081
1987.0000	441.116
1987.5000	441.169
1988.0000	441.198
1988.5000	441.235
1989.0000	441.23
1989.5000	441.262
1990.0000	441.23
1990.5000	441.163
1991.0000	441.16
1991.5000	441.107
1992.0000	441.11
1992.5000	441.259
1993.0000	441.316
1993.5000	441.402
1994.0000	441.508
1994.5000	441.458
1995.0000	441.511
1995.5000	441.524
1996.0000	441.447
1996.5000	441.524
1997.0000	441.496
1997.5000	441.532
1998.0000	441.526
1998.5000	441.449
1999.0000	441.439
1999.5000	441.389
2000.0000	441.544
2000.5000	441.664
2001.0000	441.717
2001.5000	441.738
2002.0000	441.741
2002.5000	441.713
2003.0000	441.742
2003.5000	441.752
2004.0000	441.745
2004.5000	441.752
2005.0000	441.762
2005.5000	441.805
2006.0000	441.762
2006.5000	441.765
2007.0000	441.776
2007.5000	441.849
2008.0000	441.927
2008.5000	442.005
2009.0000	441.918
2009.5000	441.971
2010.0000	442.064
2010.5000	441.955
2011.0000	442.015
2011.5000	441.87
2012.0000	441.775
2012.5000	441.848
2013.0000	441.932
2013.5000	442.057
2014.0000	442.102
2014.5000	442.117
2015.0000	442.185
2015.5000	442.163
2016.0000	442.112
2016.5000	442.205
2017.0000	442.152
2017.5000	442.258
2018.0000	442.351
2018.5000	442.314
2019.0000	442.372
2019.5000	442.279
2020.0000	442.243
2020.5000	442.264
2021.0000	442.264
2021.5000	442.346
2022.0000	442.367
2022.5000	442.414
2023.0000	442.353
2023.5000	442.298
2024.0000	442.289
2024.5000	442.256
2025.0000	442.291
2025.5000	442.346
2026.0000	442.439
2026.5000	442.46
2027.0000	442.519
2027.5000	442.552
2028.0000	442.543
2028.5000	442.609
2029.0000	442.645
2029.5000	442.698
2030.0000	442.698
2030.5000	442.709
2031.0000	442.696
2031.5000	442.652
2032.0000	442.722
2032.5000	442.713
2033.0000	442.753
2033.5000	442.82
2034.0000	442.786
2034.5000	442.725
2035.0000	442.723
2035.5000	442.673
2036.0000	442.626
2036.5000	442.786
2037.0000	442.855
2037.5000	442.929
2038.0000	443.018
2038.5000	442.972
2039.0000	442.982
2039.5000	443.023
2040.0000	443.072
2040.5000	443.063
2041.0000	443.137
2041.5000	443.113
2042.0000	443.09
2042.5000	443.221
2043.0000	443.161
2043.5000	443.133
2044.0000	443.165
2044.5000	443.146
2045.0000	443.267
2045.5000	443.305
2046.0000	443.332
2046.5000	443.313
2047.0000	443.243
2047.5000	443.263
2048.0000	443.26
2048.5000	443.233
2049.0000	443.316
2049.5000	443.488
2050.0000	443.582
2050.5000	443.709
2051.0000	443.61
2051.5000	443.569
2052.0000	443.587
2052.5000	443.512
2053.0000	443.61
2053.5000	443.564
2054.0000	443.622
2054.5000	443.734
2055.0000	443.716
2055.5000	443.721
2056.0000	443.648
2056.5000	443.657
2057.0000	443.685
2057.5000	443.689
2058.0000	443.741
2058.5000	443.662
2059.0000	443.666
2059.5000	443.794
2060.0000	443.736
2060.5000	443.747
2061.0000	443.837
2061.5000	443.806
2062.0000	443.799
2062.5000	443.893
2063.0000	443.909
2063.5000	443.93
2064.0000	443.967
2064.5000	443.88
2065.0000	443.845
2065.5000	443.844
2066.0000	443.928
2066.5000	443.977
2067.0000	443.972
2067.5000	444.007
2068.0000	443.988
2068.5000	444.025
2069.0000	444.089
2069.5000	444.17
2070.0000	444.182
2070.5000	444.197
2071.0000	444.206
2071.5000	444.062
2072.0000	444.073
2072.5000	444.127
2073.0000	444.127
2073.5000	444.158
2074.0000	444.201
2074.5000	444.214
2075.0000	444.25
2075.5000	444.271
2076.0000	444.287
2076.5000	444.348
2077.0000	444.436
2077.5000	444.47
2078.0000	444.549
2078.5000	444.54
2079.0000	444.421
2079.5000	444.462
2080.0000	444.431
2080.5000	444.45
2081.0000	444.5
2081.5000	444.599
2082.0000	444.66
2082.5000	444.619
2083.0000	444.578
2083.5000	444.52
2084.0000	444.525
2084.5000	444.579
2085.0000	444.72
2085.5000	444.709
2086.0000	444.738
2086.5000	444.708
2087.0000	444.626
2087.5000	444.643
2088.0000	444.618
2088.5000	444.633
2089.0000	444.66
2089.5000	444.76
2090.0000	444.746
2090.5000	444.733
2091.0000	444.863
2091.5000	444.78
2092.0000	444.758
2092.5000	444.911
2093.0000	444.883
2093.5000	445.019
2094.0000	445.041
2094.5000	444.982
2095.0000	444.951
2095.5000	444.86
2096.0000	444.922
2096.5000	444.949
2097.0000	444.963
2097.5000	445.01
2098.0000	444.965
2098.5000	444.975
2099.0000	444.997
2099.5000	444.994
2100.0000	445.048
2100.5000	445.071
2101.0000	445.148
2101.5000	445.222
2102.0000	445.272
2102.5000	445.243
2103.0000	445.226
2103.5000	445.199
2104.0000	445.253
2104.5000	445.406
2105.0000	445.378
2105.5000	445.369
2106.0000	445.322
2106.5000	445.276
2107.0000	445.35
2107.5000	445.41
2108.0000	445.495
2108.5000	445.506
2109.0000	445.561
2109.5000	445.583
2110.0000	445.568
2110.5000	445.587
2111.0000	445.578
2111.5000	445.598
2112.0000	445.674
2112.5000	445.708
2113.0000	445.691
2113.5000	445.645
2114.0000	445.638
2114.5000	445.619
2115.0000	445.643
2115.5000	445.713
2116.0000	445.677
2116.5000	445.697
2117.0000	445.672
2117.5000	445.728
2118.0000	445.77
2118.5000	445.8
2119.0000	445.875
2119.5000	445.928
2120.0000	445.938
2120.5000	445.986
2121.0000	446.028
2121.5000	446.009
2122.0000	446.071
2122.5000	446.076
2123.0000	446.041
2123.5000	446.022
2124.0000	446.076
2124.5000	446.077
2125.0000	446.11
2125.5000	446.135
2126.0000	446.121
2126.5000	446.144
2127.0000	446.187
2127.5000	446.213
2128.0000	446.255
2128.5000	446.216
2129.0000	446.222
2129.5000	446.301
2130.0000	446.226
2130.5000	446.255
2131.0000	446.293
2131.5000	446.292
2132.0000	446.317
2132.5000	446.393
2133.0000	446.355
2133.5000	446.374
2134.0000	446.467
2134.5000	446.465
2135.0000	446.534
2135.5000	446.493
2136.0000	446.513
2136.5000	446.573
2137.0000	446.609
2137.5000	446.723
2138.0000	446.726
2138.5000	446.713
2139.0000	446.67
2139.5000	446.652
2140.0000	446.635
2140.5000	446.685
2141.0000	446.74
2141.5000	446.743
2142.0000	446.817
2142.5000	446.807
2143.0000	446.847
2143.5000	446.85
2144.0000	446.813
2144.5000	446.837
2145.0000	446.814
2145.5000	446.843
2146.0000	446.898
2146.5000	446.886
2147.0000	446.918
2147.5000	446.845
2148.0000	446.872
2148.5000	446.968
2149.0000	446.988
2149.5000	447.088
2150.0000	447.139
2150.5000	447.137
2151.0000	447.095
2151.5000	447.072
2152.0000	447.113
2152.5000	447.11
2153.0000	447.174
2153.5000	447.276
2154.0000	447.215
2154.5000	447.222
2155.0000	447.287
2155.5000	447.312
2156.0000	447.287
2156.5000	447.286
2157.0000	447.364
2157.5000	447.388
2158.0000	447.483
2158.5000	447.53
2159.0000	447.4
2159.5000	447.416
2160.0000	447.368
2160.5000	447.379
2161.0000	447.406
2161.5000	447.352
2162.0000	447.419
2162.5000	447.4
2163.0000	447.48
2163.5000	447.505
2164.0000	447.513
2164.5000	447.622
2165.0000	447.597
2165.5000	447.598
2166.0000	447.634
2166.5000	447.611
2167.0000	447.683
2167.5000	447.683
2168.0000	447.653
2168.5000	447.692
2169.0000	447.776
2169.5000	447.845
2170.0000	447.94
2170.5000	448.045
2171.0000	448.013
2171.5000	448.071
