TITLE	
DATA TYPE	
ORIGIN	JASCO
OWNER	
DATE	21/10/28
TIME	16:38:11
SPECTROMETER/DATA SYSTEM	
RESOLUTION	
DELTAX	1
XUNITS	SEC
YUNITS	INTENSITY
FIRSTX	0.0000
LASTX	5000.0000
NPOINTS	5001
FIRSTY	470.82581
MAXY	576.97113
MINY	-239.74556
XYDATA
0.0000	470.826
1.0000	445.236
2.0000	401.773
3.0000	405.189
4.0000	403.194
5.0000	403.463
6.0000	400.23
7.0000	398.121
8.0000	401.498
9.0000	403.504
10.0000	402.677
11.0000	403.507
12.0000	404.948
13.0000	408.098
14.0000	406.582
15.0000	401.047
16.0000	401.669
17.0000	403.98
18.0000	403.88
19.0000	403.381
20.0000	399.738
21.0000	400.783
22.0000	405.288
23.0000	404.787
24.0000	400.648
25.0000	402.667
26.0000	404.084
27.0000	403.141
28.0000	403.963
29.0000	399.963
30.0000	400.984
31.0000	405.635
32.0000	407.374
33.0000	402.223
34.0000	402.922
35.0000	406.83
36.0000	403.373
37.0000	403.669
38.0000	406.06
39.0000	406.067
40.0000	405.54
41.0000	403.221
42.0000	402.224
43.0000	405.724
44.0000	405.504
45.0000	403.188
46.0000	404.257
47.0000	406.309
48.0000	404.301
49.0000	403.986
50.0000	404.489
51.0000	404.653
52.0000	404.866
53.0000	360.766
54.0000	-146.724
55.0000	-239.746
56.0000	-209.974
57.0000	-202.79
58.0000	349.243
59.0000	333.169
60.0000	294.285
61.0000	294.084
62.0000	292.79
63.0000	293.503
64.0000	297.058
65.0000	297.675
66.0000	298.849
67.0000	301.38
68.0000	302.17
69.0000	300.61
70.0000	299.485
71.0000	300.393
72.0000	298.428
73.0000	298.213
74.0000	298.792
75.0000	296.549
76.0000	298.881
77.0000	302.991
78.0000	300.393
79.0000	297.558
80.0000	299.452
81.0000	301.937
82.0000	300.079
83.0000	297.351
84.0000	297.746
85.0000	299.741
86.0000	296.98
87.0000	295.267
88.0000	298.663
89.0000	298.466
90.0000	300.27
91.0000	300.36
92.0000	301.275
93.0000	303.495
94.0000	301.722
95.0000	304.028
96.0000	304.621
97.0000	303.739
98.0000	304.876
99.0000	304.499
100.0000	303.465
101.0000	303.309
102.0000	303.947
103.0000	305.034
104.0000	303.985
105.0000	303.413
106.0000	306.828
107.0000	306.752
108.0000	305.381
109.0000	308.511
110.0000	310.593
111.0000	309.513
112.0000	312.644
113.0000	313.854
114.0000	311.209
115.0000	307.79
116.0000	307.034
117.0000	309.122
118.0000	307.536
119.0000	307.982
120.0000	311.41
121.0000	311.834
122.0000	311.24
123.0000	314.057
124.0000	317.678
125.0000	314.161
126.0000	308.866
127.0000	309.176
128.0000	312.351
129.0000	317.066
130.0000	316.991
131.0000	316.53
132.0000	316.92
133.0000	316.876
134.0000	316.945
135.0000	316.588
136.0000	316.644
137.0000	317.01
138.0000	317.425
139.0000	315.266
140.0000	315.721
141.0000	317.19
142.0000	317.703
143.0000	318.741
144.0000	317.97
145.0000	317.106
146.0000	315.919
147.0000	315.043
148.0000	316.405
149.0000	320.646
150.0000	322.231
151.0000	321.929
152.0000	322.651
153.0000	322.517
154.0000	322.051
155.0000	319.23
156.0000	320.6
157.0000	323.932
158.0000	323.234
159.0000	322.856
160.0000	322.127
161.0000	322.263
162.0000	324.061
163.0000	325.692
164.0000	325.502
165.0000	322.421
166.0000	324.138
167.0000	323.965
168.0000	323.267
169.0000	327.26
170.0000	324.217
171.0000	321.935
172.0000	325.194
173.0000	325.805
174.0000	323.641
175.0000	323.797
176.0000	325.566
177.0000	324.224
178.0000	323.9
179.0000	327.033
180.0000	327.922
181.0000	328.92
182.0000	330.082
183.0000	329.117
184.0000	331.526
185.0000	329.573
186.0000	329.429
187.0000	333.143
188.0000	329.805
189.0000	329.666
190.0000	330.642
191.0000	330.241
192.0000	330.153
193.0000	329.852
194.0000	328.98
195.0000	331.08
196.0000	334.446
197.0000	334.469
198.0000	333.968
199.0000	333.928
200.0000	338.788
201.0000	341.323
202.0000	337.265
203.0000	334.155
204.0000	334.953
205.0000	336.777
206.0000	339.415
207.0000	337.167
208.0000	332.519
209.0000	334.897
210.0000	335.989
211.0000	336.346
212.0000	338.697
213.0000	338.42
214.0000	335.943
215.0000	334.625
216.0000	337.519
217.0000	339.34
218.0000	338.563
219.0000	340.859
220.0000	339.296
221.0000	336.158
222.0000	341.775
223.0000	343.065
224.0000	339.621
225.0000	340.346
226.0000	343.592
227.0000	342.93
228.0000	338.875
229.0000	340.322
230.0000	343.327
231.0000	341.485
232.0000	340.399
233.0000	341.604
234.0000	342.504
235.0000	343.706
236.0000	343.708
237.0000	342.921
238.0000	341.963
239.0000	343.866
240.0000	345.202
241.0000	346.578
242.0000	348.858
243.0000	347.228
244.0000	343.269
245.0000	342.602
246.0000	348.36
247.0000	350.23
248.0000	347.375
249.0000	346.451
250.0000	346.859
251.0000	349.571
252.0000	350.355
253.0000	349.794
254.0000	348.153
255.0000	347.665
256.0000	347.034
257.0000	346.632
258.0000	349.33
259.0000	350.539
260.0000	352.68
261.0000	351.972
262.0000	350.104
263.0000	352.953
264.0000	353.661
265.0000	353.506
266.0000	353.803
267.0000	352.997
268.0000	354.191
269.0000	355.277
270.0000	352.242
271.0000	349.935
272.0000	353.454
273.0000	354.963
274.0000	354.614
275.0000	355.412
276.0000	355.686
277.0000	352.745
278.0000	350.408
279.0000	351.402
280.0000	355.077
281.0000	354.631
282.0000	353.086
283.0000	355.65
284.0000	353.887
285.0000	352.434
286.0000	355.059
287.0000	354.9
288.0000	358.664
289.0000	362.208
290.0000	356.58
291.0000	356.36
292.0000	360.115
293.0000	358.006
294.0000	357.044
295.0000	359.073
296.0000	358.896
297.0000	359.601
298.0000	359.759
299.0000	358.732
300.0000	359.443
301.0000	359.164
302.0000	361.244
303.0000	365.251
304.0000	361.519
305.0000	359.857
306.0000	362.413
307.0000	362.872
308.0000	361.615
309.0000	364.92
310.0000	363.928
311.0000	358.978
312.0000	361.379
313.0000	360.306
314.0000	358.717
315.0000	360.866
316.0000	364.138
317.0000	365.211
318.0000	365.218
319.0000	363.852
320.0000	362.809
321.0000	364.283
322.0000	364.448
323.0000	362.533
324.0000	362.861
325.0000	366.156
326.0000	367.806
327.0000	364.501
328.0000	362.602
329.0000	367.849
330.0000	368.691
331.0000	367.718
332.0000	368.87
333.0000	366.369
334.0000	366.179
335.0000	365.674
336.0000	366.426
337.0000	366.367
338.0000	365.266
339.0000	369.433
340.0000	366.747
341.0000	365.323
342.0000	368.843
343.0000	366.581
344.0000	364.979
345.0000	366.522
346.0000	369.119
347.0000	370.204
348.0000	368.035
349.0000	368.579
350.0000	366.491
351.0000	364.908
352.0000	368.978
353.0000	373.971
354.0000	372.853
355.0000	367.632
356.0000	369.018
357.0000	371.521
358.0000	372.572
359.0000	374.354
360.0000	373.339
361.0000	372.727
362.0000	372.701
363.0000	374.997
364.0000	373.878
365.0000	371.916
366.0000	377.264
367.0000	376.348
368.0000	375.766
369.0000	375.975
370.0000	372.127
371.0000	371.904
372.0000	373.457
373.0000	375.04
374.0000	372.579
375.0000	371.767
376.0000	376.448
377.0000	377.78
378.0000	375.278
379.0000	375.083
380.0000	376.813
381.0000	377.546
382.0000	379.625
383.0000	377.663
384.0000	375.904
385.0000	377.007
386.0000	378.06
387.0000	378.115
388.0000	379.527
389.0000	378.559
390.0000	376.533
391.0000	378.01
392.0000	376.79
393.0000	377.027
394.0000	378.933
395.0000	378.89
396.0000	379.535
397.0000	380.256
398.0000	381.817
399.0000	382.044
400.0000	380.054
401.0000	379.018
402.0000	379.068
403.0000	380.395
404.0000	380.537
405.0000	382.104
406.0000	380.441
407.0000	379.787
408.0000	378.865
409.0000	376.329
410.0000	380.782
411.0000	384.257
412.0000	384.112
413.0000	383.082
414.0000	382.018
415.0000	382.422
416.0000	380.46
417.0000	381.601
418.0000	384.017
419.0000	384.673
420.0000	382.847
421.0000	381.217
422.0000	383.563
423.0000	384.151
424.0000	384.006
425.0000	383.993
426.0000	385.112
427.0000	382.535
428.0000	379.483
429.0000	380.773
430.0000	380.156
431.0000	382.609
432.0000	385.648
433.0000	385.853
434.0000	383.622
435.0000	380.278
436.0000	383.964
437.0000	386.154
438.0000	385.087
439.0000	386.553
440.0000	385.542
441.0000	382.361
442.0000	383.34
443.0000	386.55
444.0000	390.313
445.0000	390.335
446.0000	386.873
447.0000	388.265
448.0000	389.231
449.0000	386.311
450.0000	386.372
451.0000	387.256
452.0000	388.214
453.0000	389.956
454.0000	389.01
455.0000	389.532
456.0000	391.441
457.0000	393.803
458.0000	392.808
459.0000	390.898
460.0000	392.18
461.0000	391.225
462.0000	388.369
463.0000	389.521
464.0000	390.501
465.0000	389.395
466.0000	389.652
467.0000	388.701
468.0000	389.872
469.0000	391.03
470.0000	391.246
471.0000	391.659
472.0000	395.842
473.0000	395.485
474.0000	391.422
475.0000	391.975
476.0000	393.723
477.0000	393.118
478.0000	392.772
479.0000	392.655
480.0000	392.414
481.0000	394.851
482.0000	396.513
483.0000	395.156
484.0000	392.564
485.0000	393.009
486.0000	396.337
487.0000	394.37
488.0000	392.95
489.0000	394.241
490.0000	393.268
491.0000	394.507
492.0000	398.056
493.0000	400.576
494.0000	397.029
495.0000	393.422
496.0000	393.188
497.0000	393.972
498.0000	397.353
499.0000	399.651
500.0000	402.951
501.0000	405.466
502.0000	402.419
503.0000	398.96
504.0000	399.593
505.0000	400.944
506.0000	399.816
507.0000	400.346
508.0000	397.85
509.0000	398.043
510.0000	398.129
511.0000	396.822
512.0000	397.272
513.0000	399.801
514.0000	399.758
515.0000	396.732
516.0000	399.522
517.0000	400.634
518.0000	402.217
519.0000	403.823
520.0000	399.171
521.0000	396.591
522.0000	395.492
523.0000	397.693
524.0000	400.785
525.0000	401.382
526.0000	402.537
527.0000	398.738
528.0000	398.827
529.0000	401.626
530.0000	402.825
531.0000	404.929
532.0000	404.443
533.0000	402.312
534.0000	398.912
535.0000	400.894
536.0000	405.092
537.0000	404.502
538.0000	404.357
539.0000	404.453
540.0000	407.202
541.0000	407.755
542.0000	404.264
543.0000	401.507
544.0000	403.33
545.0000	406.218
546.0000	403.055
547.0000	405.855
548.0000	407.236
549.0000	405.822
550.0000	406.434
551.0000	404.129
552.0000	403.745
553.0000	404.023
554.0000	402.573
555.0000	404.952
556.0000	407.986
557.0000	403.053
558.0000	401.038
559.0000	405.654
560.0000	406.404
561.0000	405.643
562.0000	407.684
563.0000	411.053
564.0000	413.943
565.0000	411.368
566.0000	406.89
567.0000	406.766
568.0000	408.99
569.0000	412.209
570.0000	409.8
571.0000	404.252
572.0000	407.589
573.0000	408.707
574.0000	409.349
575.0000	411.591
576.0000	409.559
577.0000	409.282
578.0000	409.642
579.0000	410.839
580.0000	410.878
581.0000	409.045
582.0000	411.017
583.0000	412.087
584.0000	409.399
585.0000	411.499
586.0000	411.895
587.0000	410.155
588.0000	408.547
589.0000	409.086
590.0000	409.478
591.0000	408.231
592.0000	410.999
593.0000	412.045
594.0000	412.271
595.0000	414.731
596.0000	415.666
597.0000	414.694
598.0000	412.31
599.0000	411.854
600.0000	413.976
601.0000	413.417
602.0000	412.467
603.0000	413.713
604.0000	415.302
605.0000	411.91
606.0000	413.284
607.0000	415.691
608.0000	412.151
609.0000	411.494
610.0000	412.962
611.0000	415.1
612.0000	412.351
613.0000	408.71
614.0000	408.521
615.0000	410.572
616.0000	412.619
617.0000	414.502
618.0000	419.084
619.0000	422.391
620.0000	419.944
621.0000	416.986
622.0000	419.218
623.0000	418.132
624.0000	415.851
625.0000	416.696
626.0000	417.61
627.0000	419.274
628.0000	420.005
629.0000	417.275
630.0000	418.68
631.0000	418.188
632.0000	414.848
633.0000	417.097
634.0000	419.13
635.0000	417.628
636.0000	414.724
637.0000	415.477
638.0000	419.439
639.0000	420.596
640.0000	420.189
641.0000	420.364
642.0000	419.754
643.0000	419.577
644.0000	419.782
645.0000	418.731
646.0000	418.111
647.0000	418.628
648.0000	420.668
649.0000	418.161
650.0000	414.465
651.0000	418.457
652.0000	419.977
653.0000	421.186
654.0000	423.016
655.0000	422.138
656.0000	421.593
657.0000	422.492
658.0000	424.669
659.0000	421.721
660.0000	418.676
661.0000	419.437
662.0000	419.893
663.0000	420.71
664.0000	418.568
665.0000	418.2
666.0000	421.739
667.0000	420.723
668.0000	419.761
669.0000	420.12
670.0000	421.61
671.0000	422.74
672.0000	421.808
673.0000	423.076
674.0000	425.32
675.0000	426.377
676.0000	422.511
677.0000	420.449
678.0000	420.975
679.0000	421.99
680.0000	422.302
681.0000	418.91
682.0000	423.024
683.0000	429.895
684.0000	427.192
685.0000	424.757
686.0000	423.408
687.0000	423.773
688.0000	427.915
689.0000	426.806
690.0000	426.043
691.0000	428.504
692.0000	425.499
693.0000	421.219
694.0000	420.616
695.0000	424.854
696.0000	430.645
697.0000	427.362
698.0000	423.161
699.0000	426.069
700.0000	430.37
701.0000	429.907
702.0000	428.147
703.0000	426.143
704.0000	427.811
705.0000	430.862
706.0000	430.292
707.0000	425.18
708.0000	423.96
709.0000	425.943
710.0000	426.361
711.0000	430.98
712.0000	431.253
713.0000	427.449
714.0000	423.99
715.0000	423.429
716.0000	428.373
717.0000	428.938
718.0000	430.953
719.0000	435.691
720.0000	433.801
721.0000	432.477
722.0000	427.831
723.0000	426.036
724.0000	429.131
725.0000	429.153
726.0000	431.648
727.0000	435.381
728.0000	436.813
729.0000	433.983
730.0000	430.189
731.0000	431.852
732.0000	432.066
733.0000	433.014
734.0000	435.109
735.0000	433.702
736.0000	431.127
737.0000	430.463
738.0000	432.555
739.0000	431.98
740.0000	432.714
741.0000	429.674
742.0000	425.024
743.0000	427.983
744.0000	430.553
745.0000	432.734
746.0000	435.131
747.0000	435.596
748.0000	435.085
749.0000	434.492
750.0000	431.712
751.0000	430.925
752.0000	432.059
753.0000	434.435
754.0000	437.195
755.0000	435.949
756.0000	436.882
757.0000	439.158
758.0000	439.918
759.0000	438.311
760.0000	436.517
761.0000	437.656
762.0000	436.154
763.0000	430.424
764.0000	430.872
765.0000	433.797
766.0000	432.671
767.0000	436.267
768.0000	437.064
769.0000	432.471
770.0000	432.38
771.0000	434.711
772.0000	436.076
773.0000	436.667
774.0000	438.554
775.0000	439.028
776.0000	440.119
777.0000	439.831
778.0000	438.215
779.0000	440.124
780.0000	437.077
781.0000	433.556
782.0000	434.115
783.0000	435.677
784.0000	436.345
785.0000	435.654
786.0000	434.247
787.0000	433.792
788.0000	435.249
789.0000	437.412
790.0000	437.429
791.0000	439.979
792.0000	440.646
793.0000	437.709
794.0000	440.179
795.0000	438.897
796.0000	437.556
797.0000	437.478
798.0000	436.166
799.0000	437.326
800.0000	437.772
801.0000	443.111
802.0000	442.316
803.0000	438.658
804.0000	441.416
805.0000	443.483
806.0000	442.015
807.0000	437.932
808.0000	441.724
809.0000	444.026
810.0000	440.914
811.0000	442.164
812.0000	444.568
813.0000	442.704
814.0000	438.532
815.0000	439.1
816.0000	439.187
817.0000	439
818.0000	441.082
819.0000	438.42
820.0000	437.527
821.0000	438.97
822.0000	439.606
823.0000	440.267
824.0000	441.506
825.0000	445.737
826.0000	446.429
827.0000	441.068
828.0000	437.854
829.0000	440.192
830.0000	441.623
831.0000	442.394
832.0000	443.57
833.0000	445.202
834.0000	445.659
835.0000	441.304
836.0000	441.94
837.0000	445.312
838.0000	443.577
839.0000	440.743
840.0000	440.861
841.0000	444.597
842.0000	442.227
843.0000	444.78
844.0000	449.719
845.0000	447.886
846.0000	450.574
847.0000	449.069
848.0000	445.442
849.0000	443.026
850.0000	447.478
851.0000	451.222
852.0000	445.687
853.0000	444.776
854.0000	445.428
855.0000	446.629
856.0000	448.538
857.0000	450.621
858.0000	448.263
859.0000	443.34
860.0000	443.591
861.0000	445.534
862.0000	445.63
863.0000	446.746
864.0000	445.747
865.0000	445.18
866.0000	447.208
867.0000	448.064
868.0000	448.211
869.0000	445.484
870.0000	447.367
871.0000	450.218
872.0000	449.611
873.0000	448.176
874.0000	445.978
875.0000	446.605
876.0000	447.638
877.0000	447.316
878.0000	446.79
879.0000	446.516
880.0000	451.439
881.0000	452.056
882.0000	451.669
883.0000	450.458
884.0000	450.261
885.0000	450.641
886.0000	448.084
887.0000	451.426
888.0000	453.802
889.0000	452.649
890.0000	448.744
891.0000	447.409
892.0000	449.767
893.0000	453.185
894.0000	453.662
895.0000	448.01
896.0000	448.311
897.0000	453.851
898.0000	452.735
899.0000	445.759
900.0000	442.707
901.0000	448.819
902.0000	451.381
903.0000	450.48
904.0000	454.33
905.0000	454.202
906.0000	449.985
907.0000	448.623
908.0000	451.636
909.0000	453.12
910.0000	452.133
911.0000	455.143
912.0000	457.697
913.0000	453.665
914.0000	452.522
915.0000	453.561
916.0000	448.952
917.0000	450.895
918.0000	451.934
919.0000	450.735
920.0000	454.09
921.0000	454.783
922.0000	453.535
923.0000	454.258
924.0000	451.983
925.0000	449.79
926.0000	451.585
927.0000	448.854
928.0000	450.591
929.0000	451.723
930.0000	451.403
931.0000	455.461
932.0000	454.226
933.0000	452.851
934.0000	452.785
935.0000	451.129
936.0000	453.664
937.0000	455.156
938.0000	455.263
939.0000	457.503
940.0000	456.161
941.0000	454.602
942.0000	455.9
943.0000	456.056
944.0000	456.994
945.0000	455.716
946.0000	452.357
947.0000	454.282
948.0000	458.021
949.0000	457.626
950.0000	458.217
951.0000	457.546
952.0000	458.225
953.0000	461.222
954.0000	456.521
955.0000	454.52
956.0000	457.912
957.0000	458.136
958.0000	458.661
959.0000	457.83
960.0000	456.867
961.0000	458.729
962.0000	455.319
963.0000	453.235
964.0000	453.031
965.0000	454.194
966.0000	460.306
967.0000	458.208
968.0000	458.363
969.0000	462.337
970.0000	461.031
971.0000	457.778
972.0000	457.449
973.0000	457.661
974.0000	457.974
975.0000	457.664
976.0000	459.035
977.0000	460.913
978.0000	459.488
979.0000	458.463
980.0000	456.981
981.0000	458.09
982.0000	458.661
983.0000	457.511
984.0000	456.095
985.0000	458.541
986.0000	461.951
987.0000	460.249
988.0000	459.556
989.0000	460.573
990.0000	458.111
991.0000	458.352
992.0000	460.235
993.0000	458.32
994.0000	460.72
995.0000	462.644
996.0000	460.096
997.0000	460.785
998.0000	458.713
999.0000	458.445
1000.0000	459.471
1001.0000	460.623
1002.0000	463.246
1003.0000	462.2
1004.0000	465.662
1005.0000	467.056
1006.0000	461.182
1007.0000	457.142
1008.0000	458.081
1009.0000	461.737
1010.0000	461.776
1011.0000	457.163
1012.0000	459.427
1013.0000	459.735
1014.0000	455.156
1015.0000	462.782
1016.0000	464.367
1017.0000	462.295
1018.0000	464.662
1019.0000	466.764
1020.0000	465.208
1021.0000	460.64
1022.0000	458.998
1023.0000	458.954
1024.0000	461.637
1025.0000	466.434
1026.0000	466.993
1027.0000	462.918
1028.0000	463.664
1029.0000	465.078
1030.0000	465.291
1031.0000	469.01
1032.0000	468.609
1033.0000	461.972
1034.0000	460.82
1035.0000	463.667
1036.0000	463.095
1037.0000	465.142
1038.0000	468.839
1039.0000	467.752
1040.0000	467.091
1041.0000	466.303
1042.0000	467.226
1043.0000	466.303
1044.0000	465.869
1045.0000	467.542
1046.0000	463.854
1047.0000	463.117
1048.0000	466.039
1049.0000	463.039
1050.0000	463.227
1051.0000	467.381
1052.0000	469.008
1053.0000	466.54
1054.0000	465.922
1055.0000	465.271
1056.0000	463.919
1057.0000	463.822
1058.0000	463.664
1059.0000	463.282
1060.0000	461.716
1061.0000	470.134
1062.0000	472.257
1063.0000	469.968
1064.0000	470.091
1065.0000	465.988
1066.0000	464.583
1067.0000	464.093
1068.0000	463.501
1069.0000	465.16
1070.0000	465.682
1071.0000	468.05
1072.0000	470.958
1073.0000	463.808
1074.0000	461.352
1075.0000	467.62
1076.0000	468.334
1077.0000	470.065
1078.0000	469.179
1079.0000	466.988
1080.0000	465.152
1081.0000	463.989
1082.0000	467.398
1083.0000	468.007
1084.0000	467.338
1085.0000	469.074
1086.0000	471.653
1087.0000	471.699
1088.0000	467.22
1089.0000	464.188
1090.0000	467.575
1091.0000	469.278
1092.0000	470.825
1093.0000	470.541
1094.0000	467.951
1095.0000	466.403
1096.0000	467.456
1097.0000	470.113
1098.0000	472.088
1099.0000	470.819
1100.0000	469.371
1101.0000	469.31
1102.0000	465.759
1103.0000	467.691
1104.0000	468.123
1105.0000	468.011
1106.0000	469.341
1107.0000	469.162
1108.0000	472.747
1109.0000	472.947
1110.0000	469.575
1111.0000	471.928
1112.0000	469.657
1113.0000	468.481
1114.0000	471.232
1115.0000	470.664
1116.0000	468.68
1117.0000	467.658
1118.0000	470.867
1119.0000	470.445
1120.0000	471.034
1121.0000	472.717
1122.0000	474.85
1123.0000	473.517
1124.0000	470.912
1125.0000	472.22
1126.0000	472.883
1127.0000	474.168
1128.0000	475.672
1129.0000	474.331
1130.0000	471.132
1131.0000	469.826
1132.0000	471.561
1133.0000	472.912
1134.0000	474.598
1135.0000	476.061
1136.0000	471.223
1137.0000	468.793
1138.0000	472.603
1139.0000	472.799
1140.0000	473.018
1141.0000	472.598
1142.0000	466.759
1143.0000	467.246
1144.0000	468.709
1145.0000	471.82
1146.0000	480.531
1147.0000	479.225
1148.0000	474.763
1149.0000	473.422
1150.0000	475.247
1151.0000	477.887
1152.0000	478.266
1153.0000	474.632
1154.0000	474.929
1155.0000	475.729
1156.0000	471.863
1157.0000	467.801
1158.0000	467.03
1159.0000	471.547
1160.0000	471.911
1161.0000	469.99
1162.0000	472.367
1163.0000	477.856
1164.0000	475.893
1165.0000	472.64
1166.0000	472.165
1167.0000	475.497
1168.0000	474.597
1169.0000	473.757
1170.0000	479.648
1171.0000	477.102
1172.0000	474.536
1173.0000	476.563
1174.0000	478.44
1175.0000	475.637
1176.0000	475.161
1177.0000	479.734
1178.0000	475.61
1179.0000	472.678
1180.0000	475.157
1181.0000	475.825
1182.0000	473.661
1183.0000	474.672
1184.0000	476.096
1185.0000	473.228
1186.0000	475.642
1187.0000	474.055
1188.0000	472.796
1189.0000	473.061
1190.0000	471.394
1191.0000	477.248
1192.0000	481.96
1193.0000	477.808
1194.0000	475.854
1195.0000	478.041
1196.0000	474.72
1197.0000	473.538
1198.0000	474.434
1199.0000	476.748
1200.0000	480.704
1201.0000	480.829
1202.0000	474.78
1203.0000	474.251
1204.0000	477.462
1205.0000	472.308
1206.0000	474.579
1207.0000	478.926
1208.0000	477.748
1209.0000	481.269
1210.0000	482.178
1211.0000	481.009
1212.0000	478.175
1213.0000	476.525
1214.0000	479.188
1215.0000	480.475
1216.0000	479.662
1217.0000	480.4
1218.0000	478.735
1219.0000	473.906
1220.0000	473.987
1221.0000	474.786
1222.0000	478.671
1223.0000	480.423
1224.0000	475.309
1225.0000	474.147
1226.0000	478.178
1227.0000	480.689
1228.0000	479.254
1229.0000	479.851
1230.0000	481.261
1231.0000	480.945
1232.0000	482.515
1233.0000	482.051
1234.0000	481.686
1235.0000	478.338
1236.0000	475.996
1237.0000	480.3
1238.0000	481.663
1239.0000	478.861
1240.0000	479.873
1241.0000	481.673
1242.0000	479.486
1243.0000	479.542
1244.0000	480.15
1245.0000	482.029
1246.0000	482.663
1247.0000	483.419
1248.0000	482.872
1249.0000	480.616
1250.0000	481.583
1251.0000	482.524
1252.0000	483.174
1253.0000	482.607
1254.0000	477.432
1255.0000	477.218
1256.0000	481.483
1257.0000	480.563
1258.0000	479.803
1259.0000	479.178
1260.0000	480.1
1261.0000	481.478
1262.0000	484.938
1263.0000	484.32
1264.0000	478.586
1265.0000	478.569
1266.0000	480.302
1267.0000	477.669
1268.0000	477.368
1269.0000	481.573
1270.0000	481.102
1271.0000	482.011
1272.0000	483.888
1273.0000	482.139
1274.0000	484.62
1275.0000	485.977
1276.0000	483.741
1277.0000	486.406
1278.0000	491.857
1279.0000	488.448
1280.0000	479.559
1281.0000	480.086
1282.0000	484.159
1283.0000	483.741
1284.0000	483.784
1285.0000	479.641
1286.0000	477.909
1287.0000	483.681
1288.0000	484.544
1289.0000	487.903
1290.0000	487.357
1291.0000	481.467
1292.0000	483.468
1293.0000	486.851
1294.0000	487.316
1295.0000	484.214
1296.0000	483.952
1297.0000	486.038
1298.0000	484.329
1299.0000	485.351
1300.0000	486.035
1301.0000	484.682
1302.0000	486.624
1303.0000	480.788
1304.0000	479.507
1305.0000	486.448
1306.0000	486.305
1307.0000	481.236
1308.0000	480.441
1309.0000	484.211
1310.0000	485.799
1311.0000	487.14
1312.0000	483.762
1313.0000	480.048
1314.0000	482.133
1315.0000	485.694
1316.0000	489.174
1317.0000	491.245
1318.0000	485.615
1319.0000	479.978
1320.0000	482.582
1321.0000	484.69
1322.0000	485.472
1323.0000	484.888
1324.0000	486.83
1325.0000	488.988
1326.0000	483.185
1327.0000	484.475
1328.0000	488.477
1329.0000	484.935
1330.0000	485.549
1331.0000	489.065
1332.0000	487.9
1333.0000	486.227
1334.0000	486.743
1335.0000	482.447
1336.0000	482.147
1337.0000	489.719
1338.0000	487.786
1339.0000	485.065
1340.0000	487.887
1341.0000	492.852
1342.0000	495.999
1343.0000	491.415
1344.0000	484.835
1345.0000	483.947
1346.0000	487.275
1347.0000	490.418
1348.0000	492.176
1349.0000	489.2
1350.0000	488.158
1351.0000	486.834
1352.0000	488.609
1353.0000	491.051
1354.0000	489.537
1355.0000	489.413
1356.0000	488.115
1357.0000	488.225
1358.0000	488.565
1359.0000	488.715
1360.0000	490.29
1361.0000	492.188
1362.0000	489.979
1363.0000	486.643
1364.0000	486.858
1365.0000	488.634
1366.0000	490.285
1367.0000	491.774
1368.0000	492.185
1369.0000	489.72
1370.0000	489.491
1371.0000	489.681
1372.0000	489.807
1373.0000	489.188
1374.0000	490.208
1375.0000	491.916
1376.0000	488.672
1377.0000	485.756
1378.0000	488.915
1379.0000	491.658
1380.0000	490.877
1381.0000	489.256
1382.0000	487.008
1383.0000	487.007
1384.0000	487.262
1385.0000	490.775
1386.0000	491.157
1387.0000	488.239
1388.0000	490.851
1389.0000	489.796
1390.0000	486.793
1391.0000	489.01
1392.0000	490.075
1393.0000	488.045
1394.0000	488.782
1395.0000	490.108
1396.0000	486.825
1397.0000	485.588
1398.0000	487.373
1399.0000	490.793
1400.0000	493.232
1401.0000	493.481
1402.0000	491.604
1403.0000	488.851
1404.0000	490.653
1405.0000	493.967
1406.0000	493.46
1407.0000	488.377
1408.0000	484.201
1409.0000	485.376
1410.0000	487.622
1411.0000	491.64
1412.0000	495.868
1413.0000	492.042
1414.0000	490.181
1415.0000	489.65
1416.0000	487.098
1417.0000	491.009
1418.0000	492.292
1419.0000	491.863
1420.0000	496.165
1421.0000	495.677
1422.0000	492.658
1423.0000	491.801
1424.0000	494.305
1425.0000	494.271
1426.0000	491.984
1427.0000	490.837
1428.0000	487.726
1429.0000	486.578
1430.0000	491.232
1431.0000	495.874
1432.0000	494.474
1433.0000	494.061
1434.0000	492.811
1435.0000	492.907
1436.0000	496.489
1437.0000	495.672
1438.0000	494.697
1439.0000	493.383
1440.0000	491.141
1441.0000	491.583
1442.0000	493.427
1443.0000	490.192
1444.0000	490.81
1445.0000	495.334
1446.0000	494.279
1447.0000	493.375
1448.0000	491.639
1449.0000	492.628
1450.0000	488.509
1451.0000	488.68
1452.0000	495.725
1453.0000	494.875
1454.0000	493.104
1455.0000	495.438
1456.0000	496.496
1457.0000	493.572
1458.0000	491.749
1459.0000	496.815
1460.0000	495.9
1461.0000	490.384
1462.0000	496.318
1463.0000	499.001
1464.0000	495.445
1465.0000	493.165
1466.0000	493.655
1467.0000	491.765
1468.0000	488.302
1469.0000	492.938
1470.0000	493.784
1471.0000	489.749
1472.0000	491.264
1473.0000	491.865
1474.0000	488.286
1475.0000	490.759
1476.0000	492.04
1477.0000	489.736
1478.0000	494.127
1479.0000	499.987
1480.0000	498.752
1481.0000	493.285
1482.0000	493.004
1483.0000	492.352
1484.0000	493.434
1485.0000	495.897
1486.0000	494.471
1487.0000	495.549
1488.0000	497.292
1489.0000	494.781
1490.0000	494.384
1491.0000	496.218
1492.0000	493.382
1493.0000	495.219
1494.0000	499.858
1495.0000	498.439
1496.0000	492.292
1497.0000	492.124
1498.0000	496.388
1499.0000	497.303
1500.0000	498.523
1501.0000	498.721
1502.0000	498.947
1503.0000	495.207
1504.0000	491.264
1505.0000	493.041
1506.0000	495.227
1507.0000	493.234
1508.0000	494.374
1509.0000	497.903
1510.0000	494.673
1511.0000	496.107
1512.0000	497.246
1513.0000	494.235
1514.0000	496.289
1515.0000	494.771
1516.0000	492.662
1517.0000	493.522
1518.0000	495.962
1519.0000	494.279
1520.0000	492.727
1521.0000	494.853
1522.0000	493.993
1523.0000	495.243
1524.0000	497.448
1525.0000	496.913
1526.0000	494.65
1527.0000	497.043
1528.0000	497.755
1529.0000	497.127
1530.0000	497.739
1531.0000	497.039
1532.0000	496.111
1533.0000	493.191
1534.0000	491.823
1535.0000	492.914
1536.0000	494.46
1537.0000	496.941
1538.0000	497.014
1539.0000	496.196
1540.0000	498.484
1541.0000	498.322
1542.0000	497.243
1543.0000	495.98
1544.0000	496.519
1545.0000	498.426
1546.0000	497.475
1547.0000	498.397
1548.0000	495.998
1549.0000	493.201
1550.0000	495.749
1551.0000	497.923
1552.0000	497.263
1553.0000	496.126
1554.0000	497.001
1555.0000	495.525
1556.0000	497.399
1557.0000	498.356
1558.0000	495.814
1559.0000	498.33
1560.0000	498.596
1561.0000	497.493
1562.0000	497.901
1563.0000	497.167
1564.0000	499.451
1565.0000	496.81
1566.0000	493.657
1567.0000	496.533
1568.0000	495.823
1569.0000	495.578
1570.0000	497.087
1571.0000	497.673
1572.0000	495.154
1573.0000	499.179
1574.0000	502.802
1575.0000	498.164
1576.0000	495.629
1577.0000	493.121
1578.0000	492.419
1579.0000	496.889
1580.0000	501.271
1581.0000	500.847
1582.0000	500.489
1583.0000	501.556
1584.0000	500.217
1585.0000	500.411
1586.0000	501.003
1587.0000	501.201
1588.0000	500.238
1589.0000	500.159
1590.0000	501.457
1591.0000	499.238
1592.0000	499.06
1593.0000	498.734
1594.0000	501.618
1595.0000	499.972
1596.0000	499.116
1597.0000	502.963
1598.0000	500.893
1599.0000	500.273
1600.0000	501.334
1601.0000	500.534
1602.0000	497.898
1603.0000	496.916
1604.0000	495.503
1605.0000	495.527
1606.0000	496.001
1607.0000	496.111
1608.0000	498.907
1609.0000	499.301
1610.0000	497.274
1611.0000	497.569
1612.0000	497.515
1613.0000	499.774
1614.0000	503.538
1615.0000	499.298
1616.0000	498.502
1617.0000	502.323
1618.0000	501.669
1619.0000	503.215
1620.0000	500.832
1621.0000	498.841
1622.0000	508.123
1623.0000	506.15
1624.0000	498.44
1625.0000	497.281
1626.0000	501.7
1627.0000	503.803
1628.0000	502.895
1629.0000	500.124
1630.0000	500.408
1631.0000	506.391
1632.0000	503.592
1633.0000	501.879
1634.0000	499.259
1635.0000	495.443
1636.0000	496.442
1637.0000	497.349
1638.0000	503.048
1639.0000	502.171
1640.0000	499.265
1641.0000	501.695
1642.0000	498.345
1643.0000	500.945
1644.0000	500.141
1645.0000	496.873
1646.0000	499.427
1647.0000	500.026
1648.0000	498.532
1649.0000	498.938
1650.0000	500.615
1651.0000	501.665
1652.0000	503.139
1653.0000	502.326
1654.0000	501.495
1655.0000	503.184
1656.0000	499.97
1657.0000	497.143
1658.0000	495.883
1659.0000	497.146
1660.0000	500.354
1661.0000	501.367
1662.0000	502.635
1663.0000	504.595
1664.0000	504.316
1665.0000	499.811
1666.0000	499.201
1667.0000	503.097
1668.0000	501.482
1669.0000	500.381
1670.0000	500.887
1671.0000	500.34
1672.0000	502.763
1673.0000	503.031
1674.0000	500.863
1675.0000	503.196
1676.0000	504.587
1677.0000	500.494
1678.0000	500.327
1679.0000	501.318
1680.0000	501.166
1681.0000	496.416
1682.0000	494.23
1683.0000	497.214
1684.0000	499.408
1685.0000	500.083
1686.0000	498.634
1687.0000	499.412
1688.0000	500.657
1689.0000	503.239
1690.0000	506.041
1691.0000	503.52
1692.0000	502.276
1693.0000	499.705
1694.0000	497.064
1695.0000	500.053
1696.0000	499.367
1697.0000	498.402
1698.0000	504.182
1699.0000	506.317
1700.0000	500.629
1701.0000	501.64
1702.0000	503.983
1703.0000	501.427
1704.0000	503.491
1705.0000	505.488
1706.0000	502.784
1707.0000	503.247
1708.0000	505.467
1709.0000	502.178
1710.0000	502.257
1711.0000	501.813
1712.0000	503.131
1713.0000	506.791
1714.0000	508.142
1715.0000	506.173
1716.0000	504.291
1717.0000	504.398
1718.0000	503.926
1719.0000	501.471
1720.0000	498.296
1721.0000	502.319
1722.0000	505.025
1723.0000	504.681
1724.0000	503.755
1725.0000	505.821
1726.0000	508.385
1727.0000	502.096
1728.0000	498.059
1729.0000	504.085
1730.0000	506.34
1731.0000	502.552
1732.0000	502.007
1733.0000	501.271
1734.0000	502.09
1735.0000	504.365
1736.0000	499.282
1737.0000	496.827
1738.0000	500.719
1739.0000	502.542
1740.0000	504.997
1741.0000	507.764
1742.0000	506.156
1743.0000	507.104
1744.0000	507.869
1745.0000	504.089
1746.0000	502.402
1747.0000	503.195
1748.0000	502.875
1749.0000	502.954
1750.0000	504.156
1751.0000	502.335
1752.0000	502.362
1753.0000	505.041
1754.0000	506.078
1755.0000	504.183
1756.0000	504.269
1757.0000	506.415
1758.0000	504.92
1759.0000	505.084
1760.0000	505.964
1761.0000	502.611
1762.0000	500.488
1763.0000	504.582
1764.0000	507.565
1765.0000	504.186
1766.0000	505.902
1767.0000	504.768
1768.0000	501.76
1769.0000	501.544
1770.0000	502.829
1771.0000	505.179
1772.0000	505.269
1773.0000	508.485
1774.0000	508.908
1775.0000	507.047
1776.0000	506.835
1777.0000	506.588
1778.0000	504.839
1779.0000	506.03
1780.0000	503.104
1781.0000	504.233
1782.0000	504.748
1783.0000	501.228
1784.0000	502.301
1785.0000	501.946
1786.0000	507.088
1787.0000	505.607
1788.0000	501.477
1789.0000	503.506
1790.0000	505.859
1791.0000	506.124
1792.0000	503.422
1793.0000	502.854
1794.0000	505.062
1795.0000	506.918
1796.0000	507.625
1797.0000	503.537
1798.0000	500.582
1799.0000	504.257
1800.0000	506.772
1801.0000	506.653
1802.0000	505.84
1803.0000	506.945
1804.0000	505.766
1805.0000	504.736
1806.0000	505.252
1807.0000	504.643
1808.0000	506.988
1809.0000	505.925
1810.0000	505.27
1811.0000	510.134
1812.0000	511.493
1813.0000	509.395
1814.0000	506.223
1815.0000	506.212
1816.0000	512.066
1817.0000	511.229
1818.0000	505.078
1819.0000	503.32
1820.0000	507.614
1821.0000	507.926
1822.0000	506.129
1823.0000	506.6
1824.0000	506.114
1825.0000	506.101
1826.0000	506.771
1827.0000	510.68
1828.0000	509.49
1829.0000	508.114
1830.0000	508.409
1831.0000	504.9
1832.0000	506.196
1833.0000	507.022
1834.0000	507.83
1835.0000	508.522
1836.0000	504.256
1837.0000	507.02
1838.0000	509.447
1839.0000	509.13
1840.0000	509.135
1841.0000	505.898
1842.0000	506.76
1843.0000	507.166
1844.0000	504.268
1845.0000	505.203
1846.0000	503.438
1847.0000	506.631
1848.0000	511.686
1849.0000	507.603
1850.0000	505.801
1851.0000	508.244
1852.0000	512.236
1853.0000	512.63
1854.0000	510.684
1855.0000	510.957
1856.0000	508.651
1857.0000	506.941
1858.0000	507.312
1859.0000	508.367
1860.0000	509.259
1861.0000	508.293
1862.0000	508.251
1863.0000	509.622
1864.0000	509.411
1865.0000	507.543
1866.0000	509.126
1867.0000	511.727
1868.0000	510.534
1869.0000	510.833
1870.0000	509.837
1871.0000	507.791
1872.0000	510.502
1873.0000	507.35
1874.0000	507.474
1875.0000	512.501
1876.0000	508.427
1877.0000	506.492
1878.0000	510.205
1879.0000	516.263
1880.0000	515.964
1881.0000	508.076
1882.0000	504.709
1883.0000	505.973
1884.0000	511.143
1885.0000	511.595
1886.0000	511.285
1887.0000	513.728
1888.0000	511.633
1889.0000	508.606
1890.0000	505.733
1891.0000	509.342
1892.0000	515.955
1893.0000	512.578
1894.0000	508.815
1895.0000	508.859
1896.0000	507.56
1897.0000	510.485
1898.0000	511.086
1899.0000	511.053
1900.0000	511.431
1901.0000	506.337
1902.0000	507.158
1903.0000	511.5
1904.0000	510.121
1905.0000	510.594
1906.0000	510.231
1907.0000	507.311
1908.0000	509.973
1909.0000	509.487
1910.0000	507.129
1911.0000	509.079
1912.0000	506.014
1913.0000	506.144
1914.0000	510.172
1915.0000	507.767
1916.0000	506.663
1917.0000	508.215
1918.0000	506.438
1919.0000	505.072
1920.0000	508.612
1921.0000	512.18
1922.0000	513.513
1923.0000	511.923
1924.0000	511.317
1925.0000	512.25
1926.0000	507.583
1927.0000	506.05
1928.0000	511.161
1929.0000	515.17
1930.0000	513.665
1931.0000	510.677
1932.0000	510.652
1933.0000	510.991
1934.0000	511.306
1935.0000	510.138
1936.0000	509.193
1937.0000	514.295
1938.0000	516.268
1939.0000	514.448
1940.0000	512.099
1941.0000	513.389
1942.0000	514.783
1943.0000	509.032
1944.0000	508.362
1945.0000	513.651
1946.0000	513.92
1947.0000	512.201
1948.0000	511.849
1949.0000	511.2
1950.0000	511.653
1951.0000	510.617
1952.0000	511.824
1953.0000	513.848
1954.0000	514.121
1955.0000	511.861
1956.0000	511.111
1957.0000	512.232
1958.0000	511.326
1959.0000	508.017
1960.0000	507.158
1961.0000	505.873
1962.0000	509.451
1963.0000	513.078
1964.0000	508.076
1965.0000	512.439
1966.0000	512.811
1967.0000	508.896
1968.0000	511.474
1969.0000	507.77
1970.0000	508.103
1971.0000	515.551
1972.0000	515.547
1973.0000	512.035
1974.0000	509.339
1975.0000	510.485
1976.0000	511.924
1977.0000	515.082
1978.0000	516.204
1979.0000	513.183
1980.0000	514.579
1981.0000	514.905
1982.0000	517.645
1983.0000	521.191
1984.0000	517.798
1985.0000	514.795
1986.0000	511.204
1987.0000	508.257
1988.0000	508.949
1989.0000	510.304
1990.0000	514.293
1991.0000	513.978
1992.0000	509.682
1993.0000	511.242
1994.0000	519.134
1995.0000	515.113
1996.0000	513.133
1997.0000	516.526
1998.0000	513.576
1999.0000	514.717
2000.0000	515.083
2001.0000	516.151
2002.0000	515.841
2003.0000	515.402
2004.0000	515.414
2005.0000	515.151
2006.0000	517.163
2007.0000	512.188
2008.0000	513.526
2009.0000	516.133
2010.0000	511.477
2011.0000	513.248
2012.0000	511.538
2013.0000	512.567
2014.0000	514.17
2015.0000	512.29
2016.0000	510.238
2017.0000	507.619
2018.0000	514.267
2019.0000	518.499
2020.0000	515.004
2021.0000	518.374
2022.0000	519.379
2023.0000	514.816
2024.0000	518.765
2025.0000	519.875
2026.0000	515.962
2027.0000	518.688
2028.0000	517.316
2029.0000	514.79
2030.0000	516.247
2031.0000	517.727
2032.0000	515.449
2033.0000	513.796
2034.0000	517.992
2035.0000	520.414
2036.0000	519.414
2037.0000	512.201
2038.0000	512.569
2039.0000	514.437
2040.0000	514.151
2041.0000	515.814
2042.0000	518.14
2043.0000	517.77
2044.0000	516.714
2045.0000	517.369
2046.0000	511.75
2047.0000	510.105
2048.0000	514.057
2049.0000	515.69
2050.0000	514.468
2051.0000	515.122
2052.0000	517.004
2053.0000	516.128
2054.0000	515.1
2055.0000	519.377
2056.0000	517.967
2057.0000	513.209
2058.0000	515.28
2059.0000	515.544
2060.0000	517.139
2061.0000	514.501
2062.0000	509.8
2063.0000	511.406
2064.0000	516.392
2065.0000	518.372
2066.0000	515.668
2067.0000	517.148
2068.0000	516.626
2069.0000	511.36
2070.0000	513.643
2071.0000	519.395
2072.0000	519.455
2073.0000	519.748
2074.0000	520.383
2075.0000	516.201
2076.0000	513.947
2077.0000	515.221
2078.0000	518.052
2079.0000	519.463
2080.0000	518.547
2081.0000	516.333
2082.0000	515.168
2083.0000	523.216
2084.0000	524.346
2085.0000	520.894
2086.0000	519.256
2087.0000	516.328
2088.0000	514.366
2089.0000	513.497
2090.0000	518.624
2091.0000	522.984
2092.0000	521.01
2093.0000	518.547
2094.0000	519.717
2095.0000	521.119
2096.0000	519.3
2097.0000	518.058
2098.0000	517.738
2099.0000	514.498
2100.0000	517.682
2101.0000	522.007
2102.0000	519.304
2103.0000	518.398
2104.0000	519.691
2105.0000	519.942
2106.0000	518.519
2107.0000	519.407
2108.0000	520.682
2109.0000	520.316
2110.0000	519.365
2111.0000	517.6
2112.0000	515.887
2113.0000	518.725
2114.0000	520.21
2115.0000	517.67
2116.0000	516.84
2117.0000	518.808
2118.0000	517.141
2119.0000	515.182
2120.0000	518.124
2121.0000	518.45
2122.0000	516.438
2123.0000	513.887
2124.0000	516.216
2125.0000	518.455
2126.0000	517.411
2127.0000	520.839
2128.0000	521.781
2129.0000	517.295
2130.0000	519.041
2131.0000	520.609
2132.0000	517.629
2133.0000	517.108
2134.0000	517.38
2135.0000	521.921
2136.0000	522.223
2137.0000	520.208
2138.0000	520.398
2139.0000	516.134
2140.0000	518.757
2141.0000	521.856
2142.0000	521.36
2143.0000	523.712
2144.0000	522.843
2145.0000	519.984
2146.0000	521.013
2147.0000	520.758
2148.0000	521.65
2149.0000	523.074
2150.0000	521.397
2151.0000	520.065
2152.0000	522.568
2153.0000	525.06
2154.0000	522.677
2155.0000	516.664
2156.0000	518.339
2157.0000	520.81
2158.0000	517.953
2159.0000	518.757
2160.0000	519.8
2161.0000	516.662
2162.0000	517.106
2163.0000	521.69
2164.0000	522.416
2165.0000	521.822
2166.0000	523.751
2167.0000	524.079
2168.0000	521.953
2169.0000	519.528
2170.0000	517.262
2171.0000	521.641
2172.0000	522.725
2173.0000	520.86
2174.0000	520.67
2175.0000	523.016
2176.0000	525.872
2177.0000	524.951
2178.0000	526.426
2179.0000	527.14
2180.0000	523.013
2181.0000	519.554
2182.0000	519.656
2183.0000	520.434
2184.0000	521.288
2185.0000	520.19
2186.0000	519.345
2187.0000	520.825
2188.0000	523.838
2189.0000	522.66
2190.0000	519.559
2191.0000	522.275
2192.0000	522.921
2193.0000	520.135
2194.0000	521.833
2195.0000	523.403
2196.0000	522.51
2197.0000	522.419
2198.0000	520.615
2199.0000	522.837
2200.0000	522.524
2201.0000	521.464
2202.0000	523.33
2203.0000	523.473
2204.0000	525.893
2205.0000	524.006
2206.0000	519.636
2207.0000	522.711
2208.0000	524.669
2209.0000	523.47
2210.0000	522.69
2211.0000	523.807
2212.0000	520.97
2213.0000	517.121
2214.0000	520.815
2215.0000	525.055
2216.0000	524.928
2217.0000	524.793
2218.0000	525.06
2219.0000	523.254
2220.0000	520.47
2221.0000	522.988
2222.0000	523.671
2223.0000	520.971
2224.0000	521.457
2225.0000	523.968
2226.0000	524.245
2227.0000	522.701
2228.0000	522.196
2229.0000	524.057
2230.0000	523.52
2231.0000	517.376
2232.0000	520.019
2233.0000	525.129
2234.0000	525.065
2235.0000	525.325
2236.0000	526.853
2237.0000	519.927
2238.0000	515.763
2239.0000	523.533
2240.0000	525.733
2241.0000	523.062
2242.0000	524.473
2243.0000	524.138
2244.0000	524.222
2245.0000	525.594
2246.0000	521.067
2247.0000	520.986
2248.0000	525.476
2249.0000	524.408
2250.0000	523.233
2251.0000	525.052
2252.0000	524.507
2253.0000	522.311
2254.0000	523.021
2255.0000	529.424
2256.0000	527.285
2257.0000	523.023
2258.0000	525.531
2259.0000	526.686
2260.0000	529.215
2261.0000	525.299
2262.0000	525.522
2263.0000	528.024
2264.0000	527.016
2265.0000	528.151
2266.0000	528.538
2267.0000	529.054
2268.0000	526.119
2269.0000	527.086
2270.0000	527.538
2271.0000	521.708
2272.0000	523.276
2273.0000	523.177
2274.0000	521.11
2275.0000	525.233
2276.0000	526.305
2277.0000	525.803
2278.0000	524.248
2279.0000	521.818
2280.0000	524.839
2281.0000	528.27
2282.0000	526.883
2283.0000	527.109
2284.0000	528.489
2285.0000	527.381
2286.0000	524.833
2287.0000	522.725
2288.0000	522.586
2289.0000	525.576
2290.0000	528.623
2291.0000	529.34
2292.0000	527.995
2293.0000	526.7
2294.0000	523.078
2295.0000	521.41
2296.0000	523.28
2297.0000	522.618
2298.0000	525.73
2299.0000	529.547
2300.0000	531.028
2301.0000	530.333
2302.0000	530.827
2303.0000	531.76
2304.0000	524.248
2305.0000	523.212
2306.0000	530.626
2307.0000	528.13
2308.0000	523.304
2309.0000	524.492
2310.0000	525.373
2311.0000	528.449
2312.0000	529.902
2313.0000	527.872
2314.0000	526.201
2315.0000	523.609
2316.0000	524.378
2317.0000	528.645
2318.0000	532.325
2319.0000	530.354
2320.0000	527.306
2321.0000	529.53
2322.0000	527.805
2323.0000	523.424
2324.0000	523.99
2325.0000	528.355
2326.0000	527.296
2327.0000	527.776
2328.0000	533.834
2329.0000	528.566
2330.0000	528.788
2331.0000	531.809
2332.0000	528.483
2333.0000	527.771
2334.0000	525.181
2335.0000	523.371
2336.0000	523.508
2337.0000	527.651
2338.0000	529.355
2339.0000	527.159
2340.0000	526.437
2341.0000	527.652
2342.0000	530.837
2343.0000	525.598
2344.0000	523.609
2345.0000	527.251
2346.0000	527.609
2347.0000	527.576
2348.0000	530.452
2349.0000	530.179
2350.0000	529.446
2351.0000	530.149
2352.0000	523.766
2353.0000	523.068
2354.0000	529.271
2355.0000	530.571
2356.0000	530.541
2357.0000	530.74
2358.0000	528.992
2359.0000	528.979
2360.0000	530.205
2361.0000	531.398
2362.0000	528.971
2363.0000	525.157
2364.0000	530.39
2365.0000	532.474
2366.0000	527.752
2367.0000	526.191
2368.0000	530.017
2369.0000	535.49
2370.0000	535.901
2371.0000	533.412
2372.0000	528.418
2373.0000	527.48
2374.0000	531.513
2375.0000	532.931
2376.0000	531.472
2377.0000	532.368
2378.0000	531.761
2379.0000	527.384
2380.0000	526.57
2381.0000	528.247
2382.0000	527.982
2383.0000	528.163
2384.0000	530.449
2385.0000	531.759
2386.0000	529.636
2387.0000	529.142
2388.0000	534.204
2389.0000	533.769
2390.0000	531.88
2391.0000	533.129
2392.0000	531.836
2393.0000	532.598
2394.0000	533.549
2395.0000	533.957
2396.0000	535.051
2397.0000	531.519
2398.0000	530.63
2399.0000	537.611
2400.0000	533.992
2401.0000	528.161
2402.0000	530.171
2403.0000	530.23
2404.0000	534.242
2405.0000	536.274
2406.0000	530.969
2407.0000	529.356
2408.0000	527.731
2409.0000	526.683
2410.0000	533.116
2411.0000	534.442
2412.0000	531.183
2413.0000	532.754
2414.0000	530.231
2415.0000	527.15
2416.0000	529.116
2417.0000	526.12
2418.0000	528.459
2419.0000	532.448
2420.0000	527.748
2421.0000	529.217
2422.0000	534.407
2423.0000	532.83
2424.0000	530.071
2425.0000	531.762
2426.0000	532.729
2427.0000	530.787
2428.0000	530.434
2429.0000	530.849
2430.0000	529.547
2431.0000	529.488
2432.0000	531.006
2433.0000	530.729
2434.0000	528.611
2435.0000	531.278
2436.0000	531.813
2437.0000	531.066
2438.0000	530.769
2439.0000	531.088
2440.0000	533.942
2441.0000	533.458
2442.0000	533.618
2443.0000	530.327
2444.0000	531.578
2445.0000	533.086
2446.0000	530.485
2447.0000	531.545
2448.0000	530.214
2449.0000	529.997
2450.0000	532.593
2451.0000	533.732
2452.0000	534.959
2453.0000	532.811
2454.0000	532.833
2455.0000	536.417
2456.0000	535.637
2457.0000	533.621
2458.0000	533.127
2459.0000	534.247
2460.0000	536.684
2461.0000	534.753
2462.0000	530.178
2463.0000	526.33
2464.0000	526.943
2465.0000	532.902
2466.0000	533.789
2467.0000	533.305
2468.0000	531.687
2469.0000	534.188
2470.0000	533.759
2471.0000	531.593
2472.0000	534.362
2473.0000	535.745
2474.0000	534.491
2475.0000	533.634
2476.0000	535.23
2477.0000	532.921
2478.0000	531.05
2479.0000	533.927
2480.0000	531.16
2481.0000	531.035
2482.0000	536.171
2483.0000	535.127
2484.0000	537.485
2485.0000	534.795
2486.0000	529.122
2487.0000	531.052
2488.0000	530.67
2489.0000	533.039
2490.0000	534.588
2491.0000	533.979
2492.0000	538.373
2493.0000	538.801
2494.0000	533.728
2495.0000	531.623
2496.0000	532.348
2497.0000	532.281
2498.0000	533.403
2499.0000	536.421
2500.0000	536.922
2501.0000	535.256
2502.0000	533.842
2503.0000	535.311
2504.0000	535.063
2505.0000	535.632
2506.0000	539.535
2507.0000	536.798
2508.0000	531.171
2509.0000	530.665
2510.0000	534.074
2511.0000	532.025
2512.0000	529.824
2513.0000	535.762
2514.0000	532.334
2515.0000	532.182
2516.0000	539.01
2517.0000	540.233
2518.0000	537.282
2519.0000	534.794
2520.0000	535.894
2521.0000	533.832
2522.0000	534.228
2523.0000	535.836
2524.0000	537.486
2525.0000	538.324
2526.0000	536.867
2527.0000	535.149
2528.0000	534.454
2529.0000	534.706
2530.0000	535.191
2531.0000	536.793
2532.0000	536.167
2533.0000	535.249
2534.0000	536.888
2535.0000	536.947
2536.0000	536.848
2537.0000	536.599
2538.0000	539.492
2539.0000	536.084
2540.0000	530.544
2541.0000	535.002
2542.0000	538.326
2543.0000	536.4
2544.0000	533.575
2545.0000	536.371
2546.0000	536.544
2547.0000	534.538
2548.0000	534.996
2549.0000	534.811
2550.0000	538.28
2551.0000	540.283
2552.0000	539.245
2553.0000	536.358
2554.0000	538.602
2555.0000	541.643
2556.0000	538.435
2557.0000	534.769
2558.0000	537.519
2559.0000	545.065
2560.0000	543.837
2561.0000	536.004
2562.0000	536.619
2563.0000	538.183
2564.0000	535.354
2565.0000	541.164
2566.0000	542.557
2567.0000	535.268
2568.0000	536.109
2569.0000	541.313
2570.0000	542.55
2571.0000	539.388
2572.0000	535.928
2573.0000	534.596
2574.0000	535.109
2575.0000	535.905
2576.0000	536.906
2577.0000	538.026
2578.0000	538.645
2579.0000	540.053
2580.0000	538.604
2581.0000	539.407
2582.0000	544.207
2583.0000	542.75
2584.0000	537.784
2585.0000	537.107
2586.0000	537.894
2587.0000	540.181
2588.0000	542.44
2589.0000	540.771
2590.0000	537.619
2591.0000	536.308
2592.0000	534.19
2593.0000	533.908
2594.0000	536.314
2595.0000	537.318
2596.0000	535.768
2597.0000	537.967
2598.0000	538.794
2599.0000	539.399
2600.0000	538.887
2601.0000	534.344
2602.0000	540.451
2603.0000	541.907
2604.0000	539.957
2605.0000	539.822
2606.0000	539.348
2607.0000	539.575
2608.0000	539.9
2609.0000	541.095
2610.0000	539.443
2611.0000	539.781
2612.0000	543.85
2613.0000	541.402
2614.0000	537.961
2615.0000	542.133
2616.0000	542.75
2617.0000	539.722
2618.0000	534.579
2619.0000	535.134
2620.0000	539.768
2621.0000	542.037
2622.0000	541.663
2623.0000	541.083
2624.0000	540.353
2625.0000	539.952
2626.0000	542.31
2627.0000	541.221
2628.0000	541.933
2629.0000	538.089
2630.0000	536.721
2631.0000	537.408
2632.0000	536.245
2633.0000	537.725
2634.0000	535.43
2635.0000	535.76
2636.0000	538.919
2637.0000	540.517
2638.0000	542.522
2639.0000	544.969
2640.0000	546.875
2641.0000	545.34
2642.0000	542.845
2643.0000	542.094
2644.0000	537.932
2645.0000	537.564
2646.0000	542.711
2647.0000	544.388
2648.0000	542.423
2649.0000	541.301
2650.0000	540.798
2651.0000	539.555
2652.0000	538.228
2653.0000	534.742
2654.0000	538.667
2655.0000	543.201
2656.0000	539.231
2657.0000	543.067
2658.0000	542.616
2659.0000	538.074
2660.0000	541.906
2661.0000	545.416
2662.0000	542.426
2663.0000	537.842
2664.0000	539.872
2665.0000	546.781
2666.0000	547.912
2667.0000	543.632
2668.0000	543.984
2669.0000	543.629
2670.0000	540.9
2671.0000	538.604
2672.0000	540.011
2673.0000	542.597
2674.0000	542.163
2675.0000	543.254
2676.0000	540.437
2677.0000	537.824
2678.0000	539.338
2679.0000	542.256
2680.0000	543.227
2681.0000	540.011
2682.0000	539.813
2683.0000	540.324
2684.0000	539.93
2685.0000	538.039
2686.0000	542.668
2687.0000	545.683
2688.0000	541.267
2689.0000	540.578
2690.0000	541.164
2691.0000	544.569
2692.0000	543.225
2693.0000	541.76
2694.0000	543.726
2695.0000	540.961
2696.0000	540.104
2697.0000	542.365
2698.0000	543.675
2699.0000	541.307
2700.0000	540.926
2701.0000	544.136
2702.0000	546.629
2703.0000	546.669
2704.0000	546.593
2705.0000	546.037
2706.0000	541.684
2707.0000	541.954
2708.0000	543.913
2709.0000	544.202
2710.0000	545.561
2711.0000	545.968
2712.0000	544.976
2713.0000	546.606
2714.0000	543.972
2715.0000	542.165
2716.0000	541.125
2717.0000	539.684
2718.0000	545.479
2719.0000	543.21
2720.0000	540.574
2721.0000	542.194
2722.0000	540.254
2723.0000	542.459
2724.0000	541.93
2725.0000	539.803
2726.0000	545.162
2727.0000	544.203
2728.0000	541.241
2729.0000	544.211
2730.0000	544.696
2731.0000	543.914
2732.0000	545.883
2733.0000	544.365
2734.0000	542.565
2735.0000	543.756
2736.0000	541.49
2737.0000	542.609
2738.0000	542.552
2739.0000	538.85
2740.0000	541.694
2741.0000	545.663
2742.0000	547.71
2743.0000	547.91
2744.0000	545.705
2745.0000	544.576
2746.0000	546.321
2747.0000	547.991
2748.0000	544.792
2749.0000	541.53
2750.0000	540.039
2751.0000	540.123
2752.0000	544.917
2753.0000	548.334
2754.0000	547.295
2755.0000	545.298
2756.0000	547.404
2757.0000	548.11
2758.0000	546.224
2759.0000	547.597
2760.0000	546.797
2761.0000	547.613
2762.0000	546.091
2763.0000	546.673
2764.0000	549.92
2765.0000	547.9
2766.0000	547.62
2767.0000	543.336
2768.0000	543.479
2769.0000	548.979
2770.0000	544.646
2771.0000	542.4
2772.0000	547.755
2773.0000	547.572
2774.0000	548.879
2775.0000	546.474
2776.0000	544.003
2777.0000	548.589
2778.0000	546.735
2779.0000	545.209
2780.0000	541.633
2781.0000	539.785
2782.0000	541.153
2783.0000	541.613
2784.0000	543.564
2785.0000	542.459
2786.0000	543.935
2787.0000	547.42
2788.0000	547.293
2789.0000	545.803
2790.0000	544.348
2791.0000	543.742
2792.0000	543.065
2793.0000	545.774
2794.0000	549.635
2795.0000	550.68
2796.0000	548.831
2797.0000	543.773
2798.0000	542.589
2799.0000	544.589
2800.0000	547.684
2801.0000	550.202
2802.0000	547.403
2803.0000	545.627
2804.0000	547.914
2805.0000	545.302
2806.0000	545.196
2807.0000	550.361
2808.0000	547.03
2809.0000	545.229
2810.0000	546.314
2811.0000	545.898
2812.0000	549.108
2813.0000	548.056
2814.0000	544.869
2815.0000	542.497
2816.0000	543.233
2817.0000	544.493
2818.0000	545.353
2819.0000	548.92
2820.0000	548.655
2821.0000	547.847
2822.0000	546.592
2823.0000	543.691
2824.0000	540.898
2825.0000	546.633
2826.0000	548.797
2827.0000	547.706
2828.0000	552.332
2829.0000	548.799
2830.0000	542.107
2831.0000	543.909
2832.0000	548.679
2833.0000	546.571
2834.0000	547.175
2835.0000	552.577
2836.0000	547.644
2837.0000	545.964
2838.0000	546.471
2839.0000	544.193
2840.0000	549.145
2841.0000	548.153
2842.0000	549.931
2843.0000	550.963
2844.0000	550.604
2845.0000	550.525
2846.0000	548.663
2847.0000	548.602
2848.0000	545.917
2849.0000	546.809
2850.0000	549.66
2851.0000	547.917
2852.0000	544.219
2853.0000	545.555
2854.0000	546.886
2855.0000	550.155
2856.0000	553.572
2857.0000	550.801
2858.0000	547.602
2859.0000	548.353
2860.0000	549.041
2861.0000	548.321
2862.0000	550.782
2863.0000	547.09
2864.0000	546.682
2865.0000	552.027
2866.0000	550.216
2867.0000	545.595
2868.0000	547.6
2869.0000	550.04
2870.0000	550.223
2871.0000	555.088
2872.0000	552.694
2873.0000	547.412
2874.0000	544.554
2875.0000	545.732
2876.0000	547.285
2877.0000	548.513
2878.0000	552.118
2879.0000	550.109
2880.0000	552.46
2881.0000	549.331
2882.0000	548.707
2883.0000	552.18
2884.0000	546.846
2885.0000	549.265
2886.0000	552.998
2887.0000	549.789
2888.0000	547.585
2889.0000	548.943
2890.0000	547.798
2891.0000	546.94
2892.0000	551.408
2893.0000	551.608
2894.0000	549.95
2895.0000	548.524
2896.0000	549.332
2897.0000	552.438
2898.0000	551.934
2899.0000	549.978
2900.0000	548.323
2901.0000	546.598
2902.0000	549.647
2903.0000	552.182
2904.0000	550.244
2905.0000	551.511
2906.0000	549.501
2907.0000	546.643
2908.0000	547.549
2909.0000	549.45
2910.0000	548.21
2911.0000	543.706
2912.0000	544.11
2913.0000	548.344
2914.0000	552.086
2915.0000	551.458
2916.0000	552.013
2917.0000	551.19
2918.0000	550.83
2919.0000	553.599
2920.0000	553.769
2921.0000	550.762
2922.0000	546.906
2923.0000	546.54
2924.0000	544.194
2925.0000	549.165
2926.0000	550.2
2927.0000	546.316
2928.0000	551.849
2929.0000	551.57
2930.0000	548.86
2931.0000	551.116
2932.0000	551.444
2933.0000	550.4
2934.0000	547.052
2935.0000	546.264
2936.0000	550.137
2937.0000	545.842
2938.0000	544.363
2939.0000	551.257
2940.0000	552.203
2941.0000	548.134
2942.0000	549.027
2943.0000	552.468
2944.0000	554.313
2945.0000	549.425
2946.0000	544.376
2947.0000	550.439
2948.0000	553.276
2949.0000	551.021
2950.0000	551.399
2951.0000	549.038
2952.0000	548.165
2953.0000	552.146
2954.0000	552.145
2955.0000	551.602
2956.0000	551.241
2957.0000	550.783
2958.0000	553.312
2959.0000	553.689
2960.0000	548.245
2961.0000	547.256
2962.0000	552.605
2963.0000	555.52
2964.0000	555.071
2965.0000	552.323
2966.0000	553.485
2967.0000	555.88
2968.0000	554.136
2969.0000	555.134
2970.0000	551.538
2971.0000	551.41
2972.0000	552.751
2973.0000	550.752
2974.0000	549.812
2975.0000	551.043
2976.0000	553.751
2977.0000	553.137
2978.0000	552.462
2979.0000	551.125
2980.0000	551.449
2981.0000	550.376
2982.0000	548.252
2983.0000	552.1
2984.0000	553.701
2985.0000	551.802
2986.0000	550.82
2987.0000	550.139
2988.0000	547.089
2989.0000	548.067
2990.0000	551.78
2991.0000	550.082
2992.0000	551.414
2993.0000	550.345
2994.0000	549.303
2995.0000	551.063
2996.0000	550.954
2997.0000	553.884
2998.0000	554.708
2999.0000	551.501
3000.0000	554.598
3001.0000	552.928
3002.0000	553.561
3003.0000	554.935
3004.0000	555.131
3005.0000	554.423
3006.0000	549.213
3007.0000	548.51
3008.0000	553.807
3009.0000	557.518
3010.0000	557.711
3011.0000	556.402
3012.0000	553.909
3013.0000	553.631
3014.0000	551.943
3015.0000	549.75
3016.0000	547.658
3017.0000	547.762
3018.0000	549.568
3019.0000	554.983
3020.0000	556.439
3021.0000	555.73
3022.0000	553.377
3023.0000	552.747
3024.0000	549.883
3025.0000	547.689
3026.0000	551.656
3027.0000	552.834
3028.0000	550.894
3029.0000	548.373
3030.0000	549.107
3031.0000	548.329
3032.0000	548.428
3033.0000	552.534
3034.0000	554.858
3035.0000	555.338
3036.0000	557.534
3037.0000	554.083
3038.0000	553.071
3039.0000	554.651
3040.0000	553.878
3041.0000	553.863
3042.0000	552.977
3043.0000	552.948
3044.0000	554.419
3045.0000	553.234
3046.0000	550.813
3047.0000	553.61
3048.0000	553.665
3049.0000	550.84
3050.0000	550.441
3051.0000	550.742
3052.0000	550.727
3053.0000	547.668
3054.0000	549.565
3055.0000	553.645
3056.0000	555.012
3057.0000	553.178
3058.0000	553.592
3059.0000	553.302
3060.0000	552.436
3061.0000	553.077
3062.0000	547.485
3063.0000	547.981
3064.0000	553.272
3065.0000	554.552
3066.0000	557.67
3067.0000	559.235
3068.0000	553.328
3069.0000	554.825
3070.0000	556.573
3071.0000	555.208
3072.0000	559.829
3073.0000	558.443
3074.0000	553.835
3075.0000	551.836
3076.0000	554.912
3077.0000	557.862
3078.0000	553.122
3079.0000	552.17
3080.0000	554.407
3081.0000	556.606
3082.0000	553.666
3083.0000	550.234
3084.0000	551.527
3085.0000	550.48
3086.0000	551.335
3087.0000	551.692
3088.0000	550.793
3089.0000	551.337
3090.0000	553.025
3091.0000	555.19
3092.0000	554.293
3093.0000	554.372
3094.0000	554.963
3095.0000	553.337
3096.0000	551.38
3097.0000	548.73
3098.0000	549.321
3099.0000	558.201
3100.0000	559.271
3101.0000	552.646
3102.0000	552.821
3103.0000	555.666
3104.0000	551.188
3105.0000	548.816
3106.0000	552.942
3107.0000	552.566
3108.0000	556.017
3109.0000	558.059
3110.0000	551.786
3111.0000	550.992
3112.0000	558.177
3113.0000	557.773
3114.0000	552.392
3115.0000	552.822
3116.0000	557.783
3117.0000	556.514
3118.0000	555.282
3119.0000	554.349
3120.0000	552.33
3121.0000	555.19
3122.0000	553.522
3123.0000	552.776
3124.0000	553.743
3125.0000	554.057
3126.0000	553.589
3127.0000	555.437
3128.0000	557.767
3129.0000	555.396
3130.0000	554.758
3131.0000	555.353
3132.0000	555.327
3133.0000	555.257
3134.0000	554.911
3135.0000	555.733
3136.0000	557.359
3137.0000	559.262
3138.0000	555.096
3139.0000	553.404
3140.0000	558.017
3141.0000	553.993
3142.0000	553.687
3143.0000	555.319
3144.0000	556.26
3145.0000	554.665
3146.0000	552.191
3147.0000	558.903
3148.0000	559.188
3149.0000	553.835
3150.0000	555.385
3151.0000	560.673
3152.0000	559.066
3153.0000	555.91
3154.0000	556.978
3155.0000	558.105
3156.0000	557.87
3157.0000	556.496
3158.0000	556.543
3159.0000	555.507
3160.0000	553.807
3161.0000	557.253
3162.0000	560.359
3163.0000	558.568
3164.0000	553.096
3165.0000	552.802
3166.0000	553.899
3167.0000	553.609
3168.0000	556.385
3169.0000	554.29
3170.0000	551.871
3171.0000	552.778
3172.0000	553.354
3173.0000	551.662
3174.0000	550.436
3175.0000	550.272
3176.0000	552.131
3177.0000	554.434
3178.0000	553.115
3179.0000	551.683
3180.0000	554.627
3181.0000	554.541
3182.0000	553.705
3183.0000	557.942
3184.0000	558.806
3185.0000	558.705
3186.0000	556.269
3187.0000	553.253
3188.0000	554.264
3189.0000	555.559
3190.0000	556.14
3191.0000	553.411
3192.0000	556.163
3193.0000	557.294
3194.0000	556.144
3195.0000	557.381
3196.0000	559.222
3197.0000	558.594
3198.0000	552.143
3199.0000	548.63
3200.0000	550.995
3201.0000	558.173
3202.0000	556.661
3203.0000	553.617
3204.0000	554.096
3205.0000	555.375
3206.0000	554.211
3207.0000	550.885
3208.0000	551.886
3209.0000	551.327
3210.0000	554.385
3211.0000	558.054
3212.0000	559.031
3213.0000	559.759
3214.0000	557.97
3215.0000	555.609
3216.0000	554.618
3217.0000	551.256
3218.0000	549.352
3219.0000	552.738
3220.0000	553.718
3221.0000	558.045
3222.0000	563.327
3223.0000	560.191
3224.0000	555.874
3225.0000	554.838
3226.0000	556.594
3227.0000	553.956
3228.0000	554.717
3229.0000	558.705
3230.0000	557.466
3231.0000	555.925
3232.0000	555.361
3233.0000	557.577
3234.0000	557.481
3235.0000	556.958
3236.0000	554.73
3237.0000	553.461
3238.0000	553.745
3239.0000	551.954
3240.0000	551.868
3241.0000	552.294
3242.0000	555.857
3243.0000	561.297
3244.0000	557.411
3245.0000	551.304
3246.0000	550.78
3247.0000	557.35
3248.0000	558.442
3249.0000	554.782
3250.0000	555.101
3251.0000	554.894
3252.0000	557.527
3253.0000	555.094
3254.0000	551.83
3255.0000	555.159
3256.0000	553.877
3257.0000	555.049
3258.0000	555.288
3259.0000	550.961
3260.0000	556.642
3261.0000	555.671
3262.0000	555.169
3263.0000	557.903
3264.0000	554.206
3265.0000	553.93
3266.0000	557.003
3267.0000	558.565
3268.0000	556.383
3269.0000	556.527
3270.0000	556.145
3271.0000	555.725
3272.0000	557.881
3273.0000	557.002
3274.0000	554.098
3275.0000	555.937
3276.0000	557.207
3277.0000	556.857
3278.0000	560.952
3279.0000	559.69
3280.0000	555.367
3281.0000	554.538
3282.0000	556.145
3283.0000	557.816
3284.0000	558.423
3285.0000	557.964
3286.0000	554.906
3287.0000	555.788
3288.0000	559.578
3289.0000	558.839
3290.0000	560.337
3291.0000	558.193
3292.0000	557.772
3293.0000	561.087
3294.0000	557.232
3295.0000	557.501
3296.0000	555.217
3297.0000	554.957
3298.0000	558.346
3299.0000	556.503
3300.0000	554.971
3301.0000	556.318
3302.0000	558.336
3303.0000	557.855
3304.0000	555.378
3305.0000	552.372
3306.0000	551.115
3307.0000	553.026
3308.0000	552.954
3309.0000	554.427
3310.0000	557.993
3311.0000	558.239
3312.0000	559.635
3313.0000	557.305
3314.0000	553.101
3315.0000	553.247
3316.0000	557.993
3317.0000	559.994
3318.0000	559.516
3319.0000	559.191
3320.0000	559.553
3321.0000	562.798
3322.0000	560.091
3323.0000	558.192
3324.0000	558.269
3325.0000	556.665
3326.0000	559.952
3327.0000	560.682
3328.0000	558.409
3329.0000	558.948
3330.0000	561.375
3331.0000	558.837
3332.0000	557.078
3333.0000	556.473
3334.0000	557.488
3335.0000	559.822
3336.0000	555.287
3337.0000	556.644
3338.0000	558.412
3339.0000	554.492
3340.0000	553.01
3341.0000	551.687
3342.0000	552.993
3343.0000	557.656
3344.0000	557.379
3345.0000	558.363
3346.0000	558.899
3347.0000	558.013
3348.0000	556.861
3349.0000	556.458
3350.0000	558.367
3351.0000	557.481
3352.0000	555.769
3353.0000	558.247
3354.0000	559.827
3355.0000	558.638
3356.0000	558.348
3357.0000	558.155
3358.0000	557.963
3359.0000	556.019
3360.0000	558.75
3361.0000	558.232
3362.0000	556.672
3363.0000	558.698
3364.0000	559.058
3365.0000	558.513
3366.0000	558.049
3367.0000	559.381
3368.0000	557.385
3369.0000	553.796
3370.0000	555.248
3371.0000	556.943
3372.0000	560.098
3373.0000	558.885
3374.0000	555.86
3375.0000	555.51
3376.0000	553.657
3377.0000	555.586
3378.0000	561.634
3379.0000	563.428
3380.0000	560.499
3381.0000	561.124
3382.0000	563.418
3383.0000	564.598
3384.0000	558.946
3385.0000	555.557
3386.0000	558.201
3387.0000	557.378
3388.0000	557.877
3389.0000	561.889
3390.0000	561.787
3391.0000	561.577
3392.0000	561.335
3393.0000	559.232
3394.0000	557.894
3395.0000	553.806
3396.0000	552.137
3397.0000	553.338
3398.0000	553.833
3399.0000	555.555
3400.0000	560.94
3401.0000	560.214
3402.0000	557.076
3403.0000	559.271
3404.0000	557.729
3405.0000	559.448
3406.0000	563.792
3407.0000	559.109
3408.0000	556.913
3409.0000	563.599
3410.0000	559.983
3411.0000	554.036
3412.0000	556.716
3413.0000	559.967
3414.0000	558.5
3415.0000	555.041
3416.0000	560.664
3417.0000	563.244
3418.0000	557.749
3419.0000	561.178
3420.0000	561.648
3421.0000	554.285
3422.0000	552.369
3423.0000	558.148
3424.0000	559.171
3425.0000	553.908
3426.0000	557.536
3427.0000	562.192
3428.0000	558.202
3429.0000	556.575
3430.0000	557.021
3431.0000	555.655
3432.0000	561.231
3433.0000	563.162
3434.0000	561.239
3435.0000	560.23
3436.0000	560.611
3437.0000	558.85
3438.0000	550.715
3439.0000	555.821
3440.0000	560.76
3441.0000	554.727
3442.0000	552.872
3443.0000	551.693
3444.0000	552.776
3445.0000	557.836
3446.0000	560.358
3447.0000	559.702
3448.0000	560.072
3449.0000	562.946
3450.0000	559.938
3451.0000	555.518
3452.0000	556.492
3453.0000	558
3454.0000	558.488
3455.0000	557.469
3456.0000	555.959
3457.0000	554.898
3458.0000	560.12
3459.0000	560.932
3460.0000	558.149
3461.0000	557.298
3462.0000	556.06
3463.0000	558.749
3464.0000	556.325
3465.0000	555.815
3466.0000	559.358
3467.0000	561.752
3468.0000	565.201
3469.0000	560.488
3470.0000	556.648
3471.0000	555.81
3472.0000	557.418
3473.0000	562.098
3474.0000	561.805
3475.0000	560.027
3476.0000	559.657
3477.0000	561.044
3478.0000	562.448
3479.0000	561.804
3480.0000	560.707
3481.0000	559.694
3482.0000	562.353
3483.0000	562.56
3484.0000	557.427
3485.0000	555.156
3486.0000	555.27
3487.0000	556.307
3488.0000	557.809
3489.0000	559.16
3490.0000	558.354
3491.0000	560.215
3492.0000	559.459
3493.0000	556.463
3494.0000	559.277
3495.0000	559.696
3496.0000	557.698
3497.0000	560.182
3498.0000	558.776
3499.0000	557.164
3500.0000	557.238
3501.0000	555.755
3502.0000	556.488
3503.0000	559.116
3504.0000	561.988
3505.0000	558.676
3506.0000	554.349
3507.0000	557.216
3508.0000	564.225
3509.0000	562.929
3510.0000	561.697
3511.0000	564.336
3512.0000	559.94
3513.0000	559.392
3514.0000	561.082
3515.0000	559.524
3516.0000	555.793
3517.0000	555.589
3518.0000	557.278
3519.0000	557.426
3520.0000	560.302
3521.0000	559.826
3522.0000	556.336
3523.0000	556.143
3524.0000	557.664
3525.0000	558.167
3526.0000	558.765
3527.0000	560.18
3528.0000	558.951
3529.0000	553.895
3530.0000	553.708
3531.0000	557.07
3532.0000	558.705
3533.0000	560.324
3534.0000	557.243
3535.0000	554.339
3536.0000	560.417
3537.0000	561.742
3538.0000	557.077
3539.0000	560.695
3540.0000	563.777
3541.0000	562.399
3542.0000	564.219
3543.0000	559.859
3544.0000	559.129
3545.0000	562.924
3546.0000	559.826
3547.0000	557.437
3548.0000	558.655
3549.0000	556.115
3550.0000	557.688
3551.0000	562.688
3552.0000	559.987
3553.0000	557.194
3554.0000	559.357
3555.0000	562.113
3556.0000	559.102
3557.0000	560.323
3558.0000	565.976
3559.0000	563.396
3560.0000	562.005
3561.0000	558.042
3562.0000	555.213
3563.0000	560.507
3564.0000	561.386
3565.0000	557.835
3566.0000	558.105
3567.0000	563.774
3568.0000	567.28
3569.0000	566.627
3570.0000	559.852
3571.0000	557.527
3572.0000	559.214
3573.0000	556.036
3574.0000	559.505
3575.0000	564.856
3576.0000	560.405
3577.0000	556.502
3578.0000	559.461
3579.0000	564.318
3580.0000	561.344
3581.0000	557.156
3582.0000	559.083
3583.0000	561.74
3584.0000	561.554
3585.0000	560.311
3586.0000	560.911
3587.0000	558.856
3588.0000	558.671
3589.0000	558.763
3590.0000	558.483
3591.0000	564.539
3592.0000	565.397
3593.0000	557.627
3594.0000	556.16
3595.0000	559.506
3596.0000	560.387
3597.0000	560.986
3598.0000	556.196
3599.0000	559.103
3600.0000	564.926
3601.0000	561.134
3602.0000	559.339
3603.0000	559.175
3604.0000	557.962
3605.0000	556.166
3606.0000	561.059
3607.0000	561.743
3608.0000	555.681
3609.0000	558.113
3610.0000	563.243
3611.0000	563.324
3612.0000	559.911
3613.0000	560.182
3614.0000	563.818
3615.0000	565.88
3616.0000	563.334
3617.0000	560.661
3618.0000	562.117
3619.0000	562.006
3620.0000	563.166
3621.0000	561.256
3622.0000	559.744
3623.0000	558.183
3624.0000	553.849
3625.0000	559.367
3626.0000	561.9
3627.0000	559.677
3628.0000	558.239
3629.0000	559.151
3630.0000	563.728
3631.0000	561.142
3632.0000	562.243
3633.0000	564.065
3634.0000	558.962
3635.0000	554.989
3636.0000	559.243
3637.0000	560.458
3638.0000	560.74
3639.0000	561.923
3640.0000	559.266
3641.0000	557.934
3642.0000	559.19
3643.0000	562.333
3644.0000	561.848
3645.0000	560.616
3646.0000	560.584
3647.0000	562.196
3648.0000	565.072
3649.0000	565.444
3650.0000	563.604
3651.0000	562.82
3652.0000	564.903
3653.0000	562.833
3654.0000	554.898
3655.0000	556.294
3656.0000	562.601
3657.0000	565.581
3658.0000	565.519
3659.0000	562.612
3660.0000	559.48
3661.0000	563.59
3662.0000	560.088
3663.0000	556.338
3664.0000	558.882
3665.0000	558.4
3666.0000	557.007
3667.0000	557.573
3668.0000	561.919
3669.0000	562.118
3670.0000	561.01
3671.0000	562.523
3672.0000	560.464
3673.0000	561.116
3674.0000	561.204
3675.0000	559.715
3676.0000	560.142
3677.0000	560.502
3678.0000	561.36
3679.0000	559.737
3680.0000	559.688
3681.0000	555.824
3682.0000	557.951
3683.0000	563.977
3684.0000	561.459
3685.0000	558.28
3686.0000	561.141
3687.0000	558.929
3688.0000	557.795
3689.0000	560.957
3690.0000	563.164
3691.0000	562.067
3692.0000	554.603
3693.0000	553.402
3694.0000	559.733
3695.0000	563.177
3696.0000	561.712
3697.0000	558.704
3698.0000	561.594
3699.0000	560.212
3700.0000	558.875
3701.0000	556.587
3702.0000	557.049
3703.0000	562.375
3704.0000	560.848
3705.0000	561.216
3706.0000	562.054
3707.0000	560.833
3708.0000	561.537
3709.0000	563.008
3710.0000	561.83
3711.0000	559.824
3712.0000	560.516
3713.0000	561.028
3714.0000	558.641
3715.0000	559.809
3716.0000	563.183
3717.0000	566.423
3718.0000	561.65
3719.0000	558.805
3720.0000	560.851
3721.0000	557.388
3722.0000	557.914
3723.0000	558.475
3724.0000	561.275
3725.0000	565.407
3726.0000	563.766
3727.0000	566.1
3728.0000	568.866
3729.0000	564.772
3730.0000	561.252
3731.0000	559.492
3732.0000	558.386
3733.0000	559.078
3734.0000	559.745
3735.0000	562.388
3736.0000	564.597
3737.0000	564.036
3738.0000	563.88
3739.0000	562.137
3740.0000	561.822
3741.0000	562.245
3742.0000	558.902
3743.0000	558.645
3744.0000	561.248
3745.0000	563.573
3746.0000	561.839
3747.0000	560.018
3748.0000	560.161
3749.0000	560.464
3750.0000	564.178
3751.0000	565.088
3752.0000	561.447
3753.0000	561.729
3754.0000	563.786
3755.0000	559.786
3756.0000	558.437
3757.0000	560.226
3758.0000	557.779
3759.0000	560.321
3760.0000	562.692
3761.0000	562.243
3762.0000	559.736
3763.0000	558.704
3764.0000	562.273
3765.0000	558.428
3766.0000	557.673
3767.0000	562.084
3768.0000	559.094
3769.0000	557.448
3770.0000	559.226
3771.0000	562.022
3772.0000	565.738
3773.0000	563.488
3774.0000	559.872
3775.0000	561.458
3776.0000	564.45
3777.0000	567.754
3778.0000	566.105
3779.0000	562.221
3780.0000	563.79
3781.0000	565.351
3782.0000	564.635
3783.0000	565.503
3784.0000	563.541
3785.0000	557.643
3786.0000	557.17
3787.0000	561.027
3788.0000	561.665
3789.0000	564.008
3790.0000	566.535
3791.0000	567.664
3792.0000	563.519
3793.0000	560.831
3794.0000	564.002
3795.0000	562.091
3796.0000	561.869
3797.0000	560.986
3798.0000	561.513
3799.0000	566.511
3800.0000	564.503
3801.0000	559.736
3802.0000	560.899
3803.0000	566.971
3804.0000	567.632
3805.0000	563.203
3806.0000	562.285
3807.0000	566.251
3808.0000	567.425
3809.0000	564.13
3810.0000	562.326
3811.0000	563.078
3812.0000	564.541
3813.0000	563.817
3814.0000	563.922
3815.0000	566.05
3816.0000	564.173
3817.0000	560.492
3818.0000	558.736
3819.0000	559.773
3820.0000	560.589
3821.0000	559.996
3822.0000	561.168
3823.0000	563.218
3824.0000	562.463
3825.0000	563.438
3826.0000	565.07
3827.0000	561.442
3828.0000	558.865
3829.0000	560.694
3830.0000	561.446
3831.0000	562.926
3832.0000	566.21
3833.0000	563.568
3834.0000	563.043
3835.0000	561.807
3836.0000	561.152
3837.0000	566.732
3838.0000	567.321
3839.0000	563.121
3840.0000	560.226
3841.0000	561.287
3842.0000	564.808
3843.0000	563.352
3844.0000	562.262
3845.0000	560.582
3846.0000	556.834
3847.0000	558.742
3848.0000	564.091
3849.0000	566.51
3850.0000	564.739
3851.0000	563.848
3852.0000	564.062
3853.0000	563.465
3854.0000	560.391
3855.0000	564.106
3856.0000	565.884
3857.0000	559.687
3858.0000	561.943
3859.0000	559.385
3860.0000	558.365
3861.0000	560.622
3862.0000	557.399
3863.0000	560.639
3864.0000	561.987
3865.0000	563.064
3866.0000	563.372
3867.0000	559.536
3868.0000	559.923
3869.0000	560.174
3870.0000	558.939
3871.0000	558.927
3872.0000	562.212
3873.0000	564.609
3874.0000	566.121
3875.0000	564.992
3876.0000	562.592
3877.0000	564.439
3878.0000	563.721
3879.0000	562.321
3880.0000	565.058
3881.0000	568.008
3882.0000	566.699
3883.0000	565.021
3884.0000	566.561
3885.0000	564.941
3886.0000	558.382
3887.0000	559.478
3888.0000	565.765
3889.0000	562.122
3890.0000	563.985
3891.0000	567.451
3892.0000	563.005
3893.0000	561.637
3894.0000	561.803
3895.0000	561.318
3896.0000	564.148
3897.0000	567.209
3898.0000	564.073
3899.0000	559.717
3900.0000	559.046
3901.0000	559.086
3902.0000	560.508
3903.0000	564.373
3904.0000	566.764
3905.0000	569.28
3906.0000	569.108
3907.0000	562.246
3908.0000	563.667
3909.0000	565.227
3910.0000	559.188
3911.0000	560.166
3912.0000	562.263
3913.0000	558.462
3914.0000	557.523
3915.0000	564.792
3916.0000	562.006
3917.0000	557.237
3918.0000	562.72
3919.0000	563.56
3920.0000	558.83
3921.0000	559.195
3922.0000	558.588
3923.0000	557.982
3924.0000	563.241
3925.0000	566.644
3926.0000	564.707
3927.0000	566.178
3928.0000	568.911
3929.0000	565.133
3930.0000	561.651
3931.0000	562.18
3932.0000	562.671
3933.0000	562.578
3934.0000	564.613
3935.0000	566.604
3936.0000	568.262
3937.0000	565.248
3938.0000	562.906
3939.0000	563.056
3940.0000	564.452
3941.0000	567.788
3942.0000	567.693
3943.0000	561.342
3944.0000	559.876
3945.0000	565.459
3946.0000	563.688
3947.0000	561.873
3948.0000	564.922
3949.0000	565.655
3950.0000	565.213
3951.0000	565.475
3952.0000	563.613
3953.0000	563.83
3954.0000	565.525
3955.0000	566.906
3956.0000	568.536
3957.0000	569.339
3958.0000	564.853
3959.0000	563.298
3960.0000	565.428
3961.0000	560.177
3962.0000	560.591
3963.0000	567.435
3964.0000	567.752
3965.0000	565.863
3966.0000	564.334
3967.0000	563.243
3968.0000	562.781
3969.0000	563.479
3970.0000	567.34
3971.0000	564.267
3972.0000	561.999
3973.0000	565.999
3974.0000	564.08
3975.0000	563.002
3976.0000	567.167
3977.0000	566.182
3978.0000	561.906
3979.0000	561.131
3980.0000	559.309
3981.0000	561.039
3982.0000	566.858
3983.0000	568.395
3984.0000	570.083
3985.0000	568.049
3986.0000	562.587
3987.0000	559.157
3988.0000	561.195
3989.0000	566.497
3990.0000	562.338
3991.0000	558.989
3992.0000	565.464
3993.0000	566.634
3994.0000	560.8
3995.0000	562.771
3996.0000	566.009
3997.0000	562.95
3998.0000	559.668
3999.0000	562.118
4000.0000	566.74
4001.0000	561.507
4002.0000	557.041
4003.0000	557.401
4004.0000	561.576
4005.0000	567.133
4006.0000	565.737
4007.0000	564.923
4008.0000	568.152
4009.0000	567.581
4010.0000	564.261
4011.0000	565.439
4012.0000	568.012
4013.0000	565.081
4014.0000	563.583
4015.0000	565.447
4016.0000	567.01
4017.0000	567.633
4018.0000	566.006
4019.0000	565.254
4020.0000	565.235
4021.0000	565.195
4022.0000	562.854
4023.0000	565.698
4024.0000	565.821
4025.0000	563.906
4026.0000	565.324
4027.0000	562.142
4028.0000	562.269
4029.0000	564.638
4030.0000	565.634
4031.0000	568.234
4032.0000	566.516
4033.0000	560.694
4034.0000	561.201
4035.0000	565.2
4036.0000	563.946
4037.0000	561.184
4038.0000	563.243
4039.0000	563.268
4040.0000	564.553
4041.0000	570.387
4042.0000	569.31
4043.0000	565.707
4044.0000	563.482
4045.0000	564.047
4046.0000	564.941
4047.0000	564.218
4048.0000	569.007
4049.0000	565.992
4050.0000	564.762
4051.0000	567.132
4052.0000	566.805
4053.0000	570.732
4054.0000	566.367
4055.0000	563.896
4056.0000	562.254
4057.0000	565.726
4058.0000	573.02
4059.0000	568.662
4060.0000	566.635
4061.0000	569.935
4062.0000	567.101
4063.0000	562.971
4064.0000	565.779
4065.0000	566.416
4066.0000	561.755
4067.0000	565.107
4068.0000	574.55
4069.0000	571.886
4070.0000	567.777
4071.0000	565.532
4072.0000	563.94
4073.0000	565.316
4074.0000	566.157
4075.0000	568.708
4076.0000	569.755
4077.0000	570.152
4078.0000	566.626
4079.0000	568.81
4080.0000	569.324
4081.0000	566.723
4082.0000	568.342
4083.0000	567.394
4084.0000	569.474
4085.0000	568.075
4086.0000	566.888
4087.0000	568.352
4088.0000	567.046
4089.0000	568.596
4090.0000	565.416
4091.0000	562.561
4092.0000	563.474
4093.0000	566.758
4094.0000	570.395
4095.0000	567.6
4096.0000	567.334
4097.0000	569.005
4098.0000	566.465
4099.0000	563.513
4100.0000	566.723
4101.0000	567.748
4102.0000	569.414
4103.0000	568.002
4104.0000	566.278
4105.0000	568.54
4106.0000	571.432
4107.0000	569.574
4108.0000	560.709
4109.0000	559.642
4110.0000	564.02
4111.0000	566.707
4112.0000	567.66
4113.0000	568.593
4114.0000	562.331
4115.0000	563.014
4116.0000	567.313
4117.0000	565.168
4118.0000	565.944
4119.0000	567.371
4120.0000	567.805
4121.0000	567.507
4122.0000	567.05
4123.0000	565.231
4124.0000	566.926
4125.0000	569.97
4126.0000	566.876
4127.0000	563.409
4128.0000	564.771
4129.0000	567.253
4130.0000	570.012
4131.0000	569.725
4132.0000	565.673
4133.0000	563.866
4134.0000	567.242
4135.0000	566.439
4136.0000	564.02
4137.0000	563.264
4138.0000	564.383
4139.0000	569.16
4140.0000	570.216
4141.0000	564.157
4142.0000	561.169
4143.0000	564.097
4144.0000	566.468
4145.0000	569.353
4146.0000	566.61
4147.0000	564.534
4148.0000	565.791
4149.0000	563.65
4150.0000	560.612
4151.0000	558.577
4152.0000	562.763
4153.0000	567.871
4154.0000	566.374
4155.0000	561.962
4156.0000	562.663
4157.0000	566.093
4158.0000	567.857
4159.0000	569.392
4160.0000	565.813
4161.0000	563.533
4162.0000	563.419
4163.0000	566.065
4164.0000	564.949
4165.0000	562.215
4166.0000	563.03
4167.0000	566.837
4168.0000	570.275
4169.0000	570.954
4170.0000	568.877
4171.0000	564.745
4172.0000	566.948
4173.0000	569.895
4174.0000	568.631
4175.0000	564.13
4176.0000	561.671
4177.0000	561.724
4178.0000	565.359
4179.0000	563.252
4180.0000	563.292
4181.0000	569.484
4182.0000	571.081
4183.0000	570.657
4184.0000	567.898
4185.0000	566.128
4186.0000	563.859
4187.0000	567.031
4188.0000	566.314
4189.0000	562.894
4190.0000	560.945
4191.0000	558.128
4192.0000	563.108
4193.0000	567.524
4194.0000	568.723
4195.0000	567.445
4196.0000	568.14
4197.0000	568.051
4198.0000	562.826
4199.0000	564.568
4200.0000	565.783
4201.0000	561.699
4202.0000	565.628
4203.0000	566.184
4204.0000	559.425
4205.0000	563.385
4206.0000	569.096
4207.0000	568.677
4208.0000	563.954
4209.0000	560.96
4210.0000	563.079
4211.0000	564.34
4212.0000	566.933
4213.0000	568.14
4214.0000	567.367
4215.0000	568.285
4216.0000	565.715
4217.0000	565.363
4218.0000	565.514
4219.0000	565.356
4220.0000	568.527
4221.0000	566.421
4222.0000	567.637
4223.0000	568.025
4224.0000	568.896
4225.0000	570.163
4226.0000	567.856
4227.0000	569.437
4228.0000	570.762
4229.0000	565.809
4230.0000	563.295
4231.0000	564.546
4232.0000	566.359
4233.0000	569.703
4234.0000	565.37
4235.0000	565.319
4236.0000	571.427
4237.0000	566.478
4238.0000	561.857
4239.0000	559.258
4240.0000	558.208
4241.0000	565.767
4242.0000	569.002
4243.0000	566.011
4244.0000	563.551
4245.0000	560.459
4246.0000	563.685
4247.0000	565.499
4248.0000	562.323
4249.0000	566.895
4250.0000	569.184
4251.0000	566.174
4252.0000	565.114
4253.0000	562.227
4254.0000	560.808
4255.0000	566.861
4256.0000	569.46
4257.0000	567.929
4258.0000	567.395
4259.0000	571.493
4260.0000	571.184
4261.0000	569.915
4262.0000	574.329
4263.0000	572.186
4264.0000	566.56
4265.0000	561.68
4266.0000	565.01
4267.0000	568.355
4268.0000	566.931
4269.0000	565.109
4270.0000	567.445
4271.0000	570.822
4272.0000	564.55
4273.0000	563.129
4274.0000	563.283
4275.0000	562.528
4276.0000	567.09
4277.0000	565.273
4278.0000	566.761
4279.0000	568.931
4280.0000	569.182
4281.0000	569.144
4282.0000	568.316
4283.0000	566.86
4284.0000	560.533
4285.0000	563.352
4286.0000	566.398
4287.0000	568.586
4288.0000	568.459
4289.0000	564.96
4290.0000	564.401
4291.0000	564.632
4292.0000	567.234
4293.0000	565.747
4294.0000	564.518
4295.0000	568.333
4296.0000	568.811
4297.0000	568.939
4298.0000	569.898
4299.0000	568.935
4300.0000	568.334
4301.0000	570.917
4302.0000	568.053
4303.0000	565.446
4304.0000	568.498
4305.0000	567.008
4306.0000	570.376
4307.0000	571.057
4308.0000	566.23
4309.0000	565.654
4310.0000	568.099
4311.0000	569.88
4312.0000	568.734
4313.0000	567.542
4314.0000	565.752
4315.0000	569.266
4316.0000	569.256
4317.0000	562.843
4318.0000	565.1
4319.0000	567.519
4320.0000	567.419
4321.0000	567.374
4322.0000	566.285
4323.0000	565.889
4324.0000	567.974
4325.0000	567.631
4326.0000	569.277
4327.0000	575.938
4328.0000	574.478
4329.0000	568.976
4330.0000	566.441
4331.0000	566.189
4332.0000	566.644
4333.0000	568.441
4334.0000	570.137
4335.0000	565.174
4336.0000	565.694
4337.0000	564.287
4338.0000	561.383
4339.0000	567.098
4340.0000	565.368
4341.0000	566.021
4342.0000	569.049
4343.0000	567.514
4344.0000	568.856
4345.0000	571.045
4346.0000	565.932
4347.0000	561.468
4348.0000	561.414
4349.0000	565.627
4350.0000	569.463
4351.0000	565.398
4352.0000	565.951
4353.0000	566.76
4354.0000	566.423
4355.0000	568.634
4356.0000	565.771
4357.0000	564.895
4358.0000	566.567
4359.0000	563.864
4360.0000	561.492
4361.0000	561.226
4362.0000	565.156
4363.0000	568.331
4364.0000	569.443
4365.0000	569.887
4366.0000	571.209
4367.0000	568.682
4368.0000	562.01
4369.0000	563.696
4370.0000	569.533
4371.0000	569.977
4372.0000	567.004
4373.0000	562.853
4374.0000	563.365
4375.0000	566.614
4376.0000	566.578
4377.0000	569.554
4378.0000	567.538
4379.0000	568.089
4380.0000	568.221
4381.0000	565.973
4382.0000	568.567
4383.0000	568.57
4384.0000	567.725
4385.0000	566.186
4386.0000	569.066
4387.0000	569.223
4388.0000	566.198
4389.0000	566.336
4390.0000	571.492
4391.0000	573.614
4392.0000	568.13
4393.0000	566.009
4394.0000	570.463
4395.0000	568.826
4396.0000	563.883
4397.0000	567.621
4398.0000	566.044
4399.0000	566.176
4400.0000	569.106
4401.0000	567.164
4402.0000	567.696
4403.0000	569.265
4404.0000	569.071
4405.0000	571.616
4406.0000	569.254
4407.0000	564.074
4408.0000	566.35
4409.0000	568.576
4410.0000	566.753
4411.0000	566.28
4412.0000	566.673
4413.0000	566.996
4414.0000	566.778
4415.0000	564.765
4416.0000	567.745
4417.0000	569.339
4418.0000	566.598
4419.0000	564.789
4420.0000	564.559
4421.0000	565.734
4422.0000	566.14
4423.0000	566.092
4424.0000	565.603
4425.0000	563.323
4426.0000	562.919
4427.0000	566.501
4428.0000	571.226
4429.0000	568.623
4430.0000	568.128
4431.0000	567.725
4432.0000	565.308
4433.0000	568.694
4434.0000	571.202
4435.0000	572.166
4436.0000	573.129
4437.0000	571.113
4438.0000	568.246
4439.0000	565.487
4440.0000	563.282
4441.0000	565.136
4442.0000	567.732
4443.0000	566.088
4444.0000	565.838
4445.0000	568.376
4446.0000	571.228
4447.0000	568.982
4448.0000	563.203
4449.0000	565.212
4450.0000	567.683
4451.0000	565.525
4452.0000	564.428
4453.0000	566.558
4454.0000	565.222
4455.0000	568.216
4456.0000	569.635
4457.0000	566.96
4458.0000	569.655
4459.0000	568.745
4460.0000	563.162
4461.0000	567.477
4462.0000	569.917
4463.0000	565.092
4464.0000	565.856
4465.0000	567.028
4466.0000	569.383
4467.0000	569.375
4468.0000	568.769
4469.0000	570.59
4470.0000	569.234
4471.0000	570.917
4472.0000	568.548
4473.0000	566.341
4474.0000	573.796
4475.0000	572.016
4476.0000	570.361
4477.0000	571.162
4478.0000	565.974
4479.0000	563.639
4480.0000	564.894
4481.0000	564.278
4482.0000	564.061
4483.0000	563.161
4484.0000	563.673
4485.0000	566.479
4486.0000	568.483
4487.0000	567.834
4488.0000	568.467
4489.0000	572.032
4490.0000	570.85
4491.0000	569.719
4492.0000	566.874
4493.0000	564.796
4494.0000	566.464
4495.0000	569.147
4496.0000	570
4497.0000	566.554
4498.0000	567.515
4499.0000	566.346
4500.0000	563.544
4501.0000	569.687
4502.0000	569.32
4503.0000	567.385
4504.0000	571.773
4505.0000	573.196
4506.0000	569.695
4507.0000	566.193
4508.0000	564.431
4509.0000	566.574
4510.0000	570.656
4511.0000	570.156
4512.0000	571.73
4513.0000	571.749
4514.0000	570.532
4515.0000	567.827
4516.0000	568.049
4517.0000	569.843
4518.0000	568.866
4519.0000	566.965
4520.0000	569.672
4521.0000	572.986
4522.0000	571.375
4523.0000	571.875
4524.0000	570.995
4525.0000	570.211
4526.0000	567.866
4527.0000	566.61
4528.0000	568.787
4529.0000	567.312
4530.0000	565.489
4531.0000	569.257
4532.0000	569.152
4533.0000	565.295
4534.0000	564.699
4535.0000	571.638
4536.0000	571.376
4537.0000	570.088
4538.0000	571.348
4539.0000	568.332
4540.0000	568.422
4541.0000	569.932
4542.0000	569.554
4543.0000	566.57
4544.0000	564.304
4545.0000	563.37
4546.0000	568.347
4547.0000	572.176
4548.0000	568.412
4549.0000	564.229
4550.0000	563.553
4551.0000	567.12
4552.0000	567.335
4553.0000	564.528
4554.0000	565.165
4555.0000	570.196
4556.0000	573.337
4557.0000	564.258
4558.0000	566.802
4559.0000	572.558
4560.0000	571.869
4561.0000	575.021
4562.0000	571.282
4563.0000	568.353
4564.0000	572.313
4565.0000	575.76
4566.0000	570.259
4567.0000	568.62
4568.0000	570.706
4569.0000	566.492
4570.0000	565.702
4571.0000	568.129
4572.0000	568.436
4573.0000	570.165
4574.0000	569.502
4575.0000	565.453
4576.0000	569.442
4577.0000	573.266
4578.0000	568.067
4579.0000	567.855
4580.0000	567.476
4581.0000	564.154
4582.0000	563.85
4583.0000	566.056
4584.0000	571.013
4585.0000	572.116
4586.0000	572.404
4587.0000	571.114
4588.0000	564.95
4589.0000	560.992
4590.0000	565.141
4591.0000	569.256
4592.0000	567.195
4593.0000	565.817
4594.0000	567.229
4595.0000	565.92
4596.0000	570.442
4597.0000	573.205
4598.0000	567.446
4599.0000	570.109
4600.0000	572.338
4601.0000	571.007
4602.0000	573.18
4603.0000	572.318
4604.0000	571.056
4605.0000	572.489
4606.0000	574.832
4607.0000	574.726
4608.0000	570.123
4609.0000	568.598
4610.0000	569.101
4611.0000	569.786
4612.0000	572.859
4613.0000	571.378
4614.0000	569.591
4615.0000	571.812
4616.0000	570.403
4617.0000	570.538
4618.0000	568.327
4619.0000	568.601
4620.0000	573.838
4621.0000	570.251
4622.0000	569.825
4623.0000	570.092
4624.0000	569.68
4625.0000	567.97
4626.0000	564.848
4627.0000	569.427
4628.0000	571.685
4629.0000	566.446
4630.0000	562.229
4631.0000	565.811
4632.0000	572.372
4633.0000	570.736
4634.0000	565.288
4635.0000	570.448
4636.0000	571.209
4637.0000	568.475
4638.0000	568.029
4639.0000	568.204
4640.0000	569.015
4641.0000	566.526
4642.0000	569.283
4643.0000	569.92
4644.0000	568.636
4645.0000	569.073
4646.0000	567.653
4647.0000	566.388
4648.0000	564.224
4649.0000	566.107
4650.0000	572
4651.0000	568.712
4652.0000	564.346
4653.0000	565.11
4654.0000	568.37
4655.0000	573.366
4656.0000	572.527
4657.0000	567.391
4658.0000	565.684
4659.0000	568.799
4660.0000	568.664
4661.0000	567.158
4662.0000	569.082
4663.0000	566.433
4664.0000	564.996
4665.0000	568.08
4666.0000	569.052
4667.0000	567.787
4668.0000	566.946
4669.0000	566.656
4670.0000	570.538
4671.0000	571.85
4672.0000	570.396
4673.0000	571.244
4674.0000	568.957
4675.0000	568.023
4676.0000	568.236
4677.0000	566.112
4678.0000	568.727
4679.0000	572.919
4680.0000	569.879
4681.0000	568.358
4682.0000	567.343
4683.0000	567.049
4684.0000	570.234
4685.0000	569.697
4686.0000	570.023
4687.0000	575.339
4688.0000	572.283
4689.0000	569.083
4690.0000	566.153
4691.0000	566.425
4692.0000	571.596
4693.0000	569.979
4694.0000	570.678
4695.0000	570.032
4696.0000	566.788
4697.0000	567.663
4698.0000	570.642
4699.0000	572.482
4700.0000	565.811
4701.0000	562.197
4702.0000	567.743
4703.0000	570.557
4704.0000	569.79
4705.0000	566.52
4706.0000	568.844
4707.0000	571.757
4708.0000	570.532
4709.0000	562.978
4710.0000	563.253
4711.0000	571.099
4712.0000	568.251
4713.0000	565.866
4714.0000	566.129
4715.0000	564.527
4716.0000	570.618
4717.0000	576.971
4718.0000	570.828
4719.0000	569.993
4720.0000	571.466
4721.0000	568.914
4722.0000	568.014
4723.0000	566.942
4724.0000	567.784
4725.0000	570.527
4726.0000	569.095
4727.0000	570.298
4728.0000	571.663
4729.0000	564.184
4730.0000	564.125
4731.0000	568.814
4732.0000	567.851
4733.0000	566.402
4734.0000	568.53
4735.0000	567.258
4736.0000	567.908
4737.0000	562.013
4738.0000	552.277
4739.0000	548.434
4740.0000	548.418
4741.0000	549.687
4742.0000	556.986
4743.0000	564.124
4744.0000	562.743
4745.0000	562.29
4746.0000	564.931
4747.0000	564.275
4748.0000	562.355
4749.0000	567.002
4750.0000	567.297
4751.0000	563.735
4752.0000	565.035
4753.0000	569.513
4754.0000	568.182
4755.0000	567.631
4756.0000	566.946
4757.0000	565.878
4758.0000	567.561
4759.0000	566.572
4760.0000	565.063
4761.0000	566.445
4762.0000	565.343
4763.0000	561.483
4764.0000	561.393
4765.0000	566.72
4766.0000	567.282
4767.0000	569.097
4768.0000	572.114
4769.0000	570.949
4770.0000	567.115
4771.0000	562.252
4772.0000	560.294
4773.0000	562.246
4774.0000	565.16
4775.0000	564.821
4776.0000	566.499
4777.0000	567.209
4778.0000	563.898
4779.0000	561.338
4780.0000	564.309
4781.0000	566.956
4782.0000	567.046
4783.0000	573.245
4784.0000	571.857
4785.0000	564.793
4786.0000	563.952
4787.0000	564.847
4788.0000	568.474
4789.0000	565.807
4790.0000	563.601
4791.0000	565.105
4792.0000	565.897
4793.0000	569.342
4794.0000	570.241
4795.0000	565.984
4796.0000	566.181
4797.0000	569.886
4798.0000	566.159
4799.0000	563.156
4800.0000	566.606
4801.0000	563.994
4802.0000	564.772
4803.0000	570.17
4804.0000	565.224
4805.0000	564.602
4806.0000	567.076
4807.0000	562.616
4808.0000	561.347
4809.0000	560.955
4810.0000	562.463
4811.0000	563.13
4812.0000	564.534
4813.0000	566.842
4814.0000	572.148
4815.0000	570.933
4816.0000	567.485
4817.0000	569.808
4818.0000	565.053
4819.0000	562.055
4820.0000	566.815
4821.0000	566.843
4822.0000	562.681
4823.0000	565.983
4824.0000	566.5
4825.0000	567.726
4826.0000	566.214
4827.0000	564.691
4828.0000	565.093
4829.0000	564.425
4830.0000	568.346
4831.0000	568.461
4832.0000	565.087
4833.0000	564.142
4834.0000	565.59
4835.0000	565.492
4836.0000	565.761
4837.0000	566.362
4838.0000	567.383
4839.0000	570.921
4840.0000	572.265
4841.0000	570.749
4842.0000	567.338
4843.0000	565.575
4844.0000	569.457
4845.0000	571.244
4846.0000	567.085
4847.0000	564.053
4848.0000	564.621
4849.0000	567.377
4850.0000	565.796
4851.0000	563.914
4852.0000	563.373
4853.0000	562.631
4854.0000	564.475
4855.0000	566.014
4856.0000	570.643
4857.0000	569.241
4858.0000	563.147
4859.0000	562.524
4860.0000	561.958
4861.0000	563.091
4862.0000	561.148
4863.0000	559.32
4864.0000	567.01
4865.0000	567.274
4866.0000	564.449
4867.0000	566.234
4868.0000	566.732
4869.0000	566.833
4870.0000	568.652
4871.0000	568.616
4872.0000	562.932
4873.0000	563.648
4874.0000	568.888
4875.0000	566.458
4876.0000	562.635
4877.0000	565.906
4878.0000	568.439
4879.0000	567.543
4880.0000	567.906
4881.0000	568.19
4882.0000	568.255
4883.0000	570.512
4884.0000	569.428
4885.0000	567.769
4886.0000	568.056
4887.0000	565.914
4888.0000	570.77
4889.0000	572.886
4890.0000	570.611
4891.0000	568.23
4892.0000	567.704
4893.0000	571.345
4894.0000	571.154
4895.0000	571.833
4896.0000	570.884
4897.0000	566.142
4898.0000	565.445
4899.0000	567.94
4900.0000	569.333
4901.0000	567.603
4902.0000	567.407
4903.0000	568.842
4904.0000	565.672
4905.0000	566.664
4906.0000	568.655
4907.0000	566.203
4908.0000	565.244
4909.0000	565.717
4910.0000	566.163
4911.0000	563.817
4912.0000	562.045
4913.0000	563.315
4914.0000	562.357
4915.0000	564.077
4916.0000	568.503
4917.0000	567.246
4918.0000	567.586
4919.0000	571.392
4920.0000	572.341
4921.0000	567.533
4922.0000	563.002
4923.0000	563.098
4924.0000	563.92
4925.0000	568.295
4926.0000	567.295
4927.0000	562.917
4928.0000	564.073
4929.0000	568.417
4930.0000	570.103
4931.0000	571.832
4932.0000	570.968
4933.0000	567.121
4934.0000	570.91
4935.0000	570.87
4936.0000	566.303
4937.0000	565.753
4938.0000	565.237
4939.0000	563.86
4940.0000	565.142
4941.0000	569.85
4942.0000	569.528
4943.0000	564.733
4944.0000	565.779
4945.0000	567.506
4946.0000	569.913
4947.0000	574.766
4948.0000	572.208
4949.0000	569.385
4950.0000	568.695
4951.0000	562.562
4952.0000	564.571
4953.0000	568.805
4954.0000	565.86
4955.0000	565.867
4956.0000	566.729
4957.0000	568.189
4958.0000	570.089
4959.0000	573.169
4960.0000	570.853
4961.0000	562.865
4962.0000	566.769
4963.0000	571.879
4964.0000	569.053
4965.0000	566.138
4966.0000	563.456
4967.0000	564.664
4968.0000	567.289
4969.0000	572.135
4970.0000	569.929
4971.0000	568.979
4972.0000	568.005
4973.0000	563.989
4974.0000	565.247
4975.0000	566.701
4976.0000	567.166
4977.0000	566.818
4978.0000	567.333
4979.0000	569.243
4980.0000	569.263
4981.0000	570.176
4982.0000	575.152
4983.0000	571.407
4984.0000	566.726
4985.0000	566.394
4986.0000	567.049
4987.0000	567.164
4988.0000	566.037
4989.0000	565.818
4990.0000	564.191
4991.0000	562.98
4992.0000	565.611
4993.0000	565.247
4994.0000	568.709
4995.0000	570.802
4996.0000	565.412
4997.0000	566.894
4998.0000	565.855
4999.0000	563.584
5000.0000	564.675
