TITLE	
DATA TYPE	
ORIGIN	JASCO
OWNER	
DATE	22/04/19
TIME	15:38:09
SPECTROMETER/DATA SYSTEM	
RESOLUTION	
DELTAX	0.5
XUNITS	SEC
YUNITS	INTENSITY
FIRSTX	0.0000
LASTX	2883.5000
NPOINTS	5768
FIRSTY	511.68478
MAXY	511.70001
MINY	-126.69940
XYDATA
0.0000	511.685
0.5000	511.7
1.0000	511.686
1.5000	511.607
2.0000	511.649
2.5000	511.58
3.0000	511.505
3.5000	511.599
4.0000	511.559
4.5000	511.554
5.0000	511.606
5.5000	511.656
6.0000	511.562
6.5000	511.653
7.0000	511.603
7.5000	511.556
8.0000	511.643
8.5000	511.558
9.0000	511.639
9.5000	511.644
10.0000	511.533
10.5000	511.582
11.0000	511.483
11.5000	511.458
12.0000	511.5
12.5000	511.442
13.0000	511.586
13.5000	511.578
14.0000	511.68
14.5000	507.811
15.0000	490.13
15.5000	462.243
16.0000	384.447
16.5000	-126.699
17.0000	-50.5351
17.5000	-34.6186
18.0000	-30.951
18.5000	-29.254
19.0000	-28.3543
19.5000	-27.5499
20.0000	-27.099
20.5000	-26.8595
21.0000	-26.5339
21.5000	-26.4204
22.0000	-26.062
22.5000	180.868
23.0000	260.626
23.5000	257.707
24.0000	255.867
24.5000	244.016
25.0000	235.938
25.5000	235.296
26.0000	235.081
26.5000	234.927
27.0000	234.859
27.5000	234.868
28.0000	234.876
28.5000	234.911
29.0000	234.952
29.5000	234.893
30.0000	234.922
30.5000	234.964
31.0000	234.936
31.5000	235.01
32.0000	235.031
32.5000	235.009
33.0000	235.02
33.5000	235.011
34.0000	234.969
34.5000	234.965
35.0000	234.996
35.5000	235.024
36.0000	235.06
36.5000	235.093
37.0000	235.086
37.5000	235.083
38.0000	235.122
38.5000	235.132
39.0000	235.193
39.5000	235.182
40.0000	235.19
40.5000	235.208
41.0000	235.214
41.5000	235.262
42.0000	235.31
42.5000	235.314
43.0000	235.329
43.5000	235.391
44.0000	235.437
44.5000	235.412
45.0000	235.444
45.5000	235.43
46.0000	235.366
46.5000	235.437
47.0000	235.383
47.5000	235.38
48.0000	235.392
48.5000	235.413
49.0000	235.44
49.5000	235.42
50.0000	235.467
50.5000	235.461
51.0000	235.49
51.5000	235.505
52.0000	235.482
52.5000	235.491
53.0000	235.485
53.5000	235.507
54.0000	235.496
54.5000	235.501
55.0000	235.514
55.5000	235.495
56.0000	235.594
56.5000	235.574
57.0000	235.528
57.5000	235.545
58.0000	235.474
58.5000	235.524
59.0000	235.539
59.5000	235.499
60.0000	235.535
60.5000	235.466
61.0000	235.51
61.5000	235.554
62.0000	235.512
62.5000	235.562
63.0000	235.564
63.5000	235.576
64.0000	235.616
64.5000	235.64
65.0000	235.645
65.5000	235.679
66.0000	235.664
66.5000	235.676
67.0000	235.704
67.5000	235.673
68.0000	235.703
68.5000	235.703
69.0000	235.693
69.5000	235.762
70.0000	235.788
70.5000	235.806
71.0000	235.813
71.5000	235.807
72.0000	235.854
72.5000	235.905
73.0000	235.936
73.5000	236.018
74.0000	236.049
74.5000	236.018
75.0000	236.087
75.5000	236.049
76.0000	236.037
76.5000	236.139
77.0000	236.146
77.5000	236.182
78.0000	236.179
78.5000	236.192
79.0000	236.231
79.5000	236.26
80.0000	236.318
80.5000	236.306
81.0000	236.351
81.5000	236.339
82.0000	236.368
82.5000	236.389
83.0000	236.378
83.5000	236.445
84.0000	236.477
84.5000	236.518
85.0000	236.534
85.5000	236.562
86.0000	236.556
86.5000	236.548
87.0000	236.553
87.5000	236.57
88.0000	236.608
88.5000	236.651
89.0000	236.685
89.5000	236.698
90.0000	236.759
90.5000	236.765
91.0000	236.794
91.5000	236.846
92.0000	236.852
92.5000	236.911
93.0000	236.921
93.5000	236.891
94.0000	236.893
94.5000	236.906
95.0000	236.958
95.5000	237.018
96.0000	237.053
96.5000	237.096
97.0000	237.086
97.5000	237.128
98.0000	237.117
98.5000	237.137
99.0000	237.206
99.5000	237.224
100.0000	237.257
100.5000	237.255
101.0000	237.28
101.5000	237.305
102.0000	237.331
102.5000	237.382
103.0000	237.41
103.5000	237.414
104.0000	237.435
104.5000	237.461
105.0000	237.487
105.5000	237.54
106.0000	237.557
106.5000	237.554
107.0000	237.589
107.5000	237.591
108.0000	237.668
108.5000	237.742
109.0000	237.699
109.5000	237.744
110.0000	237.749
110.5000	237.766
111.0000	237.852
111.5000	237.871
112.0000	237.898
112.5000	237.892
113.0000	237.916
113.5000	237.948
114.0000	237.984
114.5000	238.003
115.0000	237.976
115.5000	237.956
116.0000	237.97
116.5000	238.01
117.0000	238.072
117.5000	238.113
118.0000	238.131
118.5000	238.135
119.0000	238.126
119.5000	238.188
120.0000	238.194
120.5000	238.208
121.0000	238.291
121.5000	238.23
122.0000	238.293
122.5000	238.303
123.0000	238.29
123.5000	238.325
124.0000	238.308
124.5000	238.375
125.0000	238.345
125.5000	238.391
126.0000	238.446
126.5000	238.448
127.0000	238.532
127.5000	238.539
128.0000	238.55
128.5000	238.559
129.0000	238.563
129.5000	238.596
130.0000	238.586
130.5000	238.629
131.0000	238.696
131.5000	238.735
132.0000	238.742
132.5000	238.753
133.0000	238.739
133.5000	238.701
134.0000	238.709
134.5000	238.758
135.0000	238.733
135.5000	238.763
136.0000	238.802
136.5000	238.788
137.0000	238.841
137.5000	238.853
138.0000	238.896
138.5000	238.887
139.0000	238.958
139.5000	238.998
140.0000	239.004
140.5000	239.004
141.0000	239.011
141.5000	239.068
142.0000	239.087
142.5000	239.122
143.0000	239.098
143.5000	239.043
144.0000	239.016
144.5000	239.018
145.0000	239.02
145.5000	239.088
146.0000	239.108
146.5000	239.137
147.0000	239.139
147.5000	239.136
148.0000	239.173
148.5000	239.192
149.0000	239.237
149.5000	239.246
150.0000	239.225
150.5000	239.224
151.0000	239.217
151.5000	239.211
152.0000	239.242
152.5000	239.275
153.0000	239.273
153.5000	239.278
154.0000	239.326
154.5000	239.363
155.0000	239.347
155.5000	239.41
156.0000	239.461
156.5000	239.504
157.0000	239.522
157.5000	239.541
158.0000	239.46
158.5000	239.402
159.0000	239.43
159.5000	239.41
160.0000	239.472
160.5000	239.549
161.0000	239.561
161.5000	239.614
162.0000	239.643
162.5000	239.613
163.0000	239.653
163.5000	239.63
164.0000	239.606
164.5000	239.636
165.0000	239.663
165.5000	239.676
166.0000	239.723
166.5000	239.729
167.0000	239.718
167.5000	239.728
168.0000	239.768
168.5000	239.794
169.0000	239.81
169.5000	239.842
170.0000	239.838
170.5000	239.839
171.0000	239.862
171.5000	239.84
172.0000	239.819
172.5000	239.857
173.0000	239.883
173.5000	239.927
174.0000	239.946
174.5000	239.933
175.0000	239.914
175.5000	239.903
176.0000	239.96
176.5000	239.989
177.0000	240.008
177.5000	240.013
178.0000	239.974
178.5000	239.964
179.0000	239.993
179.5000	240.03
180.0000	240.039
180.5000	240.067
181.0000	240.036
181.5000	240.073
182.0000	240.106
182.5000	240.061
183.0000	240.133
183.5000	240.117
184.0000	240.118
184.5000	240.212
185.0000	240.199
185.5000	240.23
186.0000	240.253
186.5000	240.235
187.0000	240.223
187.5000	240.24
188.0000	240.217
188.5000	240.212
189.0000	240.259
189.5000	240.203
190.0000	240.245
190.5000	240.29
191.0000	240.267
191.5000	240.34
192.0000	240.346
192.5000	240.361
193.0000	240.364
193.5000	240.343
194.0000	240.37
194.5000	240.337
195.0000	240.368
195.5000	240.433
196.0000	240.443
196.5000	240.491
197.0000	240.53
197.5000	240.543
198.0000	240.481
198.5000	240.502
199.0000	240.489
199.5000	240.45
200.0000	240.515
200.5000	240.496
201.0000	240.415
201.5000	240.49
202.0000	240.468
202.5000	240.466
203.0000	240.588
203.5000	240.494
204.0000	240.542
204.5000	240.58
205.0000	240.524
205.5000	240.582
206.0000	240.586
206.5000	240.568
207.0000	240.642
207.5000	240.625
208.0000	240.665
208.5000	240.7
209.0000	240.709
209.5000	240.793
210.0000	240.75
210.5000	240.707
211.0000	240.706
211.5000	240.699
212.0000	240.728
212.5000	240.775
213.0000	240.818
213.5000	240.784
214.0000	240.816
214.5000	240.832
215.0000	240.788
215.5000	240.828
216.0000	240.837
216.5000	240.831
217.0000	240.854
217.5000	240.858
218.0000	240.855
218.5000	240.886
219.0000	240.892
219.5000	240.916
220.0000	240.902
220.5000	240.906
221.0000	240.944
221.5000	240.964
222.0000	241.016
222.5000	241.046
223.0000	241.048
223.5000	241.02
224.0000	241.024
224.5000	240.995
225.0000	241.034
225.5000	241.038
226.0000	241.024
226.5000	241.036
227.0000	241.027
227.5000	241.053
228.0000	241.08
228.5000	241.099
229.0000	241.119
229.5000	241.151
230.0000	241.139
230.5000	241.192
231.0000	241.184
231.5000	241.193
232.0000	241.255
232.5000	241.197
233.0000	241.137
233.5000	241.151
234.0000	241.116
234.5000	241.124
235.0000	241.187
235.5000	241.16
236.0000	241.17
236.5000	241.17
237.0000	241.195
237.5000	241.23
238.0000	241.236
238.5000	241.243
239.0000	241.254
239.5000	241.263
240.0000	241.286
240.5000	241.37
241.0000	241.372
241.5000	241.375
242.0000	241.408
242.5000	241.436
243.0000	241.448
243.5000	241.448
244.0000	241.426
244.5000	241.348
245.0000	241.405
245.5000	241.366
246.0000	241.339
246.5000	241.413
247.0000	241.374
247.5000	241.411
248.0000	241.457
248.5000	241.453
249.0000	241.436
249.5000	241.444
250.0000	241.42
250.5000	241.431
251.0000	241.431
251.5000	241.467
252.0000	241.491
252.5000	241.522
253.0000	241.571
253.5000	241.597
254.0000	241.678
254.5000	241.618
255.0000	241.662
255.5000	241.641
256.0000	241.598
256.5000	241.622
257.0000	241.61
257.5000	241.633
258.0000	241.646
258.5000	241.674
259.0000	241.687
259.5000	241.723
260.0000	241.772
260.5000	241.78
261.0000	241.758
261.5000	241.745
262.0000	241.672
262.5000	241.638
263.0000	241.677
263.5000	241.739
264.0000	241.758
264.5000	241.82
265.0000	241.809
265.5000	241.768
266.0000	241.832
266.5000	241.836
267.0000	241.873
267.5000	241.852
268.0000	241.846
268.5000	241.873
269.0000	241.874
269.5000	241.893
270.0000	241.897
270.5000	241.898
271.0000	241.872
271.5000	241.925
272.0000	241.945
272.5000	241.938
273.0000	241.943
273.5000	241.937
274.0000	241.96
274.5000	241.962
275.0000	241.95
275.5000	241.989
276.0000	241.917
276.5000	241.986
277.0000	242.062
277.5000	242.018
278.0000	242.082
278.5000	242.047
279.0000	242.036
279.5000	242.046
280.0000	242.061
280.5000	242.06
281.0000	242.058
281.5000	242.085
282.0000	242.082
282.5000	242.062
283.0000	242.059
283.5000	242.084
284.0000	242.134
284.5000	242.175
285.0000	242.233
285.5000	242.253
286.0000	242.224
286.5000	242.253
287.0000	242.243
287.5000	242.182
288.0000	242.269
288.5000	242.281
289.0000	242.316
289.5000	242.382
290.0000	242.325
290.5000	242.351
291.0000	242.337
291.5000	242.347
292.0000	242.372
292.5000	242.353
293.0000	242.347
293.5000	242.368
294.0000	242.381
294.5000	242.428
295.0000	242.428
295.5000	242.455
296.0000	242.466
296.5000	242.436
297.0000	242.495
297.5000	242.456
298.0000	242.447
298.5000	242.465
299.0000	242.418
299.5000	242.443
300.0000	242.44
300.5000	242.439
301.0000	242.467
301.5000	242.469
302.0000	242.523
302.5000	242.515
303.0000	242.591
303.5000	242.592
304.0000	242.573
304.5000	242.58
305.0000	242.533
305.5000	242.562
306.0000	242.575
306.5000	242.62
307.0000	242.627
307.5000	242.63
308.0000	242.628
308.5000	242.667
309.0000	242.639
309.5000	242.657
310.0000	242.68
310.5000	242.647
311.0000	242.723
311.5000	242.716
312.0000	242.72
312.5000	242.713
313.0000	242.682
313.5000	242.701
314.0000	242.746
314.5000	242.813
315.0000	242.859
315.5000	242.878
316.0000	242.865
316.5000	242.835
317.0000	242.83
317.5000	242.801
318.0000	242.818
318.5000	242.829
319.0000	242.826
319.5000	242.855
320.0000	242.859
320.5000	242.892
321.0000	242.916
321.5000	242.989
322.0000	242.962
322.5000	242.962
323.0000	243.002
323.5000	242.963
324.0000	243.047
324.5000	243.056
325.0000	243.045
325.5000	243.067
326.0000	243.058
326.5000	243.081
327.0000	243.087
327.5000	243.045
328.0000	243.023
328.5000	243.037
329.0000	243.05
329.5000	243.087
330.0000	243.109
330.5000	243.102
331.0000	243.15
331.5000	243.14
332.0000	243.159
332.5000	243.135
333.0000	243.103
333.5000	243.144
334.0000	243.144
334.5000	243.199
335.0000	243.195
335.5000	243.209
336.0000	243.192
336.5000	243.195
337.0000	243.209
337.5000	243.23
338.0000	243.232
338.5000	243.17
339.0000	243.14
339.5000	243.093
340.0000	243.114
340.5000	243.17
341.0000	243.227
341.5000	243.274
342.0000	243.28
342.5000	243.309
343.0000	243.315
343.5000	243.264
344.0000	243.276
344.5000	243.312
345.0000	243.318
345.5000	243.365
346.0000	243.402
346.5000	243.376
347.0000	243.412
347.5000	243.466
348.0000	243.513
348.5000	243.451
349.0000	243.451
349.5000	243.426
350.0000	243.4
350.5000	243.502
351.0000	243.475
351.5000	243.483
352.0000	243.5
352.5000	243.517
353.0000	243.56
353.5000	243.558
354.0000	243.566
354.5000	243.546
355.0000	243.551
355.5000	243.569
356.0000	243.579
356.5000	243.59
357.0000	243.58
357.5000	243.627
358.0000	243.659
358.5000	243.667
359.0000	243.674
359.5000	243.672
360.0000	243.661
360.5000	243.649
361.0000	243.655
361.5000	243.65
362.0000	243.67
362.5000	243.646
363.0000	243.663
363.5000	243.716
364.0000	243.676
364.5000	243.757
365.0000	243.785
365.5000	243.751
366.0000	243.77
366.5000	243.711
367.0000	243.734
367.5000	243.749
368.0000	243.743
368.5000	243.793
369.0000	243.751
369.5000	243.759
370.0000	243.763
370.5000	243.807
371.0000	243.881
371.5000	243.882
372.0000	243.933
372.5000	243.936
373.0000	243.9
373.5000	243.923
374.0000	243.925
374.5000	243.932
375.0000	243.969
375.5000	243.968
376.0000	244.011
376.5000	244.029
377.0000	244.033
377.5000	244.051
378.0000	243.981
378.5000	243.986
379.0000	243.982
379.5000	243.99
380.0000	244.043
380.5000	244.063
381.0000	244.103
381.5000	244.153
382.0000	244.163
382.5000	244.171
383.0000	244.196
383.5000	244.181
384.0000	244.197
384.5000	244.268
385.0000	244.265
385.5000	244.257
386.0000	244.251
386.5000	244.197
387.0000	244.167
387.5000	244.207
388.0000	244.236
388.5000	244.226
389.0000	244.29
389.5000	244.345
390.0000	244.343
390.5000	244.408
391.0000	244.386
391.5000	244.332
392.0000	244.348
392.5000	244.34
393.0000	244.37
393.5000	244.379
394.0000	244.418
394.5000	244.388
395.0000	244.388
395.5000	244.432
396.0000	244.413
396.5000	244.471
397.0000	244.477
397.5000	244.476
398.0000	244.484
398.5000	244.45
399.0000	244.482
399.5000	244.489
400.0000	244.537
400.5000	244.583
401.0000	244.591
401.5000	244.632
402.0000	244.613
402.5000	244.597
403.0000	244.575
403.5000	244.558
404.0000	244.604
404.5000	244.684
405.0000	244.715
405.5000	244.724
406.0000	244.728
406.5000	244.683
407.0000	244.725
407.5000	244.787
408.0000	244.777
408.5000	244.773
409.0000	244.739
409.5000	244.683
410.0000	244.699
410.5000	244.747
411.0000	244.797
411.5000	244.792
412.0000	244.758
412.5000	244.763
413.0000	244.763
413.5000	244.837
414.0000	244.907
414.5000	244.876
415.0000	244.845
415.5000	244.826
416.0000	244.782
416.5000	244.85
417.0000	244.877
417.5000	244.868
418.0000	244.903
418.5000	244.86
419.0000	244.871
419.5000	244.893
420.0000	244.964
420.5000	244.98
421.0000	245.025
421.5000	245.029
422.0000	244.99
422.5000	245.052
423.0000	245.027
423.5000	245.022
424.0000	245.023
424.5000	244.974
425.0000	244.996
425.5000	245.005
426.0000	245.043
426.5000	245.105
427.0000	245.084
427.5000	245.113
428.0000	245.077
428.5000	245.059
429.0000	245.11
429.5000	245.171
430.0000	245.194
430.5000	245.196
431.0000	245.2
431.5000	245.191
432.0000	245.209
432.5000	245.181
433.0000	245.202
433.5000	245.158
434.0000	245.208
434.5000	245.31
435.0000	245.295
435.5000	245.28
436.0000	245.281
436.5000	245.273
437.0000	245.32
437.5000	245.424
438.0000	245.445
438.5000	245.426
439.0000	245.405
439.5000	245.396
440.0000	245.371
440.5000	245.349
441.0000	245.328
441.5000	245.317
442.0000	245.333
442.5000	245.401
443.0000	245.465
443.5000	245.437
444.0000	245.421
444.5000	245.425
445.0000	245.426
445.5000	245.429
446.0000	245.489
446.5000	245.498
447.0000	245.489
447.5000	245.562
448.0000	245.53
448.5000	245.539
449.0000	245.571
449.5000	245.594
450.0000	245.634
450.5000	245.62
451.0000	245.623
451.5000	245.636
452.0000	245.627
452.5000	245.671
453.0000	245.722
453.5000	245.713
454.0000	245.723
454.5000	245.748
455.0000	245.749
455.5000	245.774
456.0000	245.798
456.5000	245.772
457.0000	245.767
457.5000	245.753
458.0000	245.825
458.5000	245.842
459.0000	245.823
459.5000	245.873
460.0000	245.783
460.5000	245.8
461.0000	245.827
461.5000	245.792
462.0000	245.826
462.5000	245.858
463.0000	245.88
463.5000	245.914
464.0000	245.952
464.5000	245.908
465.0000	245.875
465.5000	245.854
466.0000	245.889
466.5000	245.912
467.0000	245.965
467.5000	246.017
468.0000	245.999
468.5000	246.059
469.0000	246.061
469.5000	246.045
470.0000	246.056
470.5000	246.063
471.0000	246.116
471.5000	246.155
472.0000	246.14
472.5000	246.121
473.0000	246.147
473.5000	246.12
474.0000	246.178
474.5000	246.216
475.0000	246.215
475.5000	246.242
476.0000	246.191
476.5000	246.193
477.0000	246.203
477.5000	246.215
478.0000	246.221
478.5000	246.242
479.0000	246.25
479.5000	246.255
480.0000	246.339
480.5000	246.39
481.0000	246.294
481.5000	246.328
482.0000	246.325
482.5000	246.283
483.0000	246.386
483.5000	246.428
484.0000	246.396
484.5000	246.418
485.0000	246.439
485.5000	246.437
486.0000	246.498
486.5000	246.473
487.0000	246.445
487.5000	246.433
488.0000	246.441
488.5000	246.437
489.0000	246.489
489.5000	246.491
490.0000	246.537
490.5000	246.608
491.0000	246.542
491.5000	246.572
492.0000	246.587
492.5000	246.588
493.0000	246.644
493.5000	246.681
494.0000	246.638
494.5000	246.617
495.0000	246.664
495.5000	246.658
496.0000	246.665
496.5000	246.697
497.0000	246.665
497.5000	246.646
498.0000	246.681
498.5000	246.697
499.0000	246.727
499.5000	246.716
500.0000	246.741
500.5000	246.731
501.0000	246.743
501.5000	246.815
502.0000	246.786
502.5000	246.834
503.0000	246.826
503.5000	246.806
504.0000	246.819
504.5000	246.764
505.0000	246.795
505.5000	246.863
506.0000	246.949
506.5000	246.999
507.0000	247.018
507.5000	247.013
508.0000	246.998
508.5000	247.081
509.0000	247.1
509.5000	247.047
510.0000	247.046
510.5000	247.023
511.0000	247.061
511.5000	247.055
512.0000	247.042
512.5000	247.044
513.0000	247.075
513.5000	247.115
514.0000	247.16
514.5000	247.199
515.0000	247.149
515.5000	247.189
516.0000	247.209
516.5000	247.143
517.0000	247.105
517.5000	247.106
518.0000	247.12
518.5000	247.192
519.0000	247.253
519.5000	247.283
520.0000	247.319
520.5000	247.339
521.0000	247.355
521.5000	247.395
522.0000	247.335
522.5000	247.34
523.0000	247.346
523.5000	247.321
524.0000	247.355
524.5000	247.314
525.0000	247.337
525.5000	247.358
526.0000	247.357
526.5000	247.449
527.0000	247.464
527.5000	247.485
528.0000	247.517
528.5000	247.476
529.0000	247.452
529.5000	247.466
530.0000	247.489
530.5000	247.481
531.0000	247.526
531.5000	247.544
532.0000	247.549
532.5000	247.573
533.0000	247.607
533.5000	247.621
534.0000	247.569
534.5000	247.624
535.0000	247.638
535.5000	247.565
536.0000	247.657
536.5000	247.631
537.0000	247.644
537.5000	247.748
538.0000	247.741
538.5000	247.745
539.0000	247.744
539.5000	247.688
540.0000	247.693
540.5000	247.766
541.0000	247.756
541.5000	247.801
542.0000	247.823
542.5000	247.794
543.0000	247.831
543.5000	247.881
544.0000	247.883
544.5000	247.895
545.0000	247.914
545.5000	247.853
546.0000	247.851
546.5000	247.89
547.0000	247.861
547.5000	247.891
548.0000	247.908
548.5000	247.891
549.0000	247.93
549.5000	247.952
550.0000	247.945
550.5000	247.941
551.0000	247.933
551.5000	247.979
552.0000	248.032
552.5000	248.057
553.0000	248.072
553.5000	248.063
554.0000	248.055
554.5000	248.073
555.0000	248.067
555.5000	248.081
556.0000	248.078
556.5000	248.121
557.0000	248.156
557.5000	248.155
558.0000	248.184
558.5000	248.153
559.0000	248.139
559.5000	248.131
560.0000	248.085
560.5000	248.084
561.0000	248.102
561.5000	248.138
562.0000	248.219
562.5000	248.284
563.0000	248.284
563.5000	248.294
564.0000	248.291
564.5000	248.253
565.0000	248.298
565.5000	248.281
566.0000	248.278
566.5000	248.312
567.0000	248.252
567.5000	248.311
568.0000	248.354
568.5000	248.406
569.0000	248.496
569.5000	248.472
570.0000	248.432
570.5000	248.378
571.0000	248.344
571.5000	248.382
572.0000	248.362
572.5000	248.356
573.0000	248.34
573.5000	248.318
574.0000	248.372
574.5000	248.402
575.0000	248.393
575.5000	248.387
576.0000	248.361
576.5000	248.3
577.0000	248.336
577.5000	248.339
578.0000	248.352
578.5000	248.446
579.0000	248.409
579.5000	248.413
580.0000	248.446
580.5000	248.434
581.0000	248.446
581.5000	248.445
582.0000	248.383
582.5000	248.348
583.0000	248.387
583.5000	248.413
584.0000	248.47
584.5000	248.426
585.0000	248.418
585.5000	248.385
586.0000	248.344
586.5000	248.377
587.0000	248.364
587.5000	248.379
588.0000	248.394
588.5000	248.352
589.0000	248.352
589.5000	248.294
590.0000	248.286
590.5000	248.339
591.0000	248.344
591.5000	248.405
592.0000	248.417
592.5000	248.426
593.0000	248.427
593.5000	248.389
594.0000	248.345
594.5000	248.334
595.0000	248.312
595.5000	248.328
596.0000	248.317
596.5000	248.357
597.0000	248.413
597.5000	248.388
598.0000	248.426
598.5000	248.377
599.0000	248.328
599.5000	248.355
600.0000	248.342
600.5000	248.307
601.0000	248.314
601.5000	248.323
602.0000	248.308
602.5000	248.319
603.0000	248.351
603.5000	248.319
604.0000	248.348
604.5000	248.351
605.0000	248.324
605.5000	248.326
606.0000	248.3
606.5000	248.317
607.0000	248.306
607.5000	248.265
608.0000	248.308
608.5000	248.245
609.0000	248.17
609.5000	248.188
610.0000	248.047
610.5000	248.032
611.0000	248.033
611.5000	247.986
612.0000	248.008
612.5000	247.956
613.0000	247.941
613.5000	247.944
614.0000	247.939
614.5000	247.994
615.0000	248.019
615.5000	247.976
616.0000	247.98
616.5000	247.93
617.0000	247.889
617.5000	247.913
618.0000	247.884
618.5000	247.907
619.0000	247.893
619.5000	247.878
620.0000	247.898
620.5000	247.888
621.0000	247.87
621.5000	247.907
622.0000	247.87
622.5000	247.844
623.0000	247.819
623.5000	247.813
624.0000	247.796
624.5000	247.784
625.0000	247.844
625.5000	247.728
626.0000	247.702
626.5000	247.687
627.0000	247.638
627.5000	247.714
628.0000	247.72
628.5000	247.711
629.0000	247.675
629.5000	247.564
630.0000	247.568
630.5000	247.523
631.0000	247.497
631.5000	247.495
632.0000	247.459
632.5000	247.435
633.0000	247.379
633.5000	247.368
634.0000	247.347
634.5000	247.391
635.0000	247.413
635.5000	247.397
636.0000	247.314
636.5000	247.3
637.0000	247.242
637.5000	247.216
638.0000	247.161
638.5000	247.066
639.0000	247.037
639.5000	247.019
640.0000	247.047
640.5000	247.032
641.0000	247.023
641.5000	247.032
642.0000	247.044
642.5000	247.027
643.0000	246.99
643.5000	246.965
644.0000	246.925
644.5000	246.861
645.0000	246.884
645.5000	246.817
646.0000	246.769
646.5000	246.787
647.0000	246.727
647.5000	246.683
648.0000	246.684
648.5000	246.585
649.0000	246.556
649.5000	246.558
650.0000	246.485
650.5000	246.533
651.0000	246.548
651.5000	246.487
652.0000	246.508
652.5000	246.457
653.0000	246.383
653.5000	246.367
654.0000	246.327
654.5000	246.291
655.0000	246.238
655.5000	246.185
656.0000	246.141
656.5000	246.087
657.0000	246.109
657.5000	246.122
658.0000	246.09
658.5000	246.051
659.0000	246.036
659.5000	246.012
660.0000	245.942
660.5000	245.896
661.0000	245.829
661.5000	245.753
662.0000	245.74
662.5000	245.757
663.0000	245.707
663.5000	245.689
664.0000	245.683
664.5000	245.638
665.0000	245.603
665.5000	245.575
666.0000	245.545
666.5000	245.514
667.0000	245.445
667.5000	245.397
668.0000	245.334
668.5000	245.276
669.0000	245.253
669.5000	245.216
670.0000	245.213
670.5000	245.138
671.0000	245.176
671.5000	245.147
672.0000	245.09
672.5000	245.124
673.0000	245.023
673.5000	244.95
674.0000	244.91
674.5000	244.86
675.0000	244.825
675.5000	244.816
676.0000	244.793
676.5000	244.718
677.0000	244.629
677.5000	244.597
678.0000	244.533
678.5000	244.459
679.0000	244.456
679.5000	244.419
680.0000	244.403
680.5000	244.363
681.0000	244.323
681.5000	244.313
682.0000	244.252
682.5000	244.281
683.0000	244.247
683.5000	244.187
684.0000	244.216
684.5000	244.196
685.0000	244.241
685.5000	244.208
686.0000	244.133
686.5000	244.079
687.0000	243.978
687.5000	243.914
688.0000	243.897
688.5000	243.865
689.0000	243.815
689.5000	243.82
690.0000	243.83
690.5000	243.795
691.0000	243.811
691.5000	243.754
692.0000	243.643
692.5000	243.616
693.0000	243.572
693.5000	243.543
694.0000	243.548
694.5000	243.533
695.0000	243.497
695.5000	243.48
696.0000	243.408
696.5000	243.372
697.0000	243.322
697.5000	243.27
698.0000	243.225
698.5000	243.189
699.0000	243.159
699.5000	243.168
700.0000	243.136
700.5000	243.12
701.0000	243.093
701.5000	242.991
702.0000	242.997
702.5000	242.941
703.0000	242.927
703.5000	242.922
704.0000	242.884
704.5000	242.85
705.0000	242.811
705.5000	242.779
706.0000	242.718
706.5000	242.697
707.0000	242.681
707.5000	242.671
708.0000	242.636
708.5000	242.588
709.0000	242.512
709.5000	242.49
710.0000	242.458
710.5000	242.525
711.0000	242.528
711.5000	242.462
712.0000	242.506
712.5000	242.404
713.0000	242.342
713.5000	242.31
714.0000	242.267
714.5000	242.212
715.0000	242.228
715.5000	242.26
716.0000	242.17
716.5000	242.181
717.0000	242.132
717.5000	242.064
718.0000	242.059
718.5000	242.009
719.0000	241.99
719.5000	241.955
720.0000	241.938
720.5000	241.878
721.0000	241.855
721.5000	241.844
722.0000	241.828
722.5000	241.863
723.0000	241.83
723.5000	241.791
724.0000	241.755
724.5000	241.713
725.0000	241.673
725.5000	241.668
726.0000	241.665
726.5000	241.607
727.0000	241.585
727.5000	241.496
728.0000	241.459
728.5000	241.455
729.0000	241.476
729.5000	241.497
730.0000	241.456
730.5000	241.435
731.0000	241.413
731.5000	241.393
732.0000	241.346
732.5000	241.355
733.0000	241.286
733.5000	241.253
734.0000	241.268
734.5000	241.197
735.0000	241.156
735.5000	241.11
736.0000	241.07
736.5000	241.107
737.0000	241.101
737.5000	241.086
738.0000	241.099
738.5000	241.025
739.0000	241.029
739.5000	241.028
740.0000	240.963
740.5000	240.937
741.0000	240.914
741.5000	240.911
742.0000	240.889
742.5000	240.906
743.0000	240.856
743.5000	240.81
744.0000	240.842
744.5000	240.812
745.0000	240.84
745.5000	240.874
746.0000	240.842
746.5000	240.81
747.0000	240.792
747.5000	240.76
748.0000	240.701
748.5000	240.665
749.0000	240.638
749.5000	240.625
750.0000	240.631
750.5000	240.649
751.0000	240.607
751.5000	240.591
752.0000	240.593
752.5000	240.601
753.0000	240.593
753.5000	240.56
754.0000	240.536
754.5000	240.471
755.0000	240.484
755.5000	240.437
756.0000	240.407
756.5000	240.337
757.0000	240.309
757.5000	240.293
758.0000	240.239
758.5000	240.292
759.0000	240.274
759.5000	240.269
760.0000	240.26
760.5000	240.206
761.0000	240.187
761.5000	240.198
762.0000	240.227
762.5000	240.247
763.0000	240.208
763.5000	240.151
764.0000	240.089
764.5000	240.007
765.0000	239.989
765.5000	240.008
766.0000	240.045
766.5000	240.073
767.0000	240.104
767.5000	240.095
768.0000	240.06
768.5000	240.078
769.0000	240.014
769.5000	240.016
770.0000	240.057
770.5000	240.007
771.0000	240.063
771.5000	240.014
772.0000	239.925
772.5000	239.946
773.0000	239.825
773.5000	239.831
774.0000	239.879
774.5000	239.867
775.0000	239.947
775.5000	239.918
776.0000	239.885
776.5000	239.856
777.0000	239.79
777.5000	239.854
778.0000	239.841
778.5000	239.882
779.0000	239.869
779.5000	239.804
780.0000	239.795
780.5000	239.73
781.0000	239.744
781.5000	239.72
782.0000	239.697
782.5000	239.711
783.0000	239.73
783.5000	239.713
784.0000	239.705
784.5000	239.667
785.0000	239.653
785.5000	239.634
786.0000	239.663
786.5000	239.679
787.0000	239.637
787.5000	239.665
788.0000	239.643
788.5000	239.641
789.0000	239.698
789.5000	239.675
790.0000	239.655
790.5000	239.676
791.0000	239.675
791.5000	239.704
792.0000	239.74
792.5000	239.711
793.0000	239.703
793.5000	239.692
794.0000	239.659
794.5000	239.62
795.0000	239.585
795.5000	239.571
796.0000	239.558
796.5000	239.609
797.0000	239.618
797.5000	239.605
798.0000	239.64
798.5000	239.639
799.0000	239.631
799.5000	239.631
800.0000	239.584
800.5000	239.563
801.0000	239.553
801.5000	239.533
802.0000	239.628
802.5000	239.627
803.0000	239.661
803.5000	239.709
804.0000	239.723
804.5000	239.74
805.0000	239.675
805.5000	239.645
806.0000	239.587
806.5000	239.565
807.0000	239.554
807.5000	239.594
808.0000	239.582
808.5000	239.573
809.0000	239.619
809.5000	239.612
810.0000	239.603
810.5000	239.596
811.0000	239.578
811.5000	239.584
812.0000	239.575
812.5000	239.61
813.0000	239.6
813.5000	239.612
814.0000	239.636
814.5000	239.635
815.0000	239.709
815.5000	239.709
816.0000	239.704
816.5000	239.77
817.0000	239.749
817.5000	239.737
818.0000	239.785
818.5000	239.684
819.0000	239.669
819.5000	239.705
820.0000	239.692
820.5000	239.768
821.0000	239.843
821.5000	239.789
822.0000	239.765
822.5000	239.729
823.0000	239.698
823.5000	239.742
824.0000	239.807
824.5000	239.858
825.0000	239.839
825.5000	239.865
826.0000	239.812
826.5000	239.767
827.0000	239.821
827.5000	239.813
828.0000	239.852
828.5000	239.902
829.0000	239.838
829.5000	239.875
830.0000	239.9
830.5000	239.889
831.0000	239.952
831.5000	239.92
832.0000	239.858
832.5000	239.936
833.0000	239.906
833.5000	239.909
834.0000	239.905
834.5000	239.83
835.0000	239.873
835.5000	239.895
836.0000	239.953
836.5000	239.993
837.0000	239.965
837.5000	239.997
838.0000	240.032
838.5000	239.983
839.0000	240.036
839.5000	240.009
840.0000	239.972
840.5000	240.013
841.0000	239.973
841.5000	240.009
842.0000	240.066
842.5000	240.093
843.0000	240.155
843.5000	240.153
844.0000	240.132
844.5000	240.143
845.0000	240.156
845.5000	240.192
846.0000	240.212
846.5000	240.242
847.0000	240.237
847.5000	240.18
848.0000	240.241
848.5000	240.273
849.0000	240.304
849.5000	240.307
850.0000	240.198
850.5000	240.15
851.0000	240.2
851.5000	240.263
852.0000	240.408
852.5000	240.413
853.0000	240.36
853.5000	240.338
854.0000	240.266
854.5000	240.267
855.0000	240.296
855.5000	240.321
856.0000	240.331
856.5000	240.391
857.0000	240.344
857.5000	240.367
858.0000	240.36
858.5000	240.329
859.0000	240.401
859.5000	240.413
860.0000	240.468
860.5000	240.495
861.0000	240.496
861.5000	240.518
862.0000	240.483
862.5000	240.501
863.0000	240.528
863.5000	240.534
864.0000	240.562
864.5000	240.633
865.0000	240.597
865.5000	240.619
866.0000	240.694
866.5000	240.701
867.0000	240.724
867.5000	240.73
868.0000	240.655
868.5000	240.625
869.0000	240.664
869.5000	240.67
870.0000	240.731
870.5000	240.741
871.0000	240.727
871.5000	240.76
872.0000	240.751
872.5000	240.823
873.0000	240.825
873.5000	240.818
874.0000	240.905
874.5000	240.844
875.0000	240.924
875.5000	240.917
876.0000	240.831
876.5000	240.89
877.0000	240.788
877.5000	240.828
878.0000	240.9
878.5000	240.944
879.0000	241.027
879.5000	240.999
880.0000	241.011
880.5000	241.002
881.0000	241.044
881.5000	241.088
882.0000	241.089
882.5000	241.118
883.0000	241.088
883.5000	241.115
884.0000	241.168
884.5000	241.143
885.0000	241.191
885.5000	241.223
886.0000	241.193
886.5000	241.168
887.0000	241.151
887.5000	241.143
888.0000	241.175
888.5000	241.246
889.0000	241.265
889.5000	241.262
890.0000	241.204
890.5000	241.217
891.0000	241.263
891.5000	241.292
892.0000	241.366
892.5000	241.409
893.0000	241.408
893.5000	241.425
894.0000	241.449
894.5000	241.482
895.0000	241.526
895.5000	241.457
896.0000	241.41
896.5000	241.381
897.0000	241.332
897.5000	241.405
898.0000	241.52
898.5000	241.476
899.0000	241.528
899.5000	241.556
900.0000	241.542
900.5000	241.571
901.0000	241.571
901.5000	241.566
902.0000	241.577
902.5000	241.644
903.0000	241.706
903.5000	241.691
904.0000	241.701
904.5000	241.712
905.0000	241.677
905.5000	241.76
906.0000	241.77
906.5000	241.784
907.0000	241.863
907.5000	241.864
908.0000	241.87
908.5000	241.853
909.0000	241.872
909.5000	241.898
910.0000	241.938
910.5000	241.957
911.0000	241.915
911.5000	241.927
912.0000	241.917
912.5000	241.935
913.0000	241.962
913.5000	241.96
914.0000	241.969
914.5000	242.028
915.0000	242.03
915.5000	242.038
916.0000	242.05
916.5000	242.039
917.0000	242.081
917.5000	242.15
918.0000	242.203
918.5000	242.276
919.0000	242.263
919.5000	242.271
920.0000	242.297
920.5000	242.203
921.0000	242.27
921.5000	242.287
922.0000	242.315
922.5000	242.362
923.0000	242.344
923.5000	242.356
924.0000	242.349
924.5000	242.355
925.0000	242.409
925.5000	242.394
926.0000	242.407
926.5000	242.437
927.0000	242.433
927.5000	242.461
928.0000	242.455
928.5000	242.47
929.0000	242.466
929.5000	242.501
930.0000	242.588
930.5000	242.631
931.0000	242.68
931.5000	242.677
932.0000	242.692
932.5000	242.735
933.0000	242.714
933.5000	242.729
934.0000	242.74
934.5000	242.718
935.0000	242.749
935.5000	242.778
936.0000	242.774
936.5000	242.815
937.0000	242.846
937.5000	242.86
938.0000	242.854
938.5000	242.871
939.0000	242.876
939.5000	242.922
940.0000	242.905
940.5000	242.888
941.0000	242.913
941.5000	242.909
942.0000	242.935
942.5000	242.985
943.0000	243.002
943.5000	242.963
944.0000	243.083
944.5000	243.087
945.0000	243.121
945.5000	243.186
946.0000	243.123
946.5000	243.161
947.0000	243.138
947.5000	243.161
948.0000	243.221
948.5000	243.213
949.0000	243.282
949.5000	243.324
950.0000	243.334
950.5000	243.376
951.0000	243.332
951.5000	243.288
952.0000	243.275
952.5000	243.226
953.0000	243.277
953.5000	243.331
954.0000	243.371
954.5000	243.442
955.0000	243.435
955.5000	243.462
956.0000	243.494
956.5000	243.499
957.0000	243.537
957.5000	243.541
958.0000	243.554
958.5000	243.567
959.0000	243.561
959.5000	243.59
960.0000	243.601
960.5000	243.65
961.0000	243.667
961.5000	243.653
962.0000	243.657
962.5000	243.633
963.0000	243.687
963.5000	243.706
964.0000	243.734
964.5000	243.772
965.0000	243.755
965.5000	243.768
966.0000	243.78
966.5000	243.736
967.0000	243.767
967.5000	243.788
968.0000	243.807
968.5000	243.828
969.0000	243.839
969.5000	243.905
970.0000	243.921
970.5000	244.009
971.0000	244.02
971.5000	244.013
972.0000	243.999
972.5000	243.958
973.0000	244.013
973.5000	243.993
974.0000	244.002
974.5000	244.023
975.0000	244.021
975.5000	244.04
976.0000	244.101
976.5000	244.139
977.0000	244.137
977.5000	244.174
978.0000	244.145
978.5000	244.153
979.0000	244.168
979.5000	244.207
980.0000	244.245
980.5000	244.27
981.0000	244.312
981.5000	244.356
982.0000	244.344
982.5000	244.346
983.0000	244.304
983.5000	244.228
984.0000	244.286
984.5000	244.308
985.0000	244.327
985.5000	244.395
986.0000	244.428
986.5000	244.467
987.0000	244.496
987.5000	244.516
988.0000	244.495
988.5000	244.468
989.0000	244.521
989.5000	244.548
990.0000	244.602
990.5000	244.598
991.0000	244.588
991.5000	244.583
992.0000	244.564
992.5000	244.619
993.0000	244.629
993.5000	244.64
994.0000	244.658
994.5000	244.661
995.0000	244.68
995.5000	244.676
996.0000	244.679
996.5000	244.688
997.0000	244.717
997.5000	244.736
998.0000	244.746
998.5000	244.758
999.0000	244.785
999.5000	244.832
1000.0000	244.864
1000.5000	244.874
1001.0000	244.88
1001.5000	244.845
1002.0000	244.845
1002.5000	244.885
1003.0000	244.859
1003.5000	244.859
1004.0000	244.873
1004.5000	244.913
1005.0000	244.909
1005.5000	244.958
1006.0000	245.032
1006.5000	244.998
1007.0000	245.057
1007.5000	245.077
1008.0000	245.055
1008.5000	245.107
1009.0000	245.06
1009.5000	245.049
1010.0000	245.105
1010.5000	245.104
1011.0000	245.186
1011.5000	245.204
1012.0000	245.167
1012.5000	245.191
1013.0000	245.226
1013.5000	245.275
1014.0000	245.283
1014.5000	245.307
1015.0000	245.246
1015.5000	245.292
1016.0000	245.287
1016.5000	245.278
1017.0000	245.334
1017.5000	245.317
1018.0000	245.363
1018.5000	245.359
1019.0000	245.363
1019.5000	245.378
1020.0000	245.371
1020.5000	245.442
1021.0000	245.555
1021.5000	245.497
1022.0000	245.557
1022.5000	245.566
1023.0000	245.511
1023.5000	245.557
1024.0000	245.534
1024.5000	245.542
1025.0000	245.544
1025.5000	245.542
1026.0000	245.55
1026.5000	245.549
1027.0000	245.561
1027.5000	245.589
1028.0000	245.604
1028.5000	245.627
1029.0000	245.628
1029.5000	245.636
1030.0000	245.644
1030.5000	245.589
1031.0000	245.651
1031.5000	245.72
1032.0000	245.751
1032.5000	245.815
1033.0000	245.777
1033.5000	245.816
1034.0000	245.843
1034.5000	245.867
1035.0000	245.895
1035.5000	245.836
1036.0000	245.836
1036.5000	245.815
1037.0000	245.896
1037.5000	245.987
1038.0000	245.978
1038.5000	245.957
1039.0000	245.928
1039.5000	245.911
1040.0000	245.9
1040.5000	245.994
1041.0000	245.963
1041.5000	245.931
1042.0000	246.014
1042.5000	245.973
1043.0000	246.055
1043.5000	246.093
1044.0000	246.101
1044.5000	246.124
1045.0000	246.061
1045.5000	246.073
1046.0000	246.089
1046.5000	246.158
1047.0000	246.194
1047.5000	246.208
1048.0000	246.169
1048.5000	246.193
1049.0000	246.204
1049.5000	246.212
1050.0000	246.274
1050.5000	246.23
1051.0000	246.238
1051.5000	246.253
1052.0000	246.246
1052.5000	246.225
1053.0000	246.27
1053.5000	246.268
1054.0000	246.274
1054.5000	246.373
1055.0000	246.404
1055.5000	246.462
1056.0000	246.473
1056.5000	246.418
1057.0000	246.427
1057.5000	246.415
1058.0000	246.429
1058.5000	246.463
1059.0000	246.446
1059.5000	246.414
1060.0000	246.454
1060.5000	246.456
1061.0000	246.499
1061.5000	246.596
1062.0000	246.577
1062.5000	246.593
1063.0000	246.557
1063.5000	246.515
1064.0000	246.557
1064.5000	246.613
1065.0000	246.663
1065.5000	246.682
1066.0000	246.678
1066.5000	246.675
1067.0000	246.668
1067.5000	246.689
1068.0000	246.703
1068.5000	246.745
1069.0000	246.727
1069.5000	246.749
1070.0000	246.756
1070.5000	246.744
1071.0000	246.821
1071.5000	246.838
1072.0000	246.837
1072.5000	246.816
1073.0000	246.788
1073.5000	246.805
1074.0000	246.858
1074.5000	246.909
1075.0000	246.942
1075.5000	246.96
1076.0000	246.945
1076.5000	246.911
1077.0000	246.924
1077.5000	246.914
1078.0000	246.939
1078.5000	247.019
1079.0000	247.038
1079.5000	247.106
1080.0000	247.073
1080.5000	247.044
1081.0000	247.102
1081.5000	247.103
1082.0000	247.174
1082.5000	247.225
1083.0000	247.183
1083.5000	247.166
1084.0000	247.17
1084.5000	247.15
1085.0000	247.163
1085.5000	247.159
1086.0000	247.176
1086.5000	247.208
1087.0000	247.219
1087.5000	247.234
1088.0000	247.246
1088.5000	247.261
1089.0000	247.265
1089.5000	247.312
1090.0000	247.379
1090.5000	247.355
1091.0000	247.338
1091.5000	247.314
1092.0000	247.26
1092.5000	247.328
1093.0000	247.36
1093.5000	247.397
1094.0000	247.381
1094.5000	247.323
1095.0000	247.378
1095.5000	247.37
1096.0000	247.405
1096.5000	247.438
1097.0000	247.378
1097.5000	247.365
1098.0000	247.392
1098.5000	247.462
1099.0000	247.524
1099.5000	247.528
1100.0000	247.5
1100.5000	247.451
1101.0000	247.425
1101.5000	247.48
1102.0000	247.538
1102.5000	247.597
1103.0000	247.659
1103.5000	247.645
1104.0000	247.685
1104.5000	247.661
1105.0000	247.611
1105.5000	247.637
1106.0000	247.602
1106.5000	247.611
1107.0000	247.691
1107.5000	247.697
1108.0000	247.717
1108.5000	247.718
1109.0000	247.69
1109.5000	247.702
1110.0000	247.748
1110.5000	247.763
1111.0000	247.768
1111.5000	247.802
1112.0000	247.816
1112.5000	247.859
1113.0000	247.887
1113.5000	247.894
1114.0000	247.88
1114.5000	247.866
1115.0000	247.905
1115.5000	247.889
1116.0000	247.904
1116.5000	247.94
1117.0000	247.96
1117.5000	248.045
1118.0000	248.066
1118.5000	248.062
1119.0000	248.08
1119.5000	248.056
1120.0000	248.047
1120.5000	248.067
1121.0000	248.039
1121.5000	248.03
1122.0000	248.032
1122.5000	248.087
1123.0000	248.065
1123.5000	248.094
1124.0000	248.051
1124.5000	248.024
1125.0000	248.06
1125.5000	248.062
1126.0000	248.207
1126.5000	248.197
1127.0000	248.203
1127.5000	248.221
1128.0000	248.169
1128.5000	248.201
1129.0000	248.246
1129.5000	248.255
1130.0000	248.245
1130.5000	248.241
1131.0000	248.254
1131.5000	248.237
1132.0000	248.267
1132.5000	248.272
1133.0000	248.256
1133.5000	248.285
1134.0000	248.306
1134.5000	248.321
1135.0000	248.344
1135.5000	248.34
1136.0000	248.346
1136.5000	248.386
1137.0000	248.414
1137.5000	248.459
1138.0000	248.474
1138.5000	248.447
1139.0000	248.456
1139.5000	248.448
1140.0000	248.457
1140.5000	248.465
1141.0000	248.43
1141.5000	248.452
1142.0000	248.477
1142.5000	248.465
1143.0000	248.521
1143.5000	248.5
1144.0000	248.535
1144.5000	248.622
1145.0000	248.58
1145.5000	248.62
1146.0000	248.58
1146.5000	248.544
1147.0000	248.557
1147.5000	248.599
1148.0000	248.611
1148.5000	248.6
1149.0000	248.633
1149.5000	248.591
1150.0000	248.614
1150.5000	248.627
1151.0000	248.618
1151.5000	248.614
1152.0000	248.652
1152.5000	248.715
1153.0000	248.76
1153.5000	248.814
1154.0000	248.776
1154.5000	248.763
1155.0000	248.772
1155.5000	248.787
1156.0000	248.776
1156.5000	248.781
1157.0000	248.795
1157.5000	248.856
1158.0000	248.898
1158.5000	248.938
1159.0000	248.949
1159.5000	248.907
1160.0000	248.941
1160.5000	248.934
1161.0000	248.912
1161.5000	248.901
1162.0000	248.902
1162.5000	248.864
1163.0000	248.907
1163.5000	248.942
1164.0000	248.96
1164.5000	249.023
1165.0000	249.033
1165.5000	249.048
1166.0000	249.062
1166.5000	249.095
1167.0000	249.111
1167.5000	249.104
1168.0000	249.079
1168.5000	249.113
1169.0000	249.126
1169.5000	249.165
1170.0000	249.158
1170.5000	249.067
1171.0000	249.071
1171.5000	249.077
1172.0000	249.159
1172.5000	249.213
1173.0000	249.214
1173.5000	249.174
1174.0000	249.153
1174.5000	249.155
1175.0000	249.149
1175.5000	249.206
1176.0000	249.248
1176.5000	249.304
1177.0000	249.375
1177.5000	249.384
1178.0000	249.363
1178.5000	249.343
1179.0000	249.34
1179.5000	249.335
1180.0000	249.358
1180.5000	249.358
1181.0000	249.357
1181.5000	249.39
1182.0000	249.386
1182.5000	249.45
1183.0000	249.423
1183.5000	249.439
1184.0000	249.429
1184.5000	249.435
1185.0000	249.526
1185.5000	249.485
1186.0000	249.553
1186.5000	249.563
1187.0000	249.517
1187.5000	249.499
1188.0000	249.429
1188.5000	249.399
1189.0000	249.403
1189.5000	249.455
1190.0000	249.532
1190.5000	249.548
1191.0000	249.553
1191.5000	249.576
1192.0000	249.588
1192.5000	249.612
1193.0000	249.6
1193.5000	249.643
1194.0000	249.624
1194.5000	249.619
1195.0000	249.676
1195.5000	249.655
1196.0000	249.647
1196.5000	249.656
1197.0000	249.638
1197.5000	249.616
1198.0000	249.661
1198.5000	249.641
1199.0000	249.691
1199.5000	249.735
1200.0000	249.691
1200.5000	249.723
1201.0000	249.721
1201.5000	249.711
1202.0000	249.777
1202.5000	249.774
1203.0000	249.807
1203.5000	249.904
1204.0000	249.868
1204.5000	249.893
1205.0000	249.897
1205.5000	249.816
1206.0000	249.866
1206.5000	249.907
1207.0000	249.919
1207.5000	249.976
1208.0000	249.957
1208.5000	249.944
1209.0000	249.913
1209.5000	249.927
1210.0000	249.966
1210.5000	249.966
1211.0000	250.015
1211.5000	249.969
1212.0000	249.999
1212.5000	250.035
1213.0000	250.025
1213.5000	250.085
1214.0000	250.085
1214.5000	250.118
1215.0000	250.161
1215.5000	250.135
1216.0000	250.116
1216.5000	250.146
1217.0000	250.126
1217.5000	250.101
1218.0000	250.179
1218.5000	250.127
1219.0000	250.103
1219.5000	250.162
1220.0000	250.173
1220.5000	250.199
1221.0000	250.257
1221.5000	250.3
1222.0000	250.286
1222.5000	250.293
1223.0000	250.341
1223.5000	250.297
1224.0000	250.354
1224.5000	250.378
1225.0000	250.376
1225.5000	250.415
1226.0000	250.325
1226.5000	250.306
1227.0000	250.254
1227.5000	250.22
1228.0000	250.274
1228.5000	250.338
1229.0000	250.352
1229.5000	250.403
1230.0000	250.401
1230.5000	250.374
1231.0000	250.425
1231.5000	250.412
1232.0000	250.426
1232.5000	250.407
1233.0000	250.432
1233.5000	250.492
1234.0000	250.506
1234.5000	250.613
1235.0000	250.588
1235.5000	250.583
1236.0000	250.593
1236.5000	250.505
1237.0000	250.529
1237.5000	250.588
1238.0000	250.589
1238.5000	250.647
1239.0000	250.671
1239.5000	250.644
1240.0000	250.655
1240.5000	250.65
1241.0000	250.625
1241.5000	250.553
1242.0000	250.594
1242.5000	250.619
1243.0000	250.674
1243.5000	250.773
1244.0000	250.764
1244.5000	250.744
1245.0000	250.733
1245.5000	250.736
1246.0000	250.698
1246.5000	250.728
1247.0000	250.741
1247.5000	250.765
1248.0000	250.829
1248.5000	250.875
1249.0000	250.911
1249.5000	250.887
1250.0000	250.913
1250.5000	250.88
1251.0000	250.873
1251.5000	250.889
1252.0000	250.864
1252.5000	250.893
1253.0000	250.935
1253.5000	250.972
1254.0000	250.997
1254.5000	251.016
1255.0000	251.017
1255.5000	251.026
1256.0000	251.01
1256.5000	250.979
1257.0000	250.972
1257.5000	250.963
1258.0000	250.969
1258.5000	251.026
1259.0000	251.009
1259.5000	251.04
1260.0000	251.059
1260.5000	251.027
1261.0000	251.076
1261.5000	251.064
1262.0000	251.099
1262.5000	251.116
1263.0000	251.086
1263.5000	251.119
1264.0000	251.113
1264.5000	251.121
1265.0000	251.102
1265.5000	251.064
1266.0000	251.079
1266.5000	251.109
1267.0000	251.17
1267.5000	251.165
1268.0000	251.202
1268.5000	251.233
1269.0000	251.274
1269.5000	251.331
1270.0000	251.322
1270.5000	251.349
1271.0000	251.36
1271.5000	251.35
1272.0000	251.386
1272.5000	251.393
1273.0000	251.343
1273.5000	251.407
1274.0000	251.356
1274.5000	251.297
1275.0000	251.351
1275.5000	251.326
1276.0000	251.347
1276.5000	251.397
1277.0000	251.38
1277.5000	251.428
1278.0000	251.462
1278.5000	251.478
1279.0000	251.477
1279.5000	251.413
1280.0000	251.452
1280.5000	251.454
1281.0000	251.504
1281.5000	251.553
1282.0000	251.512
1282.5000	251.515
1283.0000	251.498
1283.5000	251.493
1284.0000	251.565
1284.5000	251.582
1285.0000	251.601
1285.5000	251.658
1286.0000	251.623
1286.5000	251.694
1287.0000	251.738
1287.5000	251.74
1288.0000	251.788
1288.5000	251.721
1289.0000	251.698
1289.5000	251.659
1290.0000	251.647
1290.5000	251.633
1291.0000	251.647
1291.5000	251.699
1292.0000	251.678
1292.5000	251.738
1293.0000	251.773
1293.5000	251.764
1294.0000	251.803
1294.5000	251.796
1295.0000	251.785
1295.5000	251.797
1296.0000	251.802
1296.5000	251.824
1297.0000	251.84
1297.5000	251.841
1298.0000	251.85
1298.5000	251.905
1299.0000	251.904
1299.5000	251.906
1300.0000	251.914
1300.5000	251.879
1301.0000	251.905
1301.5000	251.923
1302.0000	251.953
1302.5000	252.002
1303.0000	252.021
1303.5000	252.063
1304.0000	252.096
1304.5000	252.069
1305.0000	252.052
1305.5000	252.047
1306.0000	252.021
1306.5000	252.009
1307.0000	252.012
1307.5000	251.984
1308.0000	251.99
1308.5000	252.024
1309.0000	252.068
1309.5000	252.142
1310.0000	252.127
1310.5000	252.153
1311.0000	252.138
1311.5000	252.116
1312.0000	252.118
1312.5000	252.117
1313.0000	252.167
1313.5000	252.204
1314.0000	252.236
1314.5000	252.236
1315.0000	252.208
1315.5000	252.203
1316.0000	252.238
1316.5000	252.235
1317.0000	252.227
1317.5000	252.266
1318.0000	252.247
1318.5000	252.29
1319.0000	252.283
1319.5000	252.278
1320.0000	252.252
1320.5000	252.234
1321.0000	252.266
1321.5000	252.245
1322.0000	252.303
1322.5000	252.3
1323.0000	252.304
1323.5000	252.316
1324.0000	252.339
1324.5000	252.295
1325.0000	252.34
1325.5000	252.342
1326.0000	252.352
1326.5000	252.442
1327.0000	252.389
1327.5000	252.4
1328.0000	252.361
1328.5000	252.369
1329.0000	252.456
1329.5000	252.454
1330.0000	252.474
1330.5000	252.503
1331.0000	252.497
1331.5000	252.534
1332.0000	252.578
1332.5000	252.558
1333.0000	252.516
1333.5000	252.5
1334.0000	252.521
1334.5000	252.54
1335.0000	252.589
1335.5000	252.577
1336.0000	252.557
1336.5000	252.548
1337.0000	252.549
1337.5000	252.56
1338.0000	252.628
1338.5000	252.642
1339.0000	252.632
1339.5000	252.648
1340.0000	252.606
1340.5000	252.612
1341.0000	252.659
1341.5000	252.72
1342.0000	252.738
1342.5000	252.762
1343.0000	252.745
1343.5000	252.702
1344.0000	252.708
1344.5000	252.702
1345.0000	252.723
1345.5000	252.746
1346.0000	252.733
1346.5000	252.717
1347.0000	252.68
1347.5000	252.71
1348.0000	252.718
1348.5000	252.798
1349.0000	252.825
1349.5000	252.79
1350.0000	252.825
1350.5000	252.795
1351.0000	252.836
1351.5000	252.814
1352.0000	252.816
1352.5000	252.807
1353.0000	252.783
1353.5000	252.847
1354.0000	252.863
1354.5000	252.898
1355.0000	252.902
1355.5000	252.913
1356.0000	252.918
1356.5000	252.931
1357.0000	252.958
1357.5000	252.991
1358.0000	252.968
1358.5000	252.948
1359.0000	252.993
1359.5000	252.954
1360.0000	252.935
1360.5000	252.986
1361.0000	252.972
1361.5000	253.007
1362.0000	253.039
1362.5000	253.014
1363.0000	253.013
1363.5000	253.016
1364.0000	253.062
1364.5000	253.051
1365.0000	253.059
1365.5000	253.066
1366.0000	253.065
1366.5000	253.094
1367.0000	253.074
1367.5000	253.115
1368.0000	253.085
1368.5000	253.084
1369.0000	253.154
1369.5000	253.122
1370.0000	253.184
1370.5000	253.186
1371.0000	253.164
1371.5000	253.183
1372.0000	253.178
1372.5000	253.181
1373.0000	253.202
1373.5000	253.212
1374.0000	253.166
1374.5000	253.176
1375.0000	253.215
1375.5000	253.198
1376.0000	253.224
1376.5000	253.248
1377.0000	253.193
1377.5000	253.244
1378.0000	253.237
1378.5000	253.237
1379.0000	253.258
1379.5000	253.232
1380.0000	253.323
1380.5000	253.313
1381.0000	253.274
1381.5000	253.263
1382.0000	253.237
1382.5000	253.269
1383.0000	253.3
1383.5000	253.311
1384.0000	253.309
1384.5000	253.301
1385.0000	253.331
1385.5000	253.374
1386.0000	253.377
1386.5000	253.402
1387.0000	253.428
1387.5000	253.386
1388.0000	253.369
1388.5000	253.37
1389.0000	253.313
1389.5000	253.337
1390.0000	253.314
1390.5000	253.297
1391.0000	253.334
1391.5000	253.329
1392.0000	253.357
1392.5000	253.359
1393.0000	253.404
1393.5000	253.465
1394.0000	253.479
1394.5000	253.488
1395.0000	253.462
1395.5000	253.398
1396.0000	253.431
1396.5000	253.468
1397.0000	253.48
1397.5000	253.521
1398.0000	253.483
1398.5000	253.466
1399.0000	253.451
1399.5000	253.458
1400.0000	253.491
1400.5000	253.486
1401.0000	253.434
1401.5000	253.404
1402.0000	253.415
1402.5000	253.428
1403.0000	253.523
1403.5000	253.575
1404.0000	253.572
1404.5000	253.568
1405.0000	253.538
1405.5000	253.508
1406.0000	253.516
1406.5000	253.545
1407.0000	253.533
1407.5000	253.611
1408.0000	253.642
1408.5000	253.619
1409.0000	253.67
1409.5000	253.635
1410.0000	253.577
1410.5000	253.609
1411.0000	253.571
1411.5000	253.525
1412.0000	253.532
1412.5000	253.564
1413.0000	253.555
1413.5000	253.545
1414.0000	253.572
1414.5000	253.516
1415.0000	253.555
1415.5000	253.583
1416.0000	253.563
1416.5000	253.603
1417.0000	253.551
1417.5000	253.594
1418.0000	253.602
1418.5000	253.553
1419.0000	253.579
1419.5000	253.552
1420.0000	253.576
1420.5000	253.616
1421.0000	253.634
1421.5000	253.657
1422.0000	253.623
1422.5000	253.634
1423.0000	253.666
1423.5000	253.634
1424.0000	253.629
1424.5000	253.596
1425.0000	253.558
1425.5000	253.563
1426.0000	253.62
1426.5000	253.634
1427.0000	253.651
1427.5000	253.631
1428.0000	253.627
1428.5000	253.655
1429.0000	253.636
1429.5000	253.65
1430.0000	253.617
1430.5000	253.57
1431.0000	253.54
1431.5000	253.548
1432.0000	253.62
1432.5000	253.618
1433.0000	253.639
1433.5000	253.678
1434.0000	253.617
1434.5000	253.662
1435.0000	253.683
1435.5000	253.625
1436.0000	253.648
1436.5000	253.62
1437.0000	253.603
1437.5000	253.627
1438.0000	253.606
1438.5000	253.566
1439.0000	253.524
1439.5000	253.556
1440.0000	253.564
1440.5000	253.586
1441.0000	253.661
1441.5000	253.597
1442.0000	253.581
1442.5000	253.602
1443.0000	253.598
1443.5000	253.603
1444.0000	253.631
1444.5000	253.638
1445.0000	253.589
1445.5000	253.633
1446.0000	253.659
1446.5000	253.601
1447.0000	253.612
1447.5000	253.641
1448.0000	253.546
1448.5000	253.614
1449.0000	253.642
1449.5000	253.591
1450.0000	253.622
1450.5000	253.648
1451.0000	253.585
1451.5000	253.578
1452.0000	253.578
1452.5000	253.508
1453.0000	253.51
1453.5000	253.458
1454.0000	253.446
1454.5000	253.498
1455.0000	253.486
1455.5000	253.482
1456.0000	253.49
1456.5000	253.441
1457.0000	253.477
1457.5000	253.535
1458.0000	253.504
1458.5000	253.493
1459.0000	253.486
1459.5000	253.47
1460.0000	253.468
1460.5000	253.498
1461.0000	253.505
1461.5000	253.494
1462.0000	253.548
1462.5000	253.558
1463.0000	253.514
1463.5000	253.491
1464.0000	253.466
1464.5000	253.435
1465.0000	253.45
1465.5000	253.471
1466.0000	253.446
1466.5000	253.423
1467.0000	253.446
1467.5000	253.459
1468.0000	253.447
1468.5000	253.462
1469.0000	253.484
1469.5000	253.448
1470.0000	253.419
1470.5000	253.39
1471.0000	253.356
1471.5000	253.397
1472.0000	253.432
1472.5000	253.409
1473.0000	253.437
1473.5000	253.426
1474.0000	253.454
1474.5000	253.498
1475.0000	253.462
1475.5000	253.46
1476.0000	253.421
1476.5000	253.411
1477.0000	253.47
1477.5000	253.431
1478.0000	253.457
1478.5000	253.431
1479.0000	253.37
1479.5000	253.413
1480.0000	253.428
1480.5000	253.485
1481.0000	253.512
1481.5000	253.477
1482.0000	253.482
1482.5000	253.458
1483.0000	253.439
1483.5000	253.453
1484.0000	253.418
1484.5000	253.419
1485.0000	253.417
1485.5000	253.474
1486.0000	253.504
1486.5000	253.537
1487.0000	253.58
1487.5000	253.518
1488.0000	253.49
1488.5000	253.452
1489.0000	253.375
1489.5000	253.347
1490.0000	253.427
1490.5000	253.404
1491.0000	253.415
1491.5000	253.468
1492.0000	253.375
1492.5000	253.443
1493.0000	253.45
1493.5000	253.442
1494.0000	253.499
1494.5000	253.441
1495.0000	253.418
1495.5000	253.425
1496.0000	253.413
1496.5000	253.367
1497.0000	253.387
1497.5000	253.415
1498.0000	253.343
1498.5000	253.416
1499.0000	253.443
1499.5000	253.347
1500.0000	253.426
1500.5000	253.41
1501.0000	253.369
1501.5000	253.483
1502.0000	253.416
1502.5000	253.424
1503.0000	253.454
1503.5000	253.365
1504.0000	253.369
1504.5000	253.374
1505.0000	253.343
1505.5000	253.316
1506.0000	253.367
1506.5000	253.35
1507.0000	253.362
1507.5000	253.428
1508.0000	253.436
1508.5000	253.406
1509.0000	253.434
1509.5000	253.438
1510.0000	253.373
1510.5000	253.385
1511.0000	253.356
1511.5000	253.316
1512.0000	253.323
1512.5000	253.302
1513.0000	253.312
1513.5000	253.318
1514.0000	253.289
1514.5000	253.3
1515.0000	253.274
1515.5000	253.294
1516.0000	253.311
1516.5000	253.321
1517.0000	253.324
1517.5000	253.273
1518.0000	253.282
1518.5000	253.289
1519.0000	253.273
1519.5000	253.263
1520.0000	253.237
1520.5000	253.215
1521.0000	253.248
1521.5000	253.254
1522.0000	253.321
1522.5000	253.291
1523.0000	253.234
1523.5000	253.24
1524.0000	253.17
1524.5000	253.169
1525.0000	253.214
1525.5000	253.203
1526.0000	253.224
1526.5000	253.219
1527.0000	253.21
1527.5000	253.219
1528.0000	253.196
1528.5000	253.203
1529.0000	253.201
1529.5000	253.187
1530.0000	253.251
1530.5000	253.251
1531.0000	253.193
1531.5000	253.197
1532.0000	253.148
1532.5000	253.143
1533.0000	253.163
1533.5000	253.133
1534.0000	253.142
1534.5000	253.13
1535.0000	253.125
1535.5000	253.13
1536.0000	253.133
1536.5000	253.183
1537.0000	253.231
1537.5000	253.258
1538.0000	253.22
1538.5000	253.231
1539.0000	253.157
1539.5000	253.116
1540.0000	253.096
1540.5000	253.032
1541.0000	253.059
1541.5000	253.098
1542.0000	253.063
1542.5000	253.086
1543.0000	253.025
1543.5000	252.994
1544.0000	253.015
1544.5000	252.972
1545.0000	253.028
1545.5000	253.045
1546.0000	253.053
1546.5000	253.078
1547.0000	253.117
1547.5000	253.104
1548.0000	253.123
1548.5000	253.1
1549.0000	253.067
1549.5000	253.092
1550.0000	253.041
1550.5000	253.059
1551.0000	253.002
1551.5000	252.983
1552.0000	253.004
1552.5000	252.989
1553.0000	253.056
1553.5000	253.023
1554.0000	253.031
1554.5000	253.035
1555.0000	253.005
1555.5000	253.061
1556.0000	253.001
1556.5000	253.003
1557.0000	252.973
1557.5000	252.947
1558.0000	253.056
1558.5000	253.106
1559.0000	253.131
1559.5000	253.117
1560.0000	253.072
1560.5000	253.011
1561.0000	253.043
1561.5000	253.047
1562.0000	253.047
1562.5000	253.093
1563.0000	253.072
1563.5000	253.061
1564.0000	253.04
1564.5000	253.054
1565.0000	253.063
1565.5000	253.045
1566.0000	253.044
1566.5000	252.96
1567.0000	252.933
1567.5000	252.987
1568.0000	253.001
1568.5000	253.09
1569.0000	253.141
1569.5000	253.195
1570.0000	253.219
1570.5000	253.17
1571.0000	253.135
1571.5000	253.091
1572.0000	253.094
1572.5000	253.124
1573.0000	253.104
1573.5000	253.09
1574.0000	253.077
1574.5000	253.06
1575.0000	253.126
1575.5000	253.144
1576.0000	253.126
1576.5000	253.112
1577.0000	253.105
1577.5000	253.058
1578.0000	253.101
1578.5000	253.106
1579.0000	253.077
1579.5000	253.099
1580.0000	253.079
1580.5000	253.139
1581.0000	253.18
1581.5000	253.197
1582.0000	253.202
1582.5000	253.155
1583.0000	253.101
1583.5000	253.087
1584.0000	253.149
1584.5000	253.183
1585.0000	253.217
1585.5000	253.212
1586.0000	253.172
1586.5000	253.215
1587.0000	253.2
1587.5000	253.201
1588.0000	253.231
1588.5000	253.202
1589.0000	253.245
1589.5000	253.259
1590.0000	253.258
1590.5000	253.252
1591.0000	253.241
1591.5000	253.284
1592.0000	253.233
1592.5000	253.255
1593.0000	253.269
1593.5000	253.251
1594.0000	253.323
1594.5000	253.303
1595.0000	253.266
1595.5000	253.284
1596.0000	253.286
1596.5000	253.279
1597.0000	253.346
1597.5000	253.32
1598.0000	253.336
1598.5000	253.347
1599.0000	253.315
1599.5000	253.349
1600.0000	253.312
1600.5000	253.337
1601.0000	253.375
1601.5000	253.362
1602.0000	253.375
1602.5000	253.395
1603.0000	253.358
1603.5000	253.391
1604.0000	253.37
1604.5000	253.36
1605.0000	253.409
1605.5000	253.399
1606.0000	253.456
1606.5000	253.454
1607.0000	253.452
1607.5000	253.445
1608.0000	253.406
1608.5000	253.427
1609.0000	253.425
1609.5000	253.433
1610.0000	253.512
1610.5000	253.489
1611.0000	253.537
1611.5000	253.61
1612.0000	253.587
1612.5000	253.628
1613.0000	253.555
1613.5000	253.5
1614.0000	253.484
1614.5000	253.509
1615.0000	253.573
1615.5000	253.61
1616.0000	253.663
1616.5000	253.668
1617.0000	253.659
1617.5000	253.63
1618.0000	253.625
1618.5000	253.601
1619.0000	253.581
1619.5000	253.582
1620.0000	253.53
1620.5000	253.56
1621.0000	253.571
1621.5000	253.641
1622.0000	253.689
1622.5000	253.613
1623.0000	253.603
1623.5000	253.585
1624.0000	253.628
1624.5000	253.678
1625.0000	253.76
1625.5000	253.749
1626.0000	253.748
1626.5000	253.743
1627.0000	253.71
1627.5000	253.733
1628.0000	253.701
1628.5000	253.732
1629.0000	253.746
1629.5000	253.746
1630.0000	253.775
1630.5000	253.798
1631.0000	253.835
1631.5000	253.826
1632.0000	253.772
1632.5000	253.788
1633.0000	253.774
1633.5000	253.794
1634.0000	253.82
1634.5000	253.786
1635.0000	253.746
1635.5000	253.763
1636.0000	253.825
1636.5000	253.827
1637.0000	253.865
1637.5000	253.853
1638.0000	253.84
1638.5000	253.861
1639.0000	253.861
1639.5000	253.856
1640.0000	253.839
1640.5000	253.851
1641.0000	253.886
1641.5000	253.891
1642.0000	253.922
1642.5000	253.901
1643.0000	253.852
1643.5000	253.891
1644.0000	253.894
1644.5000	253.904
1645.0000	253.922
1645.5000	253.912
1646.0000	253.888
1646.5000	253.919
1647.0000	253.94
1647.5000	253.982
1648.0000	253.989
1648.5000	253.971
1649.0000	254.001
1649.5000	253.96
1650.0000	253.961
1650.5000	254.018
1651.0000	254.068
1651.5000	254.124
1652.0000	254.1
1652.5000	254.1
1653.0000	254.051
1653.5000	254.02
1654.0000	254.02
1654.5000	253.998
1655.0000	254.007
1655.5000	254.052
1656.0000	254.134
1656.5000	254.132
1657.0000	254.152
1657.5000	254.097
1658.0000	254.08
1658.5000	254.11
1659.0000	254.089
1659.5000	254.125
1660.0000	254.154
1660.5000	254.115
1661.0000	254.15
1661.5000	254.143
1662.0000	254.117
1662.5000	254.177
1663.0000	254.136
1663.5000	254.179
1664.0000	254.224
1664.5000	254.175
1665.0000	254.252
1665.5000	254.288
1666.0000	254.289
1666.5000	254.34
1667.0000	254.265
1667.5000	254.226
1668.0000	254.209
1668.5000	254.196
1669.0000	254.27
1669.5000	254.246
1670.0000	254.238
1670.5000	254.269
1671.0000	254.251
1671.5000	254.292
1672.0000	254.335
1672.5000	254.31
1673.0000	254.258
1673.5000	254.234
1674.0000	254.228
1674.5000	254.193
1675.0000	254.261
1675.5000	254.256
1676.0000	254.256
1676.5000	254.301
1677.0000	254.321
1677.5000	254.33
1678.0000	254.329
1678.5000	254.315
1679.0000	254.253
1679.5000	254.295
1680.0000	254.278
1680.5000	254.347
1681.0000	254.412
1681.5000	254.359
1682.0000	254.381
1682.5000	254.367
1683.0000	254.314
1683.5000	254.379
1684.0000	254.361
1684.5000	254.439
1685.0000	254.482
1685.5000	254.431
1686.0000	254.456
1686.5000	254.387
1687.0000	254.399
1687.5000	254.404
1688.0000	254.456
1688.5000	254.423
1689.0000	254.415
1689.5000	254.437
1690.0000	254.401
1690.5000	254.376
1691.0000	254.392
1691.5000	254.374
1692.0000	254.349
1692.5000	254.423
1693.0000	254.417
1693.5000	254.431
1694.0000	254.464
1694.5000	254.469
1695.0000	254.469
1695.5000	254.489
1696.0000	254.52
1696.5000	254.502
1697.0000	254.518
1697.5000	254.523
1698.0000	254.467
1698.5000	254.468
1699.0000	254.445
1699.5000	254.468
1700.0000	254.488
1700.5000	254.544
1701.0000	254.579
1701.5000	254.565
1702.0000	254.559
1702.5000	254.551
1703.0000	254.553
1703.5000	254.563
1704.0000	254.589
1704.5000	254.535
1705.0000	254.557
1705.5000	254.553
1706.0000	254.545
1706.5000	254.583
1707.0000	254.536
1707.5000	254.585
1708.0000	254.564
1708.5000	254.529
1709.0000	254.543
1709.5000	254.474
1710.0000	254.531
1710.5000	254.573
1711.0000	254.6
1711.5000	254.579
1712.0000	254.544
1712.5000	254.548
1713.0000	254.528
1713.5000	254.586
1714.0000	254.603
1714.5000	254.567
1715.0000	254.571
1715.5000	254.549
1716.0000	254.554
1716.5000	254.586
1717.0000	254.618
1717.5000	254.665
1718.0000	254.668
1718.5000	254.648
1719.0000	254.628
1719.5000	254.59
1720.0000	254.554
1720.5000	254.573
1721.0000	254.581
1721.5000	254.619
1722.0000	254.654
1722.5000	254.672
1723.0000	254.633
1723.5000	254.595
1724.0000	254.603
1724.5000	254.628
1725.0000	254.693
1725.5000	254.687
1726.0000	254.713
1726.5000	254.648
1727.0000	254.612
1727.5000	254.62
1728.0000	254.599
1728.5000	254.616
1729.0000	254.61
1729.5000	254.621
1730.0000	254.599
1730.5000	254.599
1731.0000	254.565
1731.5000	254.578
1732.0000	254.599
1732.5000	254.595
1733.0000	254.659
1733.5000	254.705
1734.0000	254.728
1734.5000	254.715
1735.0000	254.688
1735.5000	254.69
1736.0000	254.685
1736.5000	254.703
1737.0000	254.752
1737.5000	254.662
1738.0000	254.627
1738.5000	254.633
1739.0000	254.591
1739.5000	254.592
1740.0000	254.638
1740.5000	254.605
1741.0000	254.567
1741.5000	254.625
1742.0000	254.627
1742.5000	254.65
1743.0000	254.647
1743.5000	254.637
1744.0000	254.603
1744.5000	254.613
1745.0000	254.67
1745.5000	254.624
1746.0000	254.642
1746.5000	254.658
1747.0000	254.661
1747.5000	254.69
1748.0000	254.684
1748.5000	254.653
1749.0000	254.656
1749.5000	254.702
1750.0000	254.706
1750.5000	254.703
1751.0000	254.684
1751.5000	254.646
1752.0000	254.633
1752.5000	254.703
1753.0000	254.698
1753.5000	254.68
1754.0000	254.678
1754.5000	254.678
1755.0000	254.657
1755.5000	254.66
1756.0000	254.688
1756.5000	254.637
1757.0000	254.648
1757.5000	254.662
1758.0000	254.624
1758.5000	254.629
1759.0000	254.629
1759.5000	254.599
1760.0000	254.724
1760.5000	254.753
1761.0000	254.772
1761.5000	254.781
1762.0000	254.684
1762.5000	254.647
1763.0000	254.604
1763.5000	254.605
1764.0000	254.605
1764.5000	254.597
1765.0000	254.613
1765.5000	254.618
1766.0000	254.65
1766.5000	254.691
1767.0000	254.681
1767.5000	254.703
1768.0000	254.663
1768.5000	254.668
1769.0000	254.704
1769.5000	254.718
1770.0000	254.736
1770.5000	254.603
1771.0000	254.401
1771.5000	254.199
1772.0000	254.057
1772.5000	254.014
1773.0000	254.059
1773.5000	254.094
1774.0000	254.158
1774.5000	254.205
1775.0000	254.253
1775.5000	254.375
1776.0000	254.364
1776.5000	254.438
1777.0000	254.509
1777.5000	254.477
1778.0000	254.491
1778.5000	254.487
1779.0000	254.487
1779.5000	254.503
1780.0000	254.499
1780.5000	254.521
1781.0000	254.564
1781.5000	254.604
1782.0000	254.636
1782.5000	254.627
1783.0000	254.636
1783.5000	254.62
1784.0000	254.654
1784.5000	254.693
1785.0000	254.667
1785.5000	254.631
1786.0000	254.644
1786.5000	254.561
1787.0000	254.584
1787.5000	254.68
1788.0000	254.618
1788.5000	254.723
1789.0000	254.741
1789.5000	254.705
1790.0000	254.74
1790.5000	254.683
1791.0000	254.666
1791.5000	254.657
1792.0000	254.712
1792.5000	254.707
1793.0000	254.721
1793.5000	254.746
1794.0000	254.701
1794.5000	254.753
1795.0000	254.752
1795.5000	254.779
1796.0000	254.77
1796.5000	254.768
1797.0000	254.716
1797.5000	254.689
1798.0000	254.74
1798.5000	254.742
1799.0000	254.731
1799.5000	254.754
1800.0000	254.752
1800.5000	254.752
1801.0000	254.799
1801.5000	254.778
1802.0000	254.762
1802.5000	254.775
1803.0000	254.8
1803.5000	254.85
1804.0000	254.901
1804.5000	254.904
1805.0000	254.915
1805.5000	254.883
1806.0000	254.866
1806.5000	254.917
1807.0000	254.934
1807.5000	254.929
1808.0000	254.934
1808.5000	254.918
1809.0000	254.861
1809.5000	254.888
1810.0000	254.899
1810.5000	254.87
1811.0000	254.941
1811.5000	254.922
1812.0000	254.923
1812.5000	254.947
1813.0000	254.914
1813.5000	254.919
1814.0000	254.909
1814.5000	254.878
1815.0000	254.866
1815.5000	254.848
1816.0000	254.848
1816.5000	254.883
1817.0000	254.92
1817.5000	254.926
1818.0000	254.958
1818.5000	254.935
1819.0000	254.944
1819.5000	254.965
1820.0000	254.906
1820.5000	254.927
1821.0000	254.921
1821.5000	254.948
1822.0000	255.01
1822.5000	255.035
1823.0000	255.015
1823.5000	255.047
1824.0000	255.053
1824.5000	255.046
1825.0000	255.094
1825.5000	255.047
1826.0000	255.039
1826.5000	255.091
1827.0000	255.091
1827.5000	255.143
1828.0000	255.166
1828.5000	255.141
1829.0000	255.146
1829.5000	255.155
1830.0000	255.164
1830.5000	255.13
1831.0000	255.154
1831.5000	255.105
1832.0000	255.092
1832.5000	255.147
1833.0000	255.146
1833.5000	255.225
1834.0000	255.227
1834.5000	255.243
1835.0000	255.229
1835.5000	255.205
1836.0000	255.237
1836.5000	255.232
1837.0000	255.28
1837.5000	255.284
1838.0000	255.253
1838.5000	255.23
1839.0000	255.205
1839.5000	255.268
1840.0000	255.32
1840.5000	255.358
1841.0000	255.358
1841.5000	255.33
1842.0000	255.323
1842.5000	255.325
1843.0000	255.321
1843.5000	255.33
1844.0000	255.336
1844.5000	255.375
1845.0000	255.405
1845.5000	255.396
1846.0000	255.374
1846.5000	255.295
1847.0000	255.314
1847.5000	255.331
1848.0000	255.355
1848.5000	255.407
1849.0000	255.396
1849.5000	255.38
1850.0000	255.357
1850.5000	255.371
1851.0000	255.395
1851.5000	255.443
1852.0000	255.454
1852.5000	255.493
1853.0000	255.499
1853.5000	255.419
1854.0000	255.439
1854.5000	255.431
1855.0000	255.41
1855.5000	255.528
1856.0000	255.51
1856.5000	255.502
1857.0000	255.573
1857.5000	255.532
1858.0000	255.587
1858.5000	255.588
1859.0000	255.499
1859.5000	255.507
1860.0000	255.519
1860.5000	255.572
1861.0000	255.612
1861.5000	255.624
1862.0000	255.641
1862.5000	255.617
1863.0000	255.659
1863.5000	255.693
1864.0000	255.714
1864.5000	255.725
1865.0000	255.769
1865.5000	255.743
1866.0000	255.741
1866.5000	255.732
1867.0000	255.724
1867.5000	255.719
1868.0000	255.718
1868.5000	255.766
1869.0000	255.785
1869.5000	255.789
1870.0000	255.822
1870.5000	255.786
1871.0000	255.736
1871.5000	255.752
1872.0000	255.719
1872.5000	255.733
1873.0000	255.74
1873.5000	255.769
1874.0000	255.764
1874.5000	255.761
1875.0000	255.801
1875.5000	255.786
1876.0000	255.852
1876.5000	255.826
1877.0000	255.832
1877.5000	255.845
1878.0000	255.817
1878.5000	255.903
1879.0000	255.906
1879.5000	255.892
1880.0000	255.971
1880.5000	255.938
1881.0000	255.975
1881.5000	255.996
1882.0000	255.921
1882.5000	255.92
1883.0000	255.914
1883.5000	255.957
1884.0000	256.006
1884.5000	256.051
1885.0000	256.03
1885.5000	256.064
1886.0000	256.032
1886.5000	256.03
1887.0000	256.05
1887.5000	256.043
1888.0000	256.068
1888.5000	256.097
1889.0000	256.116
1889.5000	256.082
1890.0000	256.121
1890.5000	256.125
1891.0000	256.169
1891.5000	256.248
1892.0000	256.254
1892.5000	256.259
1893.0000	256.196
1893.5000	256.167
1894.0000	256.179
1894.5000	256.177
1895.0000	256.221
1895.5000	256.286
1896.0000	256.251
1896.5000	256.247
1897.0000	256.368
1897.5000	256.316
1898.0000	256.366
1898.5000	256.405
1899.0000	256.295
1899.5000	256.286
1900.0000	256.258
1900.5000	256.214
1901.0000	256.215
1901.5000	256.26
1902.0000	256.287
1902.5000	256.352
1903.0000	256.317
1903.5000	256.313
1904.0000	256.329
1904.5000	256.278
1905.0000	256.341
1905.5000	256.315
1906.0000	256.255
1906.5000	256.252
1907.0000	256.271
1907.5000	256.284
1908.0000	256.362
1908.5000	256.462
1909.0000	256.451
1909.5000	256.437
1910.0000	256.467
1910.5000	256.44
1911.0000	256.432
1911.5000	256.451
1912.0000	256.374
1912.5000	256.394
1913.0000	256.396
1913.5000	256.435
1914.0000	256.481
1914.5000	256.499
1915.0000	256.538
1915.5000	256.553
1916.0000	256.603
1916.5000	256.572
1917.0000	256.6
1917.5000	256.593
1918.0000	256.55
1918.5000	256.55
1919.0000	256.565
1919.5000	256.549
1920.0000	256.562
1920.5000	256.572
1921.0000	256.564
1921.5000	256.576
1922.0000	256.612
1922.5000	256.6
1923.0000	256.577
1923.5000	256.568
1924.0000	256.539
1924.5000	256.543
1925.0000	256.592
1925.5000	256.65
1926.0000	256.71
1926.5000	256.76
1927.0000	256.694
1927.5000	256.643
1928.0000	256.568
1928.5000	256.546
1929.0000	256.627
1929.5000	256.671
1930.0000	256.677
1930.5000	256.734
1931.0000	256.723
1931.5000	256.72
1932.0000	256.763
1932.5000	256.751
1933.0000	256.733
1933.5000	256.741
1934.0000	256.777
1934.5000	256.757
1935.0000	256.751
1935.5000	256.821
1936.0000	256.824
1936.5000	256.83
1937.0000	256.89
1937.5000	256.817
1938.0000	256.875
1938.5000	256.894
1939.0000	256.812
1939.5000	256.816
1940.0000	256.739
1940.5000	256.768
1941.0000	256.812
1941.5000	256.857
1942.0000	256.864
1942.5000	256.825
1943.0000	256.85
1943.5000	256.847
1944.0000	256.851
1944.5000	256.85
1945.0000	256.872
1945.5000	256.893
1946.0000	256.874
1946.5000	256.892
1947.0000	256.855
1947.5000	256.834
1948.0000	256.875
1948.5000	256.825
1949.0000	256.871
1949.5000	256.931
1950.0000	256.895
1950.5000	256.966
1951.0000	256.975
1951.5000	256.906
1952.0000	256.96
1952.5000	257.012
1953.0000	256.978
1953.5000	257.035
1954.0000	257.046
1954.5000	256.995
1955.0000	257.016
1955.5000	256.993
1956.0000	256.962
1956.5000	256.966
1957.0000	256.977
1957.5000	256.984
1958.0000	257.006
1958.5000	257.04
1959.0000	257.029
1959.5000	257.058
1960.0000	257.047
1960.5000	257.071
1961.0000	257.097
1961.5000	257.039
1962.0000	257.056
1962.5000	257.055
1963.0000	257.082
1963.5000	257.102
1964.0000	257.094
1964.5000	257.075
1965.0000	257.007
1965.5000	257.041
1966.0000	257.057
1966.5000	257.018
1967.0000	257.06
1967.5000	257.054
1968.0000	257.072
1968.5000	257.103
1969.0000	257.104
1969.5000	257.081
1970.0000	257.051
1970.5000	257.066
1971.0000	257.082
1971.5000	257.149
1972.0000	257.18
1972.5000	257.212
1973.0000	257.206
1973.5000	257.203
1974.0000	257.159
1974.5000	257.132
1975.0000	257.201
1975.5000	257.154
1976.0000	257.224
1976.5000	257.181
1977.0000	257.112
1977.5000	257.182
1978.0000	257.175
1978.5000	257.268
1979.0000	257.269
1979.5000	257.237
1980.0000	257.229
1980.5000	257.208
1981.0000	257.228
1981.5000	257.255
1982.0000	257.268
1982.5000	257.292
1983.0000	257.291
1983.5000	257.289
1984.0000	257.303
1984.5000	257.286
1985.0000	257.296
1985.5000	257.282
1986.0000	257.27
1986.5000	257.253
1987.0000	257.281
1987.5000	257.29
1988.0000	257.306
1988.5000	257.308
1989.0000	257.264
1989.5000	257.301
1990.0000	257.324
1990.5000	257.346
1991.0000	257.419
1991.5000	257.359
1992.0000	257.388
1992.5000	257.392
1993.0000	257.298
1993.5000	257.313
1994.0000	257.28
1994.5000	257.332
1995.0000	257.38
1995.5000	257.415
1996.0000	257.45
1996.5000	257.438
1997.0000	257.459
1997.5000	257.442
1998.0000	257.441
1998.5000	257.444
1999.0000	257.499
1999.5000	257.495
2000.0000	257.518
2000.5000	257.498
2001.0000	257.457
2001.5000	257.534
2002.0000	257.511
2002.5000	257.53
2003.0000	257.522
2003.5000	257.48
2004.0000	257.482
2004.5000	257.482
2005.0000	257.473
2005.5000	257.496
2006.0000	257.488
2006.5000	257.457
2007.0000	257.524
2007.5000	257.495
2008.0000	257.497
2008.5000	257.559
2009.0000	257.529
2009.5000	257.6
2010.0000	257.61
2010.5000	257.581
2011.0000	257.646
2011.5000	257.621
2012.0000	257.613
2012.5000	257.619
2013.0000	257.596
2013.5000	257.634
2014.0000	257.674
2014.5000	257.739
2015.0000	257.714
2015.5000	257.684
2016.0000	257.701
2016.5000	257.681
2017.0000	257.778
2017.5000	257.815
2018.0000	257.804
2018.5000	257.831
2019.0000	257.774
2019.5000	257.809
2020.0000	257.8
2020.5000	257.764
2021.0000	257.768
2021.5000	257.739
2022.0000	257.712
2022.5000	257.718
2023.0000	257.79
2023.5000	257.733
2024.0000	257.79
2024.5000	257.785
2025.0000	257.723
2025.5000	257.801
2026.0000	257.761
2026.5000	257.801
2027.0000	257.819
2027.5000	257.79
2028.0000	257.85
2028.5000	257.857
2029.0000	257.798
2029.5000	257.747
2030.0000	257.752
2030.5000	257.766
2031.0000	257.822
2031.5000	257.908
2032.0000	257.897
2032.5000	257.884
2033.0000	257.859
2033.5000	257.837
2034.0000	257.878
2034.5000	257.849
2035.0000	257.856
2035.5000	257.859
2036.0000	257.861
2036.5000	257.878
2037.0000	257.895
2037.5000	257.921
2038.0000	257.914
2038.5000	257.935
2039.0000	257.922
2039.5000	257.883
2040.0000	257.91
2040.5000	257.928
2041.0000	257.927
2041.5000	258.01
2042.0000	257.973
2042.5000	257.961
2043.0000	258.034
2043.5000	258.024
2044.0000	258.074
2044.5000	258.127
2045.0000	258.061
2045.5000	258.095
2046.0000	258.084
2046.5000	258.12
2047.0000	258.178
2047.5000	258.165
2048.0000	258.173
2048.5000	258.151
2049.0000	258.163
2049.5000	258.115
2050.0000	258.108
2050.5000	258.06
2051.0000	258.092
2051.5000	258.087
2052.0000	258.077
2052.5000	258.095
2053.0000	258.094
2053.5000	258.173
2054.0000	258.189
2054.5000	258.222
2055.0000	258.258
2055.5000	258.254
2056.0000	258.263
2056.5000	258.255
2057.0000	258.215
2057.5000	258.194
2058.0000	258.2
2058.5000	258.22
2059.0000	258.235
2059.5000	258.244
2060.0000	258.252
2060.5000	258.273
2061.0000	258.286
2061.5000	258.255
2062.0000	258.272
2062.5000	258.238
2063.0000	258.188
2063.5000	258.239
2064.0000	258.262
2064.5000	258.268
2065.0000	258.28
2065.5000	258.295
2066.0000	258.284
2066.5000	258.344
2067.0000	258.358
2067.5000	258.369
2068.0000	258.411
2068.5000	258.378
2069.0000	258.413
2069.5000	258.411
2070.0000	258.373
2070.5000	258.429
2071.0000	258.428
2071.5000	258.393
2072.0000	258.453
2072.5000	258.406
2073.0000	258.462
2073.5000	258.494
2074.0000	258.456
2074.5000	258.469
2075.0000	258.379
2075.5000	258.426
2076.0000	258.469
2076.5000	258.502
2077.0000	258.569
2077.5000	258.594
2078.0000	258.572
2078.5000	258.524
2079.0000	258.549
2079.5000	258.528
2080.0000	258.533
2080.5000	258.579
2081.0000	258.547
2081.5000	258.518
2082.0000	258.503
2082.5000	258.518
2083.0000	258.567
2083.5000	258.565
2084.0000	258.563
2084.5000	258.56
2085.0000	258.569
2085.5000	258.568
2086.0000	258.603
2086.5000	258.661
2087.0000	258.643
2087.5000	258.706
2088.0000	258.736
2088.5000	258.685
2089.0000	258.709
2089.5000	258.675
2090.0000	258.65
2090.5000	258.687
2091.0000	258.649
2091.5000	258.677
2092.0000	258.694
2092.5000	258.669
2093.0000	258.685
2093.5000	258.7
2094.0000	258.698
2094.5000	258.754
2095.0000	258.764
2095.5000	258.758
2096.0000	258.829
2096.5000	258.727
2097.0000	258.777
2097.5000	258.861
2098.0000	258.852
2098.5000	258.918
2099.0000	258.919
2099.5000	258.891
2100.0000	258.863
2100.5000	258.892
2101.0000	258.891
2101.5000	258.831
2102.0000	258.869
2102.5000	258.947
2103.0000	258.921
2103.5000	258.98
2104.0000	258.977
2104.5000	258.882
2105.0000	258.905
2105.5000	258.882
2106.0000	258.903
2106.5000	258.913
2107.0000	258.943
2107.5000	258.974
2108.0000	258.937
2108.5000	258.956
2109.0000	258.976
2109.5000	258.978
2110.0000	258.991
2110.5000	259.024
2111.0000	259.001
2111.5000	259.023
2112.0000	259.047
2112.5000	259.006
2113.0000	259.061
2113.5000	259.05
2114.0000	259.052
2114.5000	259.102
2115.0000	259.056
2115.5000	259.03
2116.0000	259.05
2116.5000	259.037
2117.0000	259.043
2117.5000	259.086
2118.0000	259.077
2118.5000	259.125
2119.0000	259.125
2119.5000	259.183
2120.0000	259.194
2120.5000	259.13
2121.0000	259.16
2121.5000	259.105
2122.0000	259.121
2122.5000	259.152
2123.0000	259.156
2123.5000	259.184
2124.0000	259.218
2124.5000	259.265
2125.0000	259.313
2125.5000	259.334
2126.0000	259.288
2126.5000	259.269
2127.0000	259.225
2127.5000	259.214
2128.0000	259.26
2128.5000	259.256
2129.0000	259.277
2129.5000	259.277
2130.0000	259.253
2130.5000	259.283
2131.0000	259.36
2131.5000	259.384
2132.0000	259.386
2132.5000	259.414
2133.0000	259.353
2133.5000	259.361
2134.0000	259.39
2134.5000	259.337
2135.0000	259.323
2135.5000	259.343
2136.0000	259.345
2136.5000	259.388
2137.0000	259.405
2137.5000	259.413
2138.0000	259.418
2138.5000	259.426
2139.0000	259.477
2139.5000	259.449
2140.0000	259.502
2140.5000	259.522
2141.0000	259.555
2141.5000	259.564
2142.0000	259.539
2142.5000	259.587
2143.0000	259.564
2143.5000	259.634
2144.0000	259.676
2144.5000	259.661
2145.0000	259.664
2145.5000	259.608
2146.0000	259.629
2146.5000	259.619
2147.0000	259.576
2147.5000	259.619
2148.0000	259.603
2148.5000	259.624
2149.0000	259.675
2149.5000	259.724
2150.0000	259.709
2150.5000	259.749
2151.0000	259.781
2151.5000	259.733
2152.0000	259.777
2152.5000	259.741
2153.0000	259.708
2153.5000	259.713
2154.0000	259.748
2154.5000	259.768
2155.0000	259.782
2155.5000	259.851
2156.0000	259.828
2156.5000	259.834
2157.0000	259.839
2157.5000	259.802
2158.0000	259.8
2158.5000	259.78
2159.0000	259.799
2159.5000	259.798
2160.0000	259.845
2160.5000	259.849
2161.0000	259.869
2161.5000	259.921
2162.0000	259.879
2162.5000	259.959
2163.0000	260.019
2163.5000	259.944
2164.0000	259.966
2164.5000	259.916
2165.0000	259.834
2165.5000	259.899
2166.0000	259.903
2166.5000	259.93
2167.0000	259.983
2167.5000	259.97
2168.0000	259.959
2168.5000	259.975
2169.0000	260.006
2169.5000	259.989
2170.0000	260.015
2170.5000	260.005
2171.0000	259.992
2171.5000	260.015
2172.0000	260.011
2172.5000	260.025
2173.0000	260.052
2173.5000	260.089
2174.0000	260.095
2174.5000	260.064
2175.0000	260.036
2175.5000	260.072
2176.0000	260.089
2176.5000	260.121
2177.0000	260.147
2177.5000	260.159
2178.0000	260.182
2178.5000	260.247
2179.0000	260.217
2179.5000	260.186
2180.0000	260.157
2180.5000	260.132
2181.0000	260.156
2181.5000	260.151
2182.0000	260.168
2182.5000	260.154
2183.0000	260.188
2183.5000	260.211
2184.0000	260.247
2184.5000	260.266
2185.0000	260.223
2185.5000	260.238
2186.0000	260.213
2186.5000	260.23
2187.0000	260.258
2187.5000	260.281
2188.0000	260.285
2188.5000	260.275
2189.0000	260.323
2189.5000	260.279
2190.0000	260.261
2190.5000	260.243
2191.0000	260.258
2191.5000	260.312
2192.0000	260.341
2192.5000	260.41
2193.0000	260.378
2193.5000	260.362
2194.0000	260.425
2194.5000	260.4
2195.0000	260.415
2195.5000	260.434
2196.0000	260.4
2196.5000	260.452
2197.0000	260.42
2197.5000	260.437
2198.0000	260.464
2198.5000	260.409
2199.0000	260.459
2199.5000	260.456
2200.0000	260.504
2200.5000	260.524
2201.0000	260.583
2201.5000	260.582
2202.0000	260.56
2202.5000	260.607
2203.0000	260.577
2203.5000	260.573
2204.0000	260.563
2204.5000	260.552
2205.0000	260.557
2205.5000	260.597
2206.0000	260.647
2206.5000	260.64
2207.0000	260.678
2207.5000	260.666
2208.0000	260.675
2208.5000	260.743
2209.0000	260.732
2209.5000	260.777
2210.0000	260.702
2210.5000	260.665
2211.0000	260.67
2211.5000	260.68
2212.0000	260.761
2212.5000	260.771
2213.0000	260.757
2213.5000	260.722
2214.0000	260.733
2214.5000	260.73
2215.0000	260.734
2215.5000	260.812
2216.0000	260.836
2216.5000	260.812
2217.0000	260.857
2217.5000	260.82
2218.0000	260.767
2218.5000	260.818
2219.0000	260.797
2219.5000	260.791
2220.0000	260.835
2220.5000	260.881
2221.0000	260.866
2221.5000	260.88
2222.0000	260.839
2222.5000	260.805
2223.0000	260.862
2223.5000	260.872
2224.0000	260.907
2224.5000	260.924
2225.0000	260.918
2225.5000	260.901
2226.0000	260.929
2226.5000	260.976
2227.0000	260.987
2227.5000	261
2228.0000	260.973
2228.5000	260.907
2229.0000	260.914
2229.5000	260.914
2230.0000	260.992
2230.5000	261.002
2231.0000	261.049
2231.5000	261.095
2232.0000	261.051
2232.5000	261.083
2233.0000	261.017
2233.5000	260.992
2234.0000	261.017
2234.5000	261.045
2235.0000	261.081
2235.5000	261.118
2236.0000	261.11
2236.5000	261.08
2237.0000	261.069
2237.5000	261.094
2238.0000	261.136
2238.5000	261.186
2239.0000	261.209
2239.5000	261.2
2240.0000	261.199
2240.5000	261.18
2241.0000	261.209
2241.5000	261.167
2242.0000	261.125
2242.5000	261.131
2243.0000	261.097
2243.5000	261.118
2244.0000	261.164
2244.5000	261.149
2245.0000	261.227
2245.5000	261.255
2246.0000	261.229
2246.5000	261.231
2247.0000	261.22
2247.5000	261.275
2248.0000	261.283
2248.5000	261.317
2249.0000	261.325
2249.5000	261.321
2250.0000	261.376
2250.5000	261.38
2251.0000	261.389
2251.5000	261.342
2252.0000	261.316
2252.5000	261.296
2253.0000	261.3
2253.5000	261.308
2254.0000	261.372
2254.5000	261.408
2255.0000	261.428
2255.5000	261.486
2256.0000	261.471
2256.5000	261.459
2257.0000	261.451
2257.5000	261.416
2258.0000	261.436
2258.5000	261.472
2259.0000	261.444
2259.5000	261.47
2260.0000	261.468
2260.5000	261.497
2261.0000	261.508
2261.5000	261.491
2262.0000	261.51
2262.5000	261.514
2263.0000	261.527
2263.5000	261.593
2264.0000	261.567
2264.5000	261.556
2265.0000	261.618
2265.5000	261.626
2266.0000	261.623
2266.5000	261.688
2267.0000	261.637
2267.5000	261.599
2268.0000	261.606
2268.5000	261.568
2269.0000	261.568
2269.5000	261.594
2270.0000	261.603
2270.5000	261.608
2271.0000	261.68
2271.5000	261.692
2272.0000	261.733
2272.5000	261.743
2273.0000	261.7
2273.5000	261.684
2274.0000	261.682
2274.5000	261.706
2275.0000	261.668
2275.5000	261.715
2276.0000	261.742
2276.5000	261.735
2277.0000	261.794
2277.5000	261.794
2278.0000	261.793
2278.5000	261.767
2279.0000	261.821
2279.5000	261.812
2280.0000	261.766
2280.5000	261.762
2281.0000	261.728
2281.5000	261.698
2282.0000	261.702
2282.5000	261.744
2283.0000	261.776
2283.5000	261.855
2284.0000	261.87
2284.5000	261.9
2285.0000	261.832
2285.5000	261.808
2286.0000	261.823
2286.5000	261.819
2287.0000	261.858
2287.5000	261.831
2288.0000	261.847
2288.5000	261.838
2289.0000	261.818
2289.5000	261.832
2290.0000	261.838
2290.5000	261.791
2291.0000	261.854
2291.5000	261.866
2292.0000	261.875
2292.5000	261.97
2293.0000	261.968
2293.5000	261.948
2294.0000	261.968
2294.5000	261.897
2295.0000	261.862
2295.5000	261.955
2296.0000	261.941
2296.5000	261.959
2297.0000	262.009
2297.5000	261.952
2298.0000	261.987
2298.5000	261.991
2299.0000	261.982
2299.5000	262.011
2300.0000	261.99
2300.5000	262.042
2301.0000	262.054
2301.5000	262.021
2302.0000	262.046
2302.5000	262.057
2303.0000	262.053
2303.5000	262.062
2304.0000	262.041
2304.5000	262.007
2305.0000	262.036
2305.5000	262.1
2306.0000	262.126
2306.5000	262.142
2307.0000	262.111
2307.5000	262.103
2308.0000	262.108
2308.5000	262.153
2309.0000	262.145
2309.5000	262.122
2310.0000	262.134
2310.5000	262.067
2311.0000	262.132
2311.5000	262.176
2312.0000	262.232
2312.5000	262.287
2313.0000	262.244
2313.5000	262.221
2314.0000	262.188
2314.5000	262.185
2315.0000	262.206
2315.5000	262.212
2316.0000	262.222
2316.5000	262.232
2317.0000	262.232
2317.5000	262.238
2318.0000	262.186
2318.5000	262.165
2319.0000	262.173
2319.5000	262.214
2320.0000	262.216
2320.5000	262.25
2321.0000	262.291
2321.5000	262.276
2322.0000	262.294
2322.5000	262.298
2323.0000	262.292
2323.5000	262.252
2324.0000	262.271
2324.5000	262.258
2325.0000	262.222
2325.5000	262.256
2326.0000	262.235
2326.5000	262.238
2327.0000	262.298
2327.5000	262.362
2328.0000	262.368
2328.5000	262.431
2329.0000	262.382
2329.5000	262.282
2330.0000	262.332
2330.5000	262.289
2331.0000	262.351
2331.5000	262.429
2332.0000	262.376
2332.5000	262.408
2333.0000	262.371
2333.5000	262.381
2334.0000	262.402
2334.5000	262.358
2335.0000	262.383
2335.5000	262.379
2336.0000	262.43
2336.5000	262.493
2337.0000	262.498
2337.5000	262.455
2338.0000	262.434
2338.5000	262.388
2339.0000	262.421
2339.5000	262.504
2340.0000	262.522
2340.5000	262.57
2341.0000	262.556
2341.5000	262.51
2342.0000	262.525
2342.5000	262.521
2343.0000	262.514
2343.5000	262.506
2344.0000	262.449
2344.5000	262.478
2345.0000	262.529
2345.5000	262.537
2346.0000	262.606
2346.5000	262.614
2347.0000	262.605
2347.5000	262.621
2348.0000	262.621
2348.5000	262.564
2349.0000	262.521
2349.5000	262.517
2350.0000	262.524
2350.5000	262.515
2351.0000	262.536
2351.5000	262.576
2352.0000	262.579
2352.5000	262.689
2353.0000	262.652
2353.5000	262.636
2354.0000	262.645
2354.5000	262.592
2355.0000	262.614
2355.5000	262.61
2356.0000	262.589
2356.5000	262.573
2357.0000	262.564
2357.5000	262.563
2358.0000	262.5
2358.5000	262.534
2359.0000	262.574
2359.5000	262.614
2360.0000	262.684
2360.5000	262.67
2361.0000	262.694
2361.5000	262.621
2362.0000	262.657
2362.5000	262.623
2363.0000	262.568
2363.5000	262.655
2364.0000	262.667
2364.5000	262.702
2365.0000	262.765
2365.5000	262.728
2366.0000	262.632
2366.5000	262.682
2367.0000	262.64
2367.5000	262.644
2368.0000	262.704
2368.5000	262.688
2369.0000	262.654
2369.5000	262.672
2370.0000	262.646
2370.5000	262.632
2371.0000	262.659
2371.5000	262.642
2372.0000	262.667
2372.5000	262.599
2373.0000	262.703
2373.5000	262.708
2374.0000	262.688
2374.5000	262.715
2375.0000	262.654
2375.5000	262.633
2376.0000	262.649
2376.5000	262.702
2377.0000	262.713
2377.5000	262.731
2378.0000	262.777
2378.5000	262.807
2379.0000	262.812
2379.5000	262.779
2380.0000	262.737
2380.5000	262.662
2381.0000	262.655
2381.5000	262.659
2382.0000	262.627
2382.5000	262.643
2383.0000	262.589
2383.5000	262.585
2384.0000	262.638
2384.5000	262.71
2385.0000	262.733
2385.5000	262.759
2386.0000	262.755
2386.5000	262.722
2387.0000	262.712
2387.5000	262.733
2388.0000	262.769
2388.5000	262.772
2389.0000	262.775
2389.5000	262.792
2390.0000	262.775
2390.5000	262.74
2391.0000	262.722
2391.5000	262.736
2392.0000	262.741
2392.5000	262.768
2393.0000	262.843
2393.5000	262.822
2394.0000	262.834
2394.5000	262.84
2395.0000	262.823
2395.5000	262.872
2396.0000	262.855
2396.5000	262.861
2397.0000	262.827
2397.5000	262.824
2398.0000	262.831
2398.5000	262.803
2399.0000	262.828
2399.5000	262.819
2400.0000	262.815
2400.5000	262.841
2401.0000	262.878
2401.5000	262.799
2402.0000	262.815
2402.5000	262.836
2403.0000	262.864
2403.5000	262.91
2404.0000	262.899
2404.5000	262.85
2405.0000	262.807
2405.5000	262.776
2406.0000	262.74
2406.5000	262.746
2407.0000	262.721
2407.5000	262.746
2408.0000	262.816
2408.5000	262.844
2409.0000	262.868
2409.5000	262.861
2410.0000	262.836
2410.5000	262.857
2411.0000	262.897
2411.5000	262.879
2412.0000	262.9
2412.5000	262.882
2413.0000	262.799
2413.5000	262.875
2414.0000	262.85
2414.5000	262.82
2415.0000	262.872
2415.5000	262.827
2416.0000	262.844
2416.5000	262.878
2417.0000	262.88
2417.5000	262.892
2418.0000	262.876
2418.5000	262.911
2419.0000	262.873
2419.5000	262.9
2420.0000	262.933
2420.5000	262.893
2421.0000	262.956
2421.5000	262.926
2422.0000	262.926
2422.5000	262.939
2423.0000	262.953
2423.5000	262.914
2424.0000	262.879
2424.5000	262.875
2425.0000	262.862
2425.5000	262.918
2426.0000	262.943
2426.5000	263.01
2427.0000	263.013
2427.5000	263.012
2428.0000	263.007
2428.5000	262.909
2429.0000	262.9
2429.5000	262.885
2430.0000	262.9
2430.5000	262.916
2431.0000	262.893
2431.5000	262.963
2432.0000	262.932
2432.5000	262.959
2433.0000	262.979
2433.5000	262.909
2434.0000	262.899
2434.5000	262.931
2435.0000	262.931
2435.5000	262.924
2436.0000	262.923
2436.5000	262.896
2437.0000	262.928
2437.5000	262.952
2438.0000	263.029
2438.5000	263.028
2439.0000	262.982
2439.5000	263.02
2440.0000	262.989
2440.5000	262.971
2441.0000	262.973
2441.5000	262.949
2442.0000	262.933
2442.5000	262.972
2443.0000	262.967
2443.5000	262.996
2444.0000	262.982
2444.5000	262.995
2445.0000	262.97
2445.5000	262.966
2446.0000	262.999
2446.5000	262.97
2447.0000	263.002
2447.5000	263.011
2448.0000	263.003
2448.5000	263.018
2449.0000	263.035
2449.5000	263.005
2450.0000	262.993
2450.5000	263.024
2451.0000	263.069
2451.5000	263.07
2452.0000	263.102
2452.5000	263.11
2453.0000	263.067
2453.5000	263.121
2454.0000	263.116
2454.5000	263.073
2455.0000	263.108
2455.5000	263.067
2456.0000	263.013
2456.5000	262.985
2457.0000	262.948
2457.5000	262.936
2458.0000	262.925
2458.5000	262.972
2459.0000	262.997
2459.5000	263.018
2460.0000	263.055
2460.5000	263.06
2461.0000	263.06
2461.5000	263.052
2462.0000	263.077
2462.5000	263.061
2463.0000	263.044
2463.5000	263.037
2464.0000	263.057
2464.5000	263.081
2465.0000	263.079
2465.5000	263.08
2466.0000	263.037
2466.5000	262.998
2467.0000	263.009
2467.5000	263.011
2468.0000	263.017
2468.5000	263.029
2469.0000	263.022
2469.5000	263.037
2470.0000	263.093
2470.5000	263.107
2471.0000	263.113
2471.5000	263.142
2472.0000	263.164
2472.5000	263.117
2473.0000	263.134
2473.5000	263.112
2474.0000	263.048
2474.5000	263.081
2475.0000	263.05
2475.5000	263.039
2476.0000	263.061
2476.5000	263.131
2477.0000	263.167
2477.5000	263.192
2478.0000	263.171
2478.5000	263.13
2479.0000	263.118
2479.5000	263.102
2480.0000	263.168
2480.5000	263.204
2481.0000	263.199
2481.5000	263.206
2482.0000	263.167
2482.5000	263.145
2483.0000	263.145
2483.5000	263.11
2484.0000	263.125
2484.5000	263.128
2485.0000	263.136
2485.5000	263.171
2486.0000	263.164
2486.5000	263.157
2487.0000	263.166
2487.5000	263.214
2488.0000	263.172
2488.5000	263.113
2489.0000	263.092
2489.5000	263.018
2490.0000	263.063
2490.5000	263.175
2491.0000	263.229
2491.5000	263.239
2492.0000	263.227
2492.5000	263.177
2493.0000	263.163
2493.5000	263.16
2494.0000	263.162
2494.5000	263.185
2495.0000	263.192
2495.5000	263.254
2496.0000	263.278
2496.5000	263.27
2497.0000	263.289
2497.5000	263.262
2498.0000	263.265
2498.5000	263.235
2499.0000	263.182
2499.5000	263.163
2500.0000	263.202
2500.5000	263.199
2501.0000	263.187
2501.5000	263.196
2502.0000	263.141
2502.5000	263.159
2503.0000	263.143
2503.5000	263.146
2504.0000	263.157
2504.5000	263.135
2505.0000	263.2
2505.5000	263.227
2506.0000	263.206
2506.5000	263.21
2507.0000	263.161
2507.5000	263.126
2508.0000	263.128
2508.5000	263.112
2509.0000	263.17
2509.5000	263.196
2510.0000	263.176
2510.5000	263.22
2511.0000	263.252
2511.5000	263.245
2512.0000	263.325
2512.5000	263.322
2513.0000	263.265
2513.5000	263.273
2514.0000	263.261
2514.5000	263.285
2515.0000	263.279
2515.5000	263.234
2516.0000	263.212
2516.5000	263.2
2517.0000	263.211
2517.5000	263.321
2518.0000	263.289
2518.5000	263.203
2519.0000	263.228
2519.5000	263.161
2520.0000	263.167
2520.5000	263.236
2521.0000	263.175
2521.5000	263.221
2522.0000	263.244
2522.5000	263.272
2523.0000	263.382
2523.5000	263.357
2524.0000	263.35
2524.5000	263.319
2525.0000	263.214
2525.5000	263.184
2526.0000	263.22
2526.5000	263.239
2527.0000	263.294
2527.5000	263.312
2528.0000	263.337
2528.5000	263.356
2529.0000	263.345
2529.5000	263.351
2530.0000	263.233
2530.5000	263.172
2531.0000	263.202
2531.5000	263.178
2532.0000	263.214
2532.5000	263.249
2533.0000	263.253
2533.5000	263.281
2534.0000	263.324
2534.5000	263.344
2535.0000	263.287
2535.5000	263.247
2536.0000	263.269
2536.5000	263.275
2537.0000	263.317
2537.5000	263.331
2538.0000	263.273
2538.5000	263.267
2539.0000	263.224
2539.5000	263.267
2540.0000	263.29
2540.5000	263.292
2541.0000	263.387
2541.5000	263.312
2542.0000	263.3
2542.5000	263.285
2543.0000	263.221
2543.5000	263.294
2544.0000	263.312
2544.5000	263.29
2545.0000	263.271
2545.5000	263.238
2546.0000	263.264
2546.5000	263.284
2547.0000	263.32
2547.5000	263.337
2548.0000	263.316
2548.5000	263.335
2549.0000	263.285
2549.5000	263.308
2550.0000	263.345
2550.5000	263.311
2551.0000	263.385
2551.5000	263.358
2552.0000	263.297
2552.5000	263.362
2553.0000	263.323
2553.5000	263.381
2554.0000	263.417
2554.5000	263.384
2555.0000	263.338
2555.5000	263.285
2556.0000	263.313
2556.5000	263.297
2557.0000	263.355
2557.5000	263.364
2558.0000	263.343
2558.5000	263.34
2559.0000	263.338
2559.5000	263.319
2560.0000	263.308
2560.5000	263.306
2561.0000	263.285
2561.5000	263.316
2562.0000	263.341
2562.5000	263.37
2563.0000	263.416
2563.5000	263.438
2564.0000	263.408
2564.5000	263.383
2565.0000	263.344
2565.5000	263.318
2566.0000	263.288
2566.5000	263.352
2567.0000	263.38
2567.5000	263.393
2568.0000	263.427
2568.5000	263.348
2569.0000	263.3
2569.5000	263.332
2570.0000	263.346
2570.5000	263.374
2571.0000	263.458
2571.5000	263.433
2572.0000	263.416
2572.5000	263.388
2573.0000	263.373
2573.5000	263.428
2574.0000	263.376
2574.5000	263.405
2575.0000	263.373
2575.5000	263.319
2576.0000	263.385
2576.5000	263.401
2577.0000	263.37
2577.5000	263.345
2578.0000	263.328
2578.5000	263.329
2579.0000	263.354
2579.5000	263.332
2580.0000	263.358
2580.5000	263.341
2581.0000	263.356
2581.5000	263.367
2582.0000	263.354
2582.5000	263.373
2583.0000	263.367
2583.5000	263.377
2584.0000	263.368
2584.5000	263.354
2585.0000	263.347
2585.5000	263.378
2586.0000	263.404
2586.5000	263.422
2587.0000	263.426
2587.5000	263.405
2588.0000	263.395
2588.5000	263.408
2589.0000	263.404
2589.5000	263.372
2590.0000	263.359
2590.5000	263.328
2591.0000	263.378
2591.5000	263.457
2592.0000	263.492
2592.5000	263.498
2593.0000	263.467
2593.5000	263.442
2594.0000	263.425
2594.5000	263.487
2595.0000	263.496
2595.5000	263.492
2596.0000	263.43
2596.5000	263.377
2597.0000	263.408
2597.5000	263.335
2598.0000	263.416
2598.5000	263.397
2599.0000	263.367
2599.5000	263.444
2600.0000	263.414
2600.5000	263.425
2601.0000	263.439
2601.5000	263.441
2602.0000	263.45
2602.5000	263.425
2603.0000	263.374
2603.5000	263.361
2604.0000	263.376
2604.5000	263.41
2605.0000	263.472
2605.5000	263.542
2606.0000	263.535
2606.5000	263.492
2607.0000	263.48
2607.5000	263.408
2608.0000	263.396
2608.5000	263.417
2609.0000	263.411
2609.5000	263.418
2610.0000	263.411
2610.5000	263.477
2611.0000	263.444
2611.5000	263.399
2612.0000	263.398
2612.5000	263.37
2613.0000	263.354
2613.5000	263.416
2614.0000	263.419
2614.5000	263.433
2615.0000	263.462
2615.5000	263.481
2616.0000	263.498
2616.5000	263.432
2617.0000	263.387
2617.5000	263.353
2618.0000	263.355
2618.5000	263.374
2619.0000	263.451
2619.5000	263.421
2620.0000	263.424
2620.5000	263.452
2621.0000	263.436
2621.5000	263.488
2622.0000	263.501
2622.5000	263.482
2623.0000	263.455
2623.5000	263.449
2624.0000	263.436
2624.5000	263.453
2625.0000	263.452
2625.5000	263.41
2626.0000	263.405
2626.5000	263.405
2627.0000	263.425
2627.5000	263.487
2628.0000	263.513
2628.5000	263.52
2629.0000	263.536
2629.5000	263.469
2630.0000	263.463
2630.5000	263.463
2631.0000	263.431
2631.5000	263.435
2632.0000	263.402
2632.5000	263.399
2633.0000	263.387
2633.5000	263.437
2634.0000	263.416
2634.5000	263.405
2635.0000	263.463
2635.5000	263.395
2636.0000	263.433
2636.5000	263.452
2637.0000	263.432
2637.5000	263.515
2638.0000	263.505
2638.5000	263.52
2639.0000	263.52
2639.5000	263.49
2640.0000	263.522
2640.5000	263.486
2641.0000	263.478
2641.5000	263.47
2642.0000	263.475
2642.5000	263.496
2643.0000	263.506
2643.5000	263.504
2644.0000	263.488
2644.5000	263.425
2645.0000	263.418
2645.5000	263.367
2646.0000	263.362
2646.5000	263.366
2647.0000	263.336
2647.5000	263.359
2648.0000	263.369
2648.5000	263.384
2649.0000	263.42
2649.5000	263.449
2650.0000	263.401
2650.5000	263.424
2651.0000	263.407
2651.5000	263.456
2652.0000	263.543
2652.5000	263.556
2653.0000	263.562
2653.5000	263.527
2654.0000	263.49
2654.5000	263.488
2655.0000	263.506
2655.5000	263.504
2656.0000	263.491
2656.5000	263.499
2657.0000	263.48
2657.5000	263.464
2658.0000	263.436
2658.5000	263.419
2659.0000	263.421
2659.5000	263.415
2660.0000	263.414
2660.5000	263.434
2661.0000	263.449
2661.5000	263.488
2662.0000	263.521
2662.5000	263.55
2663.0000	263.535
2663.5000	263.514
2664.0000	263.511
2664.5000	263.491
2665.0000	263.513
2665.5000	263.521
2666.0000	263.518
2666.5000	263.535
2667.0000	263.529
2667.5000	263.495
2668.0000	263.534
2668.5000	263.489
2669.0000	263.487
2669.5000	263.47
2670.0000	263.439
2670.5000	263.457
2671.0000	263.387
2671.5000	263.418
2672.0000	263.347
2672.5000	263.358
2673.0000	263.354
2673.5000	263.352
2674.0000	263.443
2674.5000	263.457
2675.0000	263.525
2675.5000	263.553
2676.0000	263.514
2676.5000	263.501
2677.0000	263.487
2677.5000	263.506
2678.0000	263.514
2678.5000	263.506
2679.0000	263.538
2679.5000	263.512
2680.0000	263.516
2680.5000	263.482
2681.0000	263.464
2681.5000	263.461
2682.0000	263.465
2682.5000	263.491
2683.0000	263.479
2683.5000	263.535
2684.0000	263.535
2684.5000	263.545
2685.0000	263.549
2685.5000	263.422
2686.0000	263.436
2686.5000	263.422
2687.0000	263.445
2687.5000	263.519
2688.0000	263.552
2688.5000	263.577
2689.0000	263.535
2689.5000	263.494
2690.0000	263.469
2690.5000	263.455
2691.0000	263.491
2691.5000	263.509
2692.0000	263.468
2692.5000	263.451
2693.0000	263.452
2693.5000	263.44
2694.0000	263.445
2694.5000	263.463
2695.0000	263.462
2695.5000	263.522
2696.0000	263.514
2696.5000	263.48
2697.0000	263.452
2697.5000	263.436
2698.0000	263.517
2698.5000	263.544
2699.0000	263.613
2699.5000	263.591
2700.0000	263.54
2700.5000	263.56
2701.0000	263.466
2701.5000	263.448
2702.0000	263.511
2702.5000	263.465
2703.0000	263.517
2703.5000	263.521
2704.0000	263.473
2704.5000	263.49
2705.0000	263.494
2705.5000	263.515
2706.0000	263.476
2706.5000	263.508
2707.0000	263.513
2707.5000	263.529
2708.0000	263.554
2708.5000	263.523
2709.0000	263.491
2709.5000	263.467
2710.0000	263.469
2710.5000	263.455
2711.0000	263.54
2711.5000	263.563
2712.0000	263.559
2712.5000	263.587
2713.0000	263.575
2713.5000	263.533
2714.0000	263.554
2714.5000	263.534
2715.0000	263.561
2715.5000	263.604
2716.0000	263.556
2716.5000	263.54
2717.0000	263.469
2717.5000	263.482
2718.0000	263.515
2718.5000	263.527
2719.0000	263.532
2719.5000	263.541
2720.0000	263.514
2720.5000	263.571
2721.0000	263.553
2721.5000	263.528
2722.0000	263.568
2722.5000	263.585
2723.0000	263.606
2723.5000	263.624
2724.0000	263.597
2724.5000	263.549
2725.0000	263.518
2725.5000	263.496
2726.0000	263.528
2726.5000	263.53
2727.0000	263.538
2727.5000	263.522
2728.0000	263.506
2728.5000	263.52
2729.0000	263.558
2729.5000	263.583
2730.0000	263.574
2730.5000	263.563
2731.0000	263.493
2731.5000	263.485
2732.0000	263.487
2732.5000	263.475
2733.0000	263.485
2733.5000	263.449
2734.0000	263.473
2734.5000	263.496
2735.0000	263.563
2735.5000	263.6
2736.0000	263.55
2736.5000	263.546
2737.0000	263.528
2737.5000	263.502
2738.0000	263.568
2738.5000	263.584
2739.0000	263.608
2739.5000	263.63
2740.0000	263.627
2740.5000	263.597
2741.0000	263.572
2741.5000	263.569
2742.0000	263.526
2742.5000	263.521
2743.0000	263.511
2743.5000	263.522
2744.0000	263.564
2744.5000	263.541
2745.0000	263.556
2745.5000	263.552
2746.0000	263.544
2746.5000	263.574
2747.0000	263.587
2747.5000	263.563
2748.0000	263.546
2748.5000	263.587
2749.0000	263.538
2749.5000	263.575
2750.0000	263.615
2750.5000	263.579
2751.0000	263.619
2751.5000	263.642
2752.0000	263.606
2752.5000	263.641
2753.0000	263.616
2753.5000	263.647
2754.0000	263.671
2754.5000	263.698
2755.0000	263.706
2755.5000	263.66
2756.0000	263.584
2756.5000	263.543
2757.0000	263.533
2757.5000	263.513
2758.0000	263.566
2758.5000	263.545
2759.0000	263.563
2759.5000	263.591
2760.0000	263.591
2760.5000	263.571
2761.0000	263.575
2761.5000	263.562
2762.0000	263.519
2762.5000	263.525
2763.0000	263.523
2763.5000	263.542
2764.0000	263.577
2764.5000	263.547
2765.0000	263.514
2765.5000	263.515
2766.0000	263.497
2766.5000	263.551
2767.0000	263.595
2767.5000	263.558
2768.0000	263.58
2768.5000	263.611
2769.0000	263.592
2769.5000	263.595
2770.0000	263.57
2770.5000	263.575
2771.0000	263.593
2771.5000	263.605
2772.0000	263.652
2772.5000	263.599
2773.0000	263.585
2773.5000	263.583
2774.0000	263.501
2774.5000	263.537
2775.0000	263.579
2775.5000	263.556
2776.0000	263.618
2776.5000	263.602
2777.0000	263.63
2777.5000	263.664
2778.0000	263.712
2778.5000	263.775
2779.0000	263.73
2779.5000	263.759
2780.0000	263.766
2780.5000	263.701
2781.0000	263.66
2781.5000	263.634
2782.0000	263.627
2782.5000	263.633
2783.0000	263.773
2783.5000	263.794
2784.0000	263.8
2784.5000	263.818
2785.0000	263.745
2785.5000	263.759
2786.0000	263.757
2786.5000	263.802
2787.0000	263.82
2787.5000	263.78
2788.0000	263.815
2788.5000	263.775
2789.0000	263.746
2789.5000	263.781
2790.0000	263.676
2790.5000	263.662
2791.0000	263.686
2791.5000	263.696
2792.0000	263.722
2792.5000	263.73
2793.0000	263.733
2793.5000	263.682
2794.0000	263.728
2794.5000	263.798
2795.0000	263.752
2795.5000	263.802
2796.0000	263.784
2796.5000	263.783
2797.0000	263.79
2797.5000	263.809
2798.0000	263.851
2798.5000	263.766
2799.0000	263.781
2799.5000	263.8
2800.0000	263.757
2800.5000	263.805
2801.0000	263.82
2801.5000	263.807
2802.0000	263.877
2802.5000	263.865
2803.0000	263.834
2803.5000	263.811
2804.0000	263.723
2804.5000	263.751
2805.0000	263.759
2805.5000	263.819
2806.0000	263.85
2806.5000	263.852
2807.0000	263.921
2807.5000	263.873
2808.0000	263.888
2808.5000	263.859
2809.0000	263.842
2809.5000	263.815
2810.0000	263.803
2810.5000	263.804
2811.0000	263.767
2811.5000	263.788
2812.0000	263.805
2812.5000	263.869
2813.0000	263.879
2813.5000	263.887
2814.0000	263.854
2814.5000	263.825
2815.0000	263.862
2815.5000	263.901
2816.0000	263.916
2816.5000	263.881
2817.0000	263.857
2817.5000	263.864
2818.0000	263.929
2818.5000	263.926
2819.0000	263.922
2819.5000	263.879
2820.0000	263.854
2820.5000	263.865
2821.0000	263.855
2821.5000	263.868
2822.0000	263.838
2822.5000	263.9
2823.0000	263.96
2823.5000	263.949
2824.0000	263.983
2824.5000	263.941
2825.0000	263.865
2825.5000	263.861
2826.0000	263.847
2826.5000	263.835
2827.0000	263.895
2827.5000	263.905
2828.0000	263.879
2828.5000	263.931
2829.0000	263.865
2829.5000	263.851
2830.0000	263.867
2830.5000	263.811
2831.0000	263.907
2831.5000	263.949
2832.0000	263.965
2832.5000	263.98
2833.0000	263.94
2833.5000	263.927
2834.0000	263.931
2834.5000	263.953
2835.0000	263.956
2835.5000	263.971
2836.0000	263.976
2836.5000	263.96
2837.0000	263.943
2837.5000	263.947
2838.0000	263.932
2838.5000	263.963
2839.0000	264.012
2839.5000	263.996
2840.0000	263.994
2840.5000	263.995
2841.0000	263.991
2841.5000	263.995
2842.0000	264.03
2842.5000	263.998
2843.0000	263.965
2843.5000	263.931
2844.0000	263.944
2844.5000	263.906
2845.0000	263.963
2845.5000	263.956
2846.0000	263.929
2846.5000	263.96
2847.0000	263.912
2847.5000	263.962
2848.0000	263.966
2848.5000	264.014
2849.0000	264.028
2849.5000	264.011
2850.0000	264.016
2850.5000	264.039
2851.0000	264.039
2851.5000	264.034
2852.0000	264.028
2852.5000	263.962
2853.0000	263.974
2853.5000	263.992
2854.0000	264.085
2854.5000	264.149
2855.0000	264.125
2855.5000	264.126
2856.0000	264.06
2856.5000	264.042
2857.0000	264.057
2857.5000	264.059
2858.0000	264.049
2858.5000	264.073
2859.0000	264.063
2859.5000	264.087
2860.0000	264.104
2860.5000	264.036
2861.0000	264.038
2861.5000	264.016
2862.0000	264.008
2862.5000	264.05
2863.0000	264.082
2863.5000	264.112
2864.0000	264.069
2864.5000	264.058
2865.0000	264.084
2865.5000	264.085
2866.0000	264.099
2866.5000	264.137
2867.0000	264.085
2867.5000	264.096
2868.0000	264.114
2868.5000	264.076
2869.0000	264.12
2869.5000	264.095
2870.0000	264.102
2870.5000	264.103
2871.0000	264.047
2871.5000	264.046
2872.0000	264.026
2872.5000	264.04
2873.0000	264.044
2873.5000	264.057
2874.0000	264.023
2874.5000	264.056
2875.0000	264.109
2875.5000	264.141
2876.0000	264.206
2876.5000	264.207
2877.0000	264.179
2877.5000	264.093
2878.0000	264.053
2878.5000	264.025
2879.0000	264.013
2879.5000	264.048
2880.0000	264.109
2880.5000	264.085
2881.0000	264.078
2881.5000	264.135
2882.0000	264.112
2882.5000	264.129
2883.0000	264.197
2883.5000	264.141
