TITLE	
DATA TYPE	
ORIGIN	JASCO
OWNER	
DATE	22/04/19
TIME	13:48:02
SPECTROMETER/DATA SYSTEM	
RESOLUTION	
DELTAX	0.5
XUNITS	SEC
YUNITS	INTENSITY
FIRSTX	0.0000
LASTX	5000.0000
NPOINTS	10001
FIRSTY	516.00842
MAXY	516.21826
MINY	-63.51330
XYDATA
0.0000	516.008
0.5000	516.028
1.0000	516.076
1.5000	516.13
2.0000	516.041
2.5000	515.983
3.0000	516.042
3.5000	515.967
4.0000	516.019
4.5000	516.059
5.0000	516.03
5.5000	516.089
6.0000	516.07
6.5000	516.061
7.0000	516.006
7.5000	515.986
8.0000	516.063
8.5000	516.089
9.0000	516.096
9.5000	516.218
10.0000	516.148
10.5000	516.211
11.0000	500.163
11.5000	476.868
12.0000	422.976
12.5000	72.938
13.0000	-63.5133
13.5000	-37.5365
14.0000	-32.12
14.5000	-30.0018
15.0000	-29.0938
15.5000	-28.3012
16.0000	-27.6925
16.5000	-27.1708
17.0000	-26.6467
17.5000	-26.4231
18.0000	5.81352
18.5000	284.293
19.0000	278.019
19.5000	276.631
20.0000	273.956
20.5000	255.695
21.0000	256.165
21.5000	256.055
22.0000	256.008
22.5000	255.978
23.0000	256.001
23.5000	256.008
24.0000	255.946
24.5000	255.949
25.0000	255.915
25.5000	255.911
26.0000	255.968
26.5000	255.986
27.0000	255.976
27.5000	255.95
28.0000	255.873
28.5000	255.803
29.0000	255.747
29.5000	255.623
30.0000	255.574
30.5000	255.462
31.0000	255.369
31.5000	255.422
32.0000	255.379
32.5000	255.459
33.0000	255.572
33.5000	255.68
34.0000	255.851
34.5000	256.007
35.0000	256.134
35.5000	256.245
36.0000	256.376
36.5000	256.471
37.0000	256.541
37.5000	256.614
38.0000	256.603
38.5000	256.592
39.0000	256.587
39.5000	256.469
40.0000	256.458
40.5000	256.42
41.0000	256.397
41.5000	256.437
42.0000	256.386
42.5000	256.369
43.0000	256.332
43.5000	256.327
44.0000	256.392
44.5000	256.387
45.0000	256.394
45.5000	256.332
46.0000	256.272
46.5000	256.283
47.0000	256.284
47.5000	256.319
48.0000	256.341
48.5000	256.342
49.0000	256.378
49.5000	256.359
50.0000	256.315
50.5000	256.308
51.0000	256.338
51.5000	256.336
52.0000	256.336
52.5000	256.372
53.0000	256.396
53.5000	256.439
54.0000	256.481
54.5000	256.469
55.0000	256.402
55.5000	256.368
56.0000	256.385
56.5000	256.425
57.0000	256.463
57.5000	256.541
58.0000	256.558
58.5000	256.55
59.0000	256.574
59.5000	256.601
60.0000	256.574
60.5000	256.568
61.0000	256.619
61.5000	256.583
62.0000	256.671
62.5000	256.72
63.0000	256.686
63.5000	256.751
64.0000	256.742
64.5000	256.741
65.0000	256.74
65.5000	256.742
66.0000	256.779
66.5000	256.745
67.0000	256.843
67.5000	256.846
68.0000	256.857
68.5000	256.895
69.0000	256.844
69.5000	256.857
70.0000	256.843
70.5000	256.874
71.0000	256.878
71.5000	256.903
72.0000	256.885
72.5000	256.914
73.0000	256.956
73.5000	256.979
74.0000	257.012
74.5000	257.003
75.0000	256.985
75.5000	256.945
76.0000	256.974
76.5000	257.016
77.0000	257.02
77.5000	256.992
78.0000	256.991
78.5000	256.998
79.0000	257.032
79.5000	257.113
80.0000	257.132
80.5000	257.122
81.0000	257.143
81.5000	257.134
82.0000	257.166
82.5000	257.13
83.0000	257.145
83.5000	257.148
84.0000	257.147
84.5000	257.15
85.0000	257.151
85.5000	257.175
86.0000	257.149
86.5000	257.217
87.0000	257.213
87.5000	257.197
88.0000	257.204
88.5000	257.237
89.0000	257.214
89.5000	257.284
90.0000	257.339
90.5000	257.291
91.0000	257.382
91.5000	257.352
92.0000	257.336
92.5000	257.422
93.0000	257.394
93.5000	257.389
94.0000	257.457
94.5000	257.396
95.0000	257.401
95.5000	257.427
96.0000	257.471
96.5000	257.499
97.0000	257.536
97.5000	257.579
98.0000	257.526
98.5000	257.545
99.0000	257.491
99.5000	257.503
100.0000	257.47
100.5000	257.423
101.0000	257.507
101.5000	257.478
102.0000	257.494
102.5000	257.501
103.0000	257.484
103.5000	257.526
104.0000	257.536
104.5000	257.587
105.0000	257.579
105.5000	257.592
106.0000	257.605
106.5000	257.606
107.0000	257.598
107.5000	257.583
108.0000	257.611
108.5000	257.645
109.0000	257.693
109.5000	257.72
110.0000	257.713
110.5000	257.763
111.0000	257.752
111.5000	257.762
112.0000	257.748
112.5000	257.705
113.0000	257.744
113.5000	257.73
114.0000	257.722
114.5000	257.735
115.0000	257.736
115.5000	257.77
116.0000	257.85
116.5000	257.886
117.0000	257.909
117.5000	257.911
118.0000	257.89
118.5000	257.866
119.0000	257.837
119.5000	257.815
120.0000	257.858
120.5000	257.908
121.0000	257.906
121.5000	257.943
122.0000	257.937
122.5000	257.929
123.0000	257.947
123.5000	258
124.0000	258.029
124.5000	258.052
125.0000	258.113
125.5000	258.083
126.0000	258.013
126.5000	258.006
127.0000	257.973
127.5000	258.047
128.0000	258.096
128.5000	258.133
129.0000	258.17
129.5000	258.105
130.0000	258.123
130.5000	258.105
131.0000	258.048
131.5000	258.029
132.0000	258.043
132.5000	258.081
133.0000	258.126
133.5000	258.153
134.0000	258.237
134.5000	258.213
135.0000	258.212
135.5000	258.222
136.0000	258.146
136.5000	258.183
137.0000	258.192
137.5000	258.249
138.0000	258.256
138.5000	258.239
139.0000	258.268
139.5000	258.234
140.0000	258.252
140.5000	258.236
141.0000	258.188
141.5000	258.18
142.0000	258.238
142.5000	258.302
143.0000	258.335
143.5000	258.378
144.0000	258.311
144.5000	258.295
145.0000	258.341
145.5000	258.348
146.0000	258.431
146.5000	258.385
147.0000	258.384
147.5000	258.382
148.0000	258.441
148.5000	258.467
149.0000	258.438
149.5000	258.431
150.0000	258.332
150.5000	258.348
151.0000	258.389
151.5000	258.404
152.0000	258.444
152.5000	258.472
153.0000	258.499
153.5000	258.529
154.0000	258.491
154.5000	258.519
155.0000	258.496
155.5000	258.474
156.0000	258.494
156.5000	258.505
157.0000	258.508
157.5000	258.56
158.0000	258.622
158.5000	258.619
159.0000	258.675
159.5000	258.649
160.0000	258.589
160.5000	258.584
161.0000	258.537
161.5000	258.511
162.0000	258.548
162.5000	258.603
163.0000	258.656
163.5000	258.694
164.0000	258.728
164.5000	258.698
165.0000	258.705
165.5000	258.74
166.0000	258.703
166.5000	258.65
167.0000	258.638
167.5000	258.643
168.0000	258.667
168.5000	258.719
169.0000	258.727
169.5000	258.712
170.0000	258.771
170.5000	258.741
171.0000	258.792
171.5000	258.79
172.0000	258.792
172.5000	258.831
173.0000	258.83
173.5000	258.905
174.0000	258.932
174.5000	258.974
175.0000	259.008
175.5000	259.001
176.0000	258.954
176.5000	258.938
177.0000	258.886
177.5000	258.86
178.0000	258.863
178.5000	258.9
179.0000	258.942
179.5000	258.963
180.0000	258.979
180.5000	258.984
181.0000	259.053
181.5000	259.058
182.0000	259.057
182.5000	259.072
183.0000	258.959
183.5000	258.993
184.0000	259.039
184.5000	258.995
185.0000	259.067
185.5000	259.008
186.0000	259.007
186.5000	259.085
187.0000	259.123
187.5000	259.188
188.0000	259.222
188.5000	259.171
189.0000	259.197
189.5000	259.176
190.0000	259.168
190.5000	259.148
191.0000	259.11
191.5000	259.179
192.0000	259.189
192.5000	259.229
193.0000	259.241
193.5000	259.265
194.0000	259.228
194.5000	259.291
195.0000	259.268
195.5000	259.224
196.0000	259.251
196.5000	259.266
197.0000	259.327
197.5000	259.335
198.0000	259.307
198.5000	259.346
199.0000	259.292
199.5000	259.316
200.0000	259.436
200.5000	259.369
201.0000	259.402
201.5000	259.445
202.0000	259.441
202.5000	259.482
203.0000	259.473
203.5000	259.454
204.0000	259.405
204.5000	259.408
205.0000	259.464
205.5000	259.467
206.0000	259.465
206.5000	259.466
207.0000	259.431
207.5000	259.425
208.0000	259.431
208.5000	259.481
209.0000	259.49
209.5000	259.518
210.0000	259.565
210.5000	259.517
211.0000	259.525
211.5000	259.513
212.0000	259.509
212.5000	259.554
213.0000	259.533
213.5000	259.636
214.0000	259.635
214.5000	259.574
215.0000	259.666
215.5000	259.6
216.0000	259.66
216.5000	259.734
217.0000	259.727
217.5000	259.711
218.0000	259.674
218.5000	259.661
219.0000	259.643
219.5000	259.633
220.0000	259.635
220.5000	259.682
221.0000	259.703
221.5000	259.754
222.0000	259.736
222.5000	259.732
223.0000	259.754
223.5000	259.726
224.0000	259.764
224.5000	259.728
225.0000	259.738
225.5000	259.777
226.0000	259.782
226.5000	259.801
227.0000	259.825
227.5000	259.828
228.0000	259.88
228.5000	259.965
229.0000	259.975
229.5000	259.992
230.0000	259.975
230.5000	259.946
231.0000	259.885
231.5000	259.948
232.0000	259.987
232.5000	259.981
233.0000	260.032
233.5000	260.028
234.0000	259.991
234.5000	259.97
235.0000	259.949
235.5000	259.931
236.0000	259.922
236.5000	259.951
237.0000	259.963
237.5000	259.962
238.0000	259.986
238.5000	260.02
239.0000	260.025
239.5000	260.028
240.0000	259.982
240.5000	259.937
241.0000	259.956
241.5000	259.954
242.0000	260.026
242.5000	260.038
243.0000	260.077
243.5000	260.144
244.0000	260.128
244.5000	260.167
245.0000	260.153
245.5000	260.116
246.0000	260.142
246.5000	260.154
247.0000	260.139
247.5000	260.109
248.0000	260.15
248.5000	260.208
249.0000	260.227
249.5000	260.237
250.0000	260.196
250.5000	260.155
251.0000	260.214
251.5000	260.258
252.0000	260.306
252.5000	260.324
253.0000	260.304
253.5000	260.273
254.0000	260.281
254.5000	260.247
255.0000	260.222
255.5000	260.264
256.0000	260.249
256.5000	260.292
257.0000	260.316
257.5000	260.353
258.0000	260.405
258.5000	260.4
259.0000	260.409
259.5000	260.386
260.0000	260.354
260.5000	260.386
261.0000	260.395
261.5000	260.395
262.0000	260.421
262.5000	260.397
263.0000	260.377
263.5000	260.439
264.0000	260.429
264.5000	260.442
265.0000	260.513
265.5000	260.457
266.0000	260.419
266.5000	260.386
267.0000	260.386
267.5000	260.414
268.0000	260.451
268.5000	260.497
269.0000	260.474
269.5000	260.451
270.0000	260.459
270.5000	260.474
271.0000	260.49
271.5000	260.523
272.0000	260.544
272.5000	260.575
273.0000	260.611
273.5000	260.57
274.0000	260.584
274.5000	260.517
275.0000	260.464
275.5000	260.523
276.0000	260.553
276.5000	260.598
277.0000	260.63
277.5000	260.581
278.0000	260.565
278.5000	260.514
279.0000	260.49
279.5000	260.513
280.0000	260.538
280.5000	260.598
281.0000	260.624
281.5000	260.682
282.0000	260.597
282.5000	260.631
283.0000	260.64
283.5000	260.667
284.0000	260.766
284.5000	260.765
285.0000	260.792
285.5000	260.751
286.0000	260.768
286.5000	260.826
287.0000	260.863
287.5000	260.933
288.0000	260.907
288.5000	260.856
289.0000	260.863
289.5000	260.832
290.0000	260.85
290.5000	260.883
291.0000	260.877
291.5000	260.909
292.0000	260.942
292.5000	260.911
293.0000	260.891
293.5000	260.858
294.0000	260.841
294.5000	260.82
295.0000	260.843
295.5000	260.859
296.0000	260.831
296.5000	260.869
297.0000	260.936
297.5000	260.905
298.0000	260.939
298.5000	260.981
299.0000	260.948
299.5000	260.948
300.0000	260.969
300.5000	260.96
301.0000	260.981
301.5000	261.03
302.0000	261.026
302.5000	261.046
303.0000	261.043
303.5000	260.996
304.0000	261.033
304.5000	261.022
305.0000	261.007
305.5000	261.052
306.0000	261.04
306.5000	261.069
307.0000	261.027
307.5000	261.049
308.0000	261.043
308.5000	261.05
309.0000	261.061
309.5000	260.995
310.0000	260.976
310.5000	260.985
311.0000	261.021
311.5000	261.054
312.0000	261.078
312.5000	261.06
313.0000	261.107
313.5000	261.171
314.0000	261.199
314.5000	261.202
315.0000	261.193
315.5000	261.175
316.0000	261.175
316.5000	261.218
317.0000	261.239
317.5000	261.27
318.0000	261.259
318.5000	261.217
319.0000	261.212
319.5000	261.196
320.0000	261.237
320.5000	261.283
321.0000	261.288
321.5000	261.291
322.0000	261.285
322.5000	261.272
323.0000	261.32
323.5000	261.311
324.0000	261.265
324.5000	261.288
325.0000	261.229
325.5000	261.28
326.0000	261.343
326.5000	261.315
327.0000	261.374
327.5000	261.377
328.0000	261.394
328.5000	261.422
329.0000	261.392
329.5000	261.381
330.0000	261.336
330.5000	261.343
331.0000	261.321
331.5000	261.388
332.0000	261.387
332.5000	261.374
333.0000	261.393
333.5000	261.358
334.0000	261.412
334.5000	261.446
335.0000	261.46
335.5000	261.493
336.0000	261.461
336.5000	261.489
337.0000	261.479
337.5000	261.465
338.0000	261.525
338.5000	261.518
339.0000	261.562
339.5000	261.591
340.0000	261.618
340.5000	261.634
341.0000	261.633
341.5000	261.593
342.0000	261.593
342.5000	261.568
343.0000	261.593
343.5000	261.625
344.0000	261.606
344.5000	261.592
345.0000	261.577
345.5000	261.603
346.0000	261.593
346.5000	261.63
347.0000	261.63
347.5000	261.639
348.0000	261.628
348.5000	261.634
349.0000	261.666
349.5000	261.631
350.0000	261.642
350.5000	261.638
351.0000	261.671
351.5000	261.662
352.0000	261.717
352.5000	261.8
353.0000	261.786
353.5000	261.829
354.0000	261.79
354.5000	261.75
355.0000	261.73
355.5000	261.723
356.0000	261.712
356.5000	261.688
357.0000	261.721
357.5000	261.736
358.0000	261.824
358.5000	261.843
359.0000	261.841
359.5000	261.836
360.0000	261.821
360.5000	261.856
361.0000	261.89
361.5000	261.889
362.0000	261.889
362.5000	261.925
363.0000	261.928
363.5000	261.961
364.0000	261.941
364.5000	261.88
365.0000	261.88
365.5000	261.889
366.0000	261.89
366.5000	261.89
367.0000	261.889
367.5000	261.845
368.0000	261.856
368.5000	261.931
369.0000	261.933
369.5000	261.924
370.0000	261.981
370.5000	261.94
371.0000	261.971
371.5000	262.057
372.0000	262.021
372.5000	262.026
373.0000	262.016
373.5000	261.994
374.0000	262.013
374.5000	262.019
375.0000	262.003
375.5000	262.043
376.0000	262.008
376.5000	262.019
377.0000	262.051
377.5000	262.037
378.0000	262.092
378.5000	262.107
379.0000	262.096
379.5000	262.102
380.0000	262.093
380.5000	262.097
381.0000	262.101
381.5000	262.105
382.0000	262.118
382.5000	262.135
383.0000	262.121
383.5000	262.135
384.0000	262.151
384.5000	262.141
385.0000	262.21
385.5000	262.183
386.0000	262.126
386.5000	262.106
387.0000	262.031
387.5000	262.07
388.0000	262.143
388.5000	262.23
389.0000	262.316
389.5000	262.337
390.0000	262.364
390.5000	262.323
391.0000	262.307
391.5000	262.327
392.0000	262.278
392.5000	262.327
393.0000	262.36
393.5000	262.363
394.0000	262.356
394.5000	262.319
395.0000	262.288
395.5000	262.277
396.0000	262.313
396.5000	262.326
397.0000	262.322
397.5000	262.346
398.0000	262.398
398.5000	262.394
399.0000	262.403
399.5000	262.447
400.0000	262.434
400.5000	262.439
401.0000	262.472
401.5000	262.378
402.0000	262.421
402.5000	262.452
403.0000	262.444
403.5000	262.518
404.0000	262.5
404.5000	262.478
405.0000	262.534
405.5000	262.55
406.0000	262.475
406.5000	262.527
407.0000	262.444
407.5000	262.396
408.0000	262.517
408.5000	262.533
409.0000	262.592
409.5000	262.622
410.0000	262.595
410.5000	262.598
411.0000	262.648
411.5000	262.664
412.0000	262.66
412.5000	262.66
413.0000	262.651
413.5000	262.631
414.0000	262.652
414.5000	262.637
415.0000	262.644
415.5000	262.679
416.0000	262.634
416.5000	262.651
417.0000	262.641
417.5000	262.677
418.0000	262.683
418.5000	262.647
419.0000	262.639
419.5000	262.602
420.0000	262.64
420.5000	262.747
421.0000	262.741
421.5000	262.762
422.0000	262.835
422.5000	262.759
423.0000	262.806
423.5000	262.821
424.0000	262.758
424.5000	262.763
425.0000	262.76
425.5000	262.826
426.0000	262.923
426.5000	262.917
427.0000	262.958
427.5000	262.867
428.0000	262.776
428.5000	262.883
429.0000	262.838
429.5000	262.816
430.0000	262.869
430.5000	262.844
431.0000	262.839
431.5000	262.918
432.0000	262.889
432.5000	262.85
433.0000	262.89
433.5000	262.911
434.0000	262.948
434.5000	262.942
435.0000	262.88
435.5000	262.931
436.0000	262.969
436.5000	263.005
437.0000	263.098
437.5000	263.075
438.0000	263.06
438.5000	263.085
439.0000	263.072
439.5000	263.052
440.0000	263.067
440.5000	263.075
441.0000	263.058
441.5000	263.056
442.0000	263.029
442.5000	263.005
443.0000	263.019
443.5000	263.032
444.0000	263.016
444.5000	263.056
445.0000	263.099
445.5000	263.151
446.0000	263.178
446.5000	263.189
447.0000	263.196
447.5000	263.221
448.0000	263.258
448.5000	263.266
449.0000	263.266
449.5000	263.221
450.0000	263.179
450.5000	263.17
451.0000	263.153
451.5000	263.159
452.0000	263.167
452.5000	263.201
453.0000	263.226
453.5000	263.255
454.0000	263.309
454.5000	263.297
455.0000	263.26
455.5000	263.252
456.0000	263.235
456.5000	263.28
457.0000	263.349
457.5000	263.353
458.0000	263.348
458.5000	263.339
459.0000	263.354
459.5000	263.368
460.0000	263.363
460.5000	263.361
461.0000	263.365
461.5000	263.348
462.0000	263.38
462.5000	263.376
463.0000	263.337
463.5000	263.405
464.0000	263.434
464.5000	263.487
465.0000	263.518
465.5000	263.459
466.0000	263.469
466.5000	263.431
467.0000	263.461
467.5000	263.546
468.0000	263.599
468.5000	263.585
469.0000	263.583
469.5000	263.573
470.0000	263.549
470.5000	263.588
471.0000	263.56
471.5000	263.562
472.0000	263.602
472.5000	263.623
473.0000	263.663
473.5000	263.689
474.0000	263.646
474.5000	263.641
475.0000	263.674
475.5000	263.622
476.0000	263.665
476.5000	263.711
477.0000	263.73
477.5000	263.79
478.0000	263.808
478.5000	263.773
479.0000	263.785
479.5000	263.849
480.0000	263.891
480.5000	263.959
481.0000	263.962
481.5000	263.954
482.0000	263.919
482.5000	263.882
483.0000	263.845
483.5000	263.783
484.0000	263.787
484.5000	263.807
485.0000	263.845
485.5000	263.917
486.0000	263.862
486.5000	263.855
487.0000	263.909
487.5000	263.869
488.0000	263.908
488.5000	263.942
489.0000	263.939
489.5000	263.963
490.0000	264.033
490.5000	264.068
491.0000	264.049
491.5000	264.059
492.0000	264.017
492.5000	264.048
493.0000	264.08
493.5000	264.125
494.0000	264.139
494.5000	264.104
495.0000	264.079
495.5000	264.113
496.0000	264.155
496.5000	264.187
497.0000	264.242
497.5000	264.253
498.0000	264.315
498.5000	264.303
499.0000	264.313
499.5000	264.259
500.0000	264.293
500.5000	264.351
501.0000	264.346
501.5000	264.378
502.0000	264.327
502.5000	264.323
503.0000	264.353
503.5000	264.36
504.0000	264.403
504.5000	264.394
505.0000	264.455
505.5000	264.479
506.0000	264.439
506.5000	264.466
507.0000	264.42
507.5000	264.437
508.0000	264.477
508.5000	264.501
509.0000	264.512
509.5000	264.512
510.0000	264.525
510.5000	264.518
511.0000	264.565
511.5000	264.632
512.0000	264.672
512.5000	264.711
513.0000	264.757
513.5000	264.71
514.0000	264.678
514.5000	264.665
515.0000	264.682
515.5000	264.726
516.0000	264.778
516.5000	264.795
517.0000	264.803
517.5000	264.839
518.0000	264.793
518.5000	264.838
519.0000	264.827
519.5000	264.82
520.0000	264.903
520.5000	264.947
521.0000	264.94
521.5000	264.959
522.0000	264.956
522.5000	264.975
523.0000	264.99
523.5000	265.014
524.0000	265.015
524.5000	265.039
525.0000	265.045
525.5000	265.051
526.0000	265.176
526.5000	265.162
527.0000	265.174
527.5000	265.201
528.0000	265.164
528.5000	265.172
529.0000	265.286
529.5000	265.306
530.0000	265.327
530.5000	265.329
531.0000	265.304
531.5000	265.277
532.0000	265.261
532.5000	265.253
533.0000	265.245
533.5000	265.308
534.0000	265.306
534.5000	265.368
535.0000	265.399
535.5000	265.397
536.0000	265.449
536.5000	265.471
537.0000	265.491
537.5000	265.547
538.0000	265.544
538.5000	265.55
539.0000	265.589
539.5000	265.615
540.0000	265.678
540.5000	265.736
541.0000	265.736
541.5000	265.72
542.0000	265.713
542.5000	265.713
543.0000	265.707
543.5000	265.734
544.0000	265.743
544.5000	265.766
545.0000	265.796
545.5000	265.784
546.0000	265.807
546.5000	265.848
547.0000	265.908
547.5000	265.948
548.0000	265.998
548.5000	266.047
549.0000	266.012
549.5000	265.993
550.0000	265.99
550.5000	265.978
551.0000	265.999
551.5000	266.053
552.0000	266.055
552.5000	266.054
553.0000	266.127
553.5000	266.139
554.0000	266.183
554.5000	266.212
555.0000	266.235
555.5000	266.289
556.0000	266.282
556.5000	266.268
557.0000	266.274
557.5000	266.285
558.0000	266.331
558.5000	266.331
559.0000	266.282
559.5000	266.271
560.0000	266.244
560.5000	266.277
561.0000	266.34
561.5000	266.35
562.0000	266.401
562.5000	266.434
563.0000	266.439
563.5000	266.423
564.0000	266.4
564.5000	266.419
565.0000	266.416
565.5000	266.447
566.0000	266.445
566.5000	266.396
567.0000	266.39
567.5000	266.393
568.0000	266.427
568.5000	266.509
569.0000	266.533
569.5000	266.567
570.0000	266.58
570.5000	266.52
571.0000	266.523
571.5000	266.548
572.0000	266.541
572.5000	266.581
573.0000	266.607
573.5000	266.607
574.0000	266.64
574.5000	266.607
575.0000	266.641
575.5000	266.619
576.0000	266.622
576.5000	266.643
577.0000	266.644
577.5000	266.667
578.0000	266.662
578.5000	266.68
579.0000	266.634
579.5000	266.576
580.0000	266.523
580.5000	266.568
581.0000	266.568
581.5000	266.623
582.0000	266.641
582.5000	266.585
583.0000	266.656
583.5000	266.629
584.0000	266.621
584.5000	266.633
585.0000	266.575
585.5000	266.583
586.0000	266.583
586.5000	266.559
587.0000	266.558
587.5000	266.537
588.0000	266.527
588.5000	266.516
589.0000	266.501
589.5000	266.504
590.0000	266.54
590.5000	266.507
591.0000	266.476
591.5000	266.504
592.0000	266.509
592.5000	266.537
593.0000	266.557
593.5000	266.537
594.0000	266.499
594.5000	266.502
595.0000	266.512
595.5000	266.481
596.0000	266.475
596.5000	266.473
597.0000	266.446
597.5000	266.43
598.0000	266.396
598.5000	266.399
599.0000	266.367
599.5000	266.358
600.0000	266.404
600.5000	266.356
601.0000	266.433
601.5000	266.466
602.0000	266.436
602.5000	266.431
603.0000	266.341
603.5000	266.245
604.0000	266.204
604.5000	266.188
605.0000	266.172
605.5000	266.241
606.0000	266.246
606.5000	266.235
607.0000	266.225
607.5000	266.192
608.0000	266.159
608.5000	266.129
609.0000	266.114
609.5000	266.109
610.0000	266.076
610.5000	266.086
611.0000	266.106
611.5000	266.079
612.0000	266.171
612.5000	266.135
613.0000	266.089
613.5000	266.063
614.0000	265.973
614.5000	265.944
615.0000	265.955
615.5000	265.958
616.0000	265.958
616.5000	265.999
617.0000	265.954
617.5000	265.905
618.0000	265.871
618.5000	265.844
619.0000	265.868
619.5000	265.871
620.0000	265.903
620.5000	265.903
621.0000	265.851
621.5000	265.845
622.0000	265.761
622.5000	265.754
623.0000	265.745
623.5000	265.724
624.0000	265.735
624.5000	265.7
625.0000	265.655
625.5000	265.654
626.0000	265.64
626.5000	265.596
627.0000	265.627
627.5000	265.634
628.0000	265.618
628.5000	265.61
629.0000	265.539
629.5000	265.537
630.0000	265.511
630.5000	265.503
631.0000	265.509
631.5000	265.469
632.0000	265.472
632.5000	265.456
633.0000	265.482
633.5000	265.501
634.0000	265.459
634.5000	265.489
635.0000	265.457
635.5000	265.412
636.0000	265.461
636.5000	265.445
637.0000	265.446
637.5000	265.444
638.0000	265.404
638.5000	265.4
639.0000	265.372
639.5000	265.306
640.0000	265.37
640.5000	265.373
641.0000	265.413
641.5000	265.459
642.0000	265.362
642.5000	265.339
643.0000	265.275
643.5000	265.288
644.0000	265.316
644.5000	265.296
645.0000	265.312
645.5000	265.289
646.0000	265.263
646.5000	265.251
647.0000	265.248
647.5000	265.23
648.0000	265.213
648.5000	265.268
649.0000	265.293
649.5000	265.281
650.0000	265.254
650.5000	265.22
651.0000	265.188
651.5000	265.2
652.0000	265.238
652.5000	265.254
653.0000	265.284
653.5000	265.235
654.0000	265.237
654.5000	265.18
655.0000	265.121
655.5000	265.144
656.0000	265.169
656.5000	265.145
657.0000	265.18
657.5000	265.209
658.0000	265.172
658.5000	265.188
659.0000	265.213
659.5000	265.185
660.0000	265.2
660.5000	265.208
661.0000	265.117
661.5000	265.128
662.0000	265.122
662.5000	265.145
663.0000	265.196
663.5000	265.181
664.0000	265.234
664.5000	265.22
665.0000	265.216
665.5000	265.225
666.0000	265.182
666.5000	265.157
667.0000	265.124
667.5000	265.1
668.0000	265.083
668.5000	265.11
669.0000	265.117
669.5000	265.155
670.0000	265.127
670.5000	265.108
671.0000	265.161
671.5000	265.158
672.0000	265.246
672.5000	265.261
673.0000	265.247
673.5000	265.253
674.0000	265.216
674.5000	265.155
675.0000	265.138
675.5000	265.129
676.0000	265.097
676.5000	265.163
677.0000	265.144
677.5000	265.127
678.0000	265.09
678.5000	265.117
679.0000	265.137
679.5000	265.158
680.0000	265.164
680.5000	265.175
681.0000	265.202
681.5000	265.217
682.0000	265.227
682.5000	265.113
683.0000	265.09
683.5000	265.047
684.0000	265.024
684.5000	265.071
685.0000	265.084
685.5000	265.115
686.0000	265.214
686.5000	265.26
687.0000	265.245
687.5000	265.281
688.0000	265.282
688.5000	265.226
689.0000	265.214
689.5000	265.197
690.0000	265.223
690.5000	265.308
691.0000	265.327
691.5000	265.353
692.0000	265.317
692.5000	265.318
693.0000	265.357
693.5000	265.307
694.0000	265.299
694.5000	265.262
695.0000	265.209
695.5000	265.247
696.0000	265.217
696.5000	265.224
697.0000	265.286
697.5000	265.282
698.0000	265.331
698.5000	265.343
699.0000	265.339
699.5000	265.287
700.0000	265.283
700.5000	265.26
701.0000	265.233
701.5000	265.274
702.0000	265.284
702.5000	265.303
703.0000	265.313
703.5000	265.339
704.0000	265.345
704.5000	265.38
705.0000	265.384
705.5000	265.394
706.0000	265.442
706.5000	265.395
707.0000	265.44
707.5000	265.447
708.0000	265.405
708.5000	265.428
709.0000	265.445
709.5000	265.447
710.0000	265.463
710.5000	265.492
711.0000	265.509
711.5000	265.606
712.0000	265.608
712.5000	265.61
713.0000	265.553
713.5000	265.429
714.0000	265.439
714.5000	265.464
715.0000	265.497
715.5000	265.537
716.0000	265.603
716.5000	265.622
717.0000	265.609
717.5000	265.658
718.0000	265.63
718.5000	265.629
719.0000	265.631
719.5000	265.595
720.0000	265.587
720.5000	265.568
721.0000	265.623
721.5000	265.618
722.0000	265.666
722.5000	265.667
723.0000	265.666
723.5000	265.694
724.0000	265.628
724.5000	265.657
725.0000	265.64
725.5000	265.672
726.0000	265.732
726.5000	265.721
727.0000	265.71
727.5000	265.681
728.0000	265.703
728.5000	265.695
729.0000	265.679
729.5000	265.715
730.0000	265.648
730.5000	265.695
731.0000	265.74
731.5000	265.76
732.0000	265.788
732.5000	265.756
733.0000	265.79
733.5000	265.749
734.0000	265.769
734.5000	265.816
735.0000	265.798
735.5000	265.87
736.0000	265.914
736.5000	265.903
737.0000	265.932
737.5000	265.985
738.0000	265.96
738.5000	266.035
739.0000	266.031
739.5000	265.969
740.0000	265.974
740.5000	265.902
741.0000	265.896
741.5000	265.884
742.0000	265.893
742.5000	265.96
743.0000	265.994
743.5000	266.055
744.0000	266.057
744.5000	266.093
745.0000	266.132
745.5000	266.108
746.0000	266.144
746.5000	266.092
747.0000	266.064
747.5000	266.075
748.0000	266.111
748.5000	266.153
749.0000	266.187
749.5000	266.191
750.0000	266.165
750.5000	266.119
751.0000	266.111
751.5000	266.137
752.0000	266.108
752.5000	266.143
753.0000	266.177
753.5000	266.205
754.0000	266.278
754.5000	266.26
755.0000	266.252
755.5000	266.245
756.0000	266.289
756.5000	266.374
757.0000	266.379
757.5000	266.413
758.0000	266.388
758.5000	266.354
759.0000	266.339
759.5000	266.279
760.0000	266.266
760.5000	266.27
761.0000	266.304
761.5000	266.355
762.0000	266.351
762.5000	266.345
763.0000	266.355
763.5000	266.362
764.0000	266.408
764.5000	266.514
765.0000	266.566
765.5000	266.564
766.0000	266.518
766.5000	266.441
767.0000	266.374
767.5000	266.385
768.0000	266.422
768.5000	266.463
769.0000	266.452
769.5000	266.461
770.0000	266.51
770.5000	266.5
771.0000	266.581
771.5000	266.578
772.0000	266.553
772.5000	266.56
773.0000	266.601
773.5000	266.653
774.0000	266.658
774.5000	266.635
775.0000	266.578
775.5000	266.54
776.0000	266.555
776.5000	266.616
777.0000	266.657
777.5000	266.675
778.0000	266.673
778.5000	266.677
779.0000	266.656
779.5000	266.682
780.0000	266.719
780.5000	266.741
781.0000	266.775
781.5000	266.743
782.0000	266.718
782.5000	266.703
783.0000	266.708
783.5000	266.74
784.0000	266.681
784.5000	266.702
785.0000	266.662
785.5000	266.682
786.0000	266.752
786.5000	266.72
787.0000	266.796
787.5000	266.791
788.0000	266.835
788.5000	266.879
789.0000	266.855
789.5000	266.862
790.0000	266.876
790.5000	266.849
791.0000	266.88
791.5000	266.882
792.0000	266.825
792.5000	266.866
793.0000	266.818
793.5000	266.836
794.0000	266.819
794.5000	266.786
795.0000	266.88
795.5000	266.856
796.0000	266.912
796.5000	266.92
797.0000	266.906
797.5000	266.988
798.0000	267.031
798.5000	267.056
799.0000	267.072
799.5000	267.056
800.0000	267.083
800.5000	267.021
801.0000	267.011
801.5000	267.003
802.0000	266.951
802.5000	267.02
803.0000	267.007
803.5000	266.979
804.0000	266.993
804.5000	267.038
805.0000	267.089
805.5000	267.144
806.0000	267.176
806.5000	267.199
807.0000	267.137
807.5000	267.134
808.0000	267.111
808.5000	267.135
809.0000	267.156
809.5000	267.128
810.0000	267.143
810.5000	267.067
811.0000	267.055
811.5000	267.108
812.0000	267.084
812.5000	267.115
813.0000	267.175
813.5000	267.14
814.0000	267.179
814.5000	267.204
815.0000	267.221
815.5000	267.261
816.0000	267.291
816.5000	267.24
817.0000	267.247
817.5000	267.244
818.0000	267.235
818.5000	267.294
819.0000	267.314
819.5000	267.375
820.0000	267.396
820.5000	267.388
821.0000	267.341
821.5000	267.27
822.0000	267.278
822.5000	267.307
823.0000	267.345
823.5000	267.414
824.0000	267.384
824.5000	267.415
825.0000	267.389
825.5000	267.373
826.0000	267.393
826.5000	267.321
827.0000	267.333
827.5000	267.335
828.0000	267.345
828.5000	267.41
829.0000	267.432
829.5000	267.447
830.0000	267.521
830.5000	267.526
831.0000	267.543
831.5000	267.516
832.0000	267.486
832.5000	267.488
833.0000	267.522
833.5000	267.547
834.0000	267.523
834.5000	267.534
835.0000	267.489
835.5000	267.466
836.0000	267.474
836.5000	267.48
837.0000	267.49
837.5000	267.575
838.0000	267.602
838.5000	267.608
839.0000	267.634
839.5000	267.621
840.0000	267.593
840.5000	267.591
841.0000	267.629
841.5000	267.621
842.0000	267.65
842.5000	267.69
843.0000	267.682
843.5000	267.664
844.0000	267.685
844.5000	267.681
845.0000	267.65
845.5000	267.666
846.0000	267.667
846.5000	267.671
847.0000	267.751
847.5000	267.739
848.0000	267.77
848.5000	267.789
849.0000	267.789
849.5000	267.854
850.0000	267.82
850.5000	267.884
851.0000	267.856
851.5000	267.831
852.0000	267.83
852.5000	267.794
853.0000	267.84
853.5000	267.887
854.0000	267.875
854.5000	267.838
855.0000	267.814
855.5000	267.822
856.0000	267.897
856.5000	267.908
857.0000	267.895
857.5000	267.913
858.0000	267.896
858.5000	267.913
859.0000	267.99
859.5000	267.996
860.0000	268.039
860.5000	268.106
861.0000	268.08
861.5000	268.046
862.0000	268.061
862.5000	268.034
863.0000	268.088
863.5000	268.159
864.0000	268.156
864.5000	268.132
865.0000	268.119
865.5000	268.099
866.0000	268.112
866.5000	268.18
867.0000	268.17
867.5000	268.174
868.0000	268.204
868.5000	268.191
869.0000	268.197
869.5000	268.181
870.0000	268.133
870.5000	268.166
871.0000	268.19
871.5000	268.217
872.0000	268.259
872.5000	268.246
873.0000	268.221
873.5000	268.196
874.0000	268.239
874.5000	268.244
875.0000	268.296
875.5000	268.372
876.0000	268.361
876.5000	268.377
877.0000	268.371
877.5000	268.368
878.0000	268.325
878.5000	268.365
879.0000	268.344
879.5000	268.358
880.0000	268.401
880.5000	268.384
881.0000	268.446
881.5000	268.454
882.0000	268.456
882.5000	268.452
883.0000	268.44
883.5000	268.434
884.0000	268.469
884.5000	268.492
885.0000	268.53
885.5000	268.546
886.0000	268.531
886.5000	268.538
887.0000	268.521
887.5000	268.524
888.0000	268.536
888.5000	268.556
889.0000	268.599
889.5000	268.602
890.0000	268.679
890.5000	268.671
891.0000	268.7
891.5000	268.703
892.0000	268.667
892.5000	268.716
893.0000	268.666
893.5000	268.705
894.0000	268.695
894.5000	268.695
895.0000	268.77
895.5000	268.82
896.0000	268.895
896.5000	268.907
897.0000	268.846
897.5000	268.827
898.0000	268.83
898.5000	268.806
899.0000	268.862
899.5000	268.829
900.0000	268.839
900.5000	268.887
901.0000	268.885
901.5000	268.956
902.0000	268.934
902.5000	268.934
903.0000	268.996
903.5000	268.982
904.0000	268.952
904.5000	268.98
905.0000	268.94
905.5000	268.907
906.0000	268.977
906.5000	268.971
907.0000	268.969
907.5000	269.073
908.0000	269.08
908.5000	269.073
909.0000	269.065
909.5000	269.069
910.0000	269.045
910.5000	269.096
911.0000	269.148
911.5000	269.122
912.0000	269.153
912.5000	269.15
913.0000	269.155
913.5000	269.159
914.0000	269.198
914.5000	269.156
915.0000	269.184
915.5000	269.211
916.0000	269.237
916.5000	269.304
917.0000	269.305
917.5000	269.274
918.0000	269.269
918.5000	269.3
919.0000	269.268
919.5000	269.32
920.0000	269.326
920.5000	269.299
921.0000	269.315
921.5000	269.311
922.0000	269.33
922.5000	269.365
923.0000	269.409
923.5000	269.438
924.0000	269.438
924.5000	269.481
925.0000	269.519
925.5000	269.57
926.0000	269.564
926.5000	269.561
927.0000	269.523
927.5000	269.503
928.0000	269.536
928.5000	269.483
929.0000	269.528
929.5000	269.536
930.0000	269.556
930.5000	269.65
931.0000	269.635
931.5000	269.633
932.0000	269.669
932.5000	269.608
933.0000	269.661
933.5000	269.653
934.0000	269.648
934.5000	269.707
935.0000	269.679
935.5000	269.769
936.0000	269.772
936.5000	269.755
937.0000	269.77
937.5000	269.744
938.0000	269.766
938.5000	269.793
939.0000	269.794
939.5000	269.785
940.0000	269.78
940.5000	269.81
941.0000	269.852
941.5000	269.815
942.0000	269.79
942.5000	269.797
943.0000	269.8
943.5000	269.873
944.0000	269.96
944.5000	269.935
945.0000	270.002
945.5000	270.058
946.0000	270.023
946.5000	270.058
947.0000	270.067
947.5000	270.048
948.0000	270.09
948.5000	270.14
949.0000	270.139
949.5000	270.107
950.0000	270.105
950.5000	270.046
951.0000	270.01
951.5000	270.04
952.0000	270.044
952.5000	270.061
953.0000	270.043
953.5000	270.115
954.0000	270.167
954.5000	270.169
955.0000	270.24
955.5000	270.161
956.0000	270.147
956.5000	270.199
957.0000	270.195
957.5000	270.272
958.0000	270.271
958.5000	270.285
959.0000	270.272
959.5000	270.258
960.0000	270.271
960.5000	270.299
961.0000	270.379
961.5000	270.39
962.0000	270.431
962.5000	270.456
963.0000	270.465
963.5000	270.496
964.0000	270.5
964.5000	270.528
965.0000	270.475
965.5000	270.473
966.0000	270.451
966.5000	270.458
967.0000	270.507
967.5000	270.568
968.0000	270.591
968.5000	270.586
969.0000	270.567
969.5000	270.563
970.0000	270.618
970.5000	270.601
971.0000	270.684
971.5000	270.654
972.0000	270.618
972.5000	270.681
973.0000	270.675
973.5000	270.687
974.0000	270.726
974.5000	270.761
975.0000	270.75
975.5000	270.835
976.0000	270.851
976.5000	270.844
977.0000	270.815
977.5000	270.805
978.0000	270.856
978.5000	270.837
979.0000	270.878
979.5000	270.877
980.0000	270.864
980.5000	270.902
981.0000	270.943
981.5000	270.951
982.0000	270.912
982.5000	270.886
983.0000	270.932
983.5000	270.974
984.0000	271.03
984.5000	271.08
985.0000	271.078
985.5000	271.147
986.0000	271.177
986.5000	271.207
987.0000	271.195
987.5000	271.14
988.0000	271.18
988.5000	271.189
989.0000	271.225
989.5000	271.227
990.0000	271.194
990.5000	271.199
991.0000	271.169
991.5000	271.178
992.0000	271.189
992.5000	271.177
993.0000	271.201
993.5000	271.214
994.0000	271.237
994.5000	271.215
995.0000	271.277
995.5000	271.29
996.0000	271.288
996.5000	271.342
997.0000	271.349
997.5000	271.309
998.0000	271.31
998.5000	271.296
999.0000	271.28
999.5000	271.371
1000.0000	271.406
1000.5000	271.437
1001.0000	271.45
1001.5000	271.456
1002.0000	271.459
1002.5000	271.464
1003.0000	271.481
1003.5000	271.47
1004.0000	271.486
1004.5000	271.522
1005.0000	271.56
1005.5000	271.532
1006.0000	271.55
1006.5000	271.509
1007.0000	271.521
1007.5000	271.611
1008.0000	271.64
1008.5000	271.694
1009.0000	271.686
1009.5000	271.661
1010.0000	271.659
1010.5000	271.67
1011.0000	271.645
1011.5000	271.712
1012.0000	271.743
1012.5000	271.793
1013.0000	271.853
1013.5000	271.784
1014.0000	271.783
1014.5000	271.688
1015.0000	271.659
1015.5000	271.684
1016.0000	271.694
1016.5000	271.788
1017.0000	271.81
1017.5000	271.84
1018.0000	271.783
1018.5000	271.792
1019.0000	271.838
1019.5000	271.871
1020.0000	271.984
1020.5000	272.056
1021.0000	272.092
1021.5000	272.103
1022.0000	272.13
1022.5000	272.102
1023.0000	272.064
1023.5000	272.047
1024.0000	271.95
1024.5000	271.926
1025.0000	271.962
1025.5000	272.009
1026.0000	272.071
1026.5000	272.167
1027.0000	272.149
1027.5000	272.182
1028.0000	272.175
1028.5000	272.098
1029.0000	272.132
1029.5000	272.073
1030.0000	272.124
1030.5000	272.167
1031.0000	272.216
1031.5000	272.242
1032.0000	272.267
1032.5000	272.242
1033.0000	272.217
1033.5000	272.261
1034.0000	272.261
1034.5000	272.315
1035.0000	272.339
1035.5000	272.357
1036.0000	272.381
1036.5000	272.369
1037.0000	272.372
1037.5000	272.397
1038.0000	272.407
1038.5000	272.406
1039.0000	272.4
1039.5000	272.364
1040.0000	272.381
1040.5000	272.435
1041.0000	272.485
1041.5000	272.488
1042.0000	272.49
1042.5000	272.488
1043.0000	272.44
1043.5000	272.485
1044.0000	272.479
1044.5000	272.493
1045.0000	272.559
1045.5000	272.577
1046.0000	272.603
1046.5000	272.623
1047.0000	272.625
1047.5000	272.649
1048.0000	272.663
1048.5000	272.658
1049.0000	272.665
1049.5000	272.622
1050.0000	272.629
1050.5000	272.646
1051.0000	272.679
1051.5000	272.699
1052.0000	272.726
1052.5000	272.741
1053.0000	272.736
1053.5000	272.778
1054.0000	272.763
1054.5000	272.754
1055.0000	272.772
1055.5000	272.839
1056.0000	272.878
1056.5000	272.891
1057.0000	272.888
1057.5000	272.838
1058.0000	272.864
1058.5000	272.894
1059.0000	272.908
1059.5000	272.969
1060.0000	272.927
1060.5000	272.958
1061.0000	272.946
1061.5000	272.902
1062.0000	272.895
1062.5000	272.864
1063.0000	272.912
1063.5000	273.007
1064.0000	273.071
1064.5000	273.075
1065.0000	273.073
1065.5000	272.986
1066.0000	273.004
1066.5000	273.042
1067.0000	273.031
1067.5000	273.099
1068.0000	273.123
1068.5000	273.111
1069.0000	273.138
1069.5000	273.12
1070.0000	273.118
1070.5000	273.159
1071.0000	273.139
1071.5000	273.176
1072.0000	273.172
1072.5000	273.205
1073.0000	273.249
1073.5000	273.276
1074.0000	273.247
1074.5000	273.263
1075.0000	273.32
1075.5000	273.303
1076.0000	273.392
1076.5000	273.389
1077.0000	273.329
1077.5000	273.32
1078.0000	273.304
1078.5000	273.312
1079.0000	273.331
1079.5000	273.387
1080.0000	273.417
1080.5000	273.443
1081.0000	273.452
1081.5000	273.484
1082.0000	273.469
1082.5000	273.466
1083.0000	273.531
1083.5000	273.465
1084.0000	273.52
1084.5000	273.573
1085.0000	273.564
1085.5000	273.633
1086.0000	273.653
1086.5000	273.604
1087.0000	273.618
1087.5000	273.601
1088.0000	273.544
1088.5000	273.572
1089.0000	273.629
1089.5000	273.66
1090.0000	273.704
1090.5000	273.694
1091.0000	273.65
1091.5000	273.656
1092.0000	273.678
1092.5000	273.746
1093.0000	273.749
1093.5000	273.739
1094.0000	273.739
1094.5000	273.735
1095.0000	273.743
1095.5000	273.751
1096.0000	273.773
1096.5000	273.778
1097.0000	273.864
1097.5000	273.877
1098.0000	273.828
1098.5000	273.861
1099.0000	273.807
1099.5000	273.822
1100.0000	273.86
1100.5000	273.846
1101.0000	273.878
1101.5000	273.904
1102.0000	273.929
1102.5000	273.938
1103.0000	273.943
1103.5000	273.976
1104.0000	274.018
1104.5000	273.99
1105.0000	273.992
1105.5000	273.973
1106.0000	273.948
1106.5000	274.012
1107.0000	274.053
1107.5000	274.027
1108.0000	274.076
1108.5000	274.057
1109.0000	274.062
1109.5000	274.105
1110.0000	274.072
1110.5000	274.13
1111.0000	274.1
1111.5000	274.138
1112.0000	274.202
1112.5000	274.158
1113.0000	274.2
1113.5000	274.192
1114.0000	274.186
1114.5000	274.275
1115.0000	274.292
1115.5000	274.252
1116.0000	274.227
1116.5000	274.195
1117.0000	274.173
1117.5000	274.258
1118.0000	274.27
1118.5000	274.244
1119.0000	274.239
1119.5000	274.249
1120.0000	274.249
1120.5000	274.244
1121.0000	274.313
1121.5000	274.299
1122.0000	274.368
1122.5000	274.435
1123.0000	274.371
1123.5000	274.339
1124.0000	274.314
1124.5000	274.291
1125.0000	274.332
1125.5000	274.392
1126.0000	274.411
1126.5000	274.438
1127.0000	274.511
1127.5000	274.455
1128.0000	274.475
1128.5000	274.509
1129.0000	274.476
1129.5000	274.533
1130.0000	274.521
1130.5000	274.452
1131.0000	274.493
1131.5000	274.517
1132.0000	274.506
1132.5000	274.531
1133.0000	274.495
1133.5000	274.506
1134.0000	274.537
1134.5000	274.594
1135.0000	274.601
1135.5000	274.606
1136.0000	274.664
1136.5000	274.668
1137.0000	274.696
1137.5000	274.704
1138.0000	274.681
1138.5000	274.692
1139.0000	274.684
1139.5000	274.691
1140.0000	274.73
1140.5000	274.7
1141.0000	274.746
1141.5000	274.766
1142.0000	274.713
1142.5000	274.734
1143.0000	274.711
1143.5000	274.744
1144.0000	274.772
1144.5000	274.814
1145.0000	274.846
1145.5000	274.821
1146.0000	274.846
1146.5000	274.845
1147.0000	274.808
1147.5000	274.858
1148.0000	274.871
1148.5000	274.884
1149.0000	274.937
1149.5000	274.908
1150.0000	274.935
1150.5000	274.956
1151.0000	274.965
1151.5000	274.906
1152.0000	274.889
1152.5000	274.846
1153.0000	274.863
1153.5000	274.928
1154.0000	275.013
1154.5000	275.047
1155.0000	275.076
1155.5000	275.122
1156.0000	275.054
1156.5000	275.066
1157.0000	275.046
1157.5000	275.054
1158.0000	275.075
1158.5000	275.083
1159.0000	275.077
1159.5000	275.096
1160.0000	275.161
1160.5000	275.176
1161.0000	275.185
1161.5000	275.207
1162.0000	275.106
1162.5000	275.162
1163.0000	275.225
1163.5000	275.237
1164.0000	275.336
1164.5000	275.306
1165.0000	275.295
1165.5000	275.265
1166.0000	275.184
1166.5000	275.238
1167.0000	275.245
1167.5000	275.228
1168.0000	275.239
1168.5000	275.294
1169.0000	275.295
1169.5000	275.33
1170.0000	275.429
1170.5000	275.361
1171.0000	275.392
1171.5000	275.438
1172.0000	275.42
1172.5000	275.461
1173.0000	275.446
1173.5000	275.421
1174.0000	275.415
1174.5000	275.378
1175.0000	275.388
1175.5000	275.439
1176.0000	275.475
1176.5000	275.539
1177.0000	275.627
1177.5000	275.599
1178.0000	275.601
1178.5000	275.587
1179.0000	275.566
1179.5000	275.592
1180.0000	275.561
1180.5000	275.593
1181.0000	275.568
1181.5000	275.64
1182.0000	275.736
1182.5000	275.726
1183.0000	275.751
1183.5000	275.697
1184.0000	275.662
1184.5000	275.655
1185.0000	275.637
1185.5000	275.677
1186.0000	275.657
1186.5000	275.718
1187.0000	275.767
1187.5000	275.706
1188.0000	275.699
1188.5000	275.719
1189.0000	275.73
1189.5000	275.785
1190.0000	275.846
1190.5000	275.797
1191.0000	275.875
1191.5000	275.938
1192.0000	275.986
1192.5000	276.022
1193.0000	275.982
1193.5000	275.966
1194.0000	275.927
1194.5000	275.946
1195.0000	276.005
1195.5000	276.042
1196.0000	276.121
1196.5000	276.168
1197.0000	276.1
1197.5000	276.055
1198.0000	276.029
1198.5000	276.031
1199.0000	276.088
1199.5000	276.137
1200.0000	276.199
1200.5000	276.162
1201.0000	276.201
1201.5000	276.172
1202.0000	276.143
1202.5000	276.142
1203.0000	276.122
1203.5000	276.15
1204.0000	276.142
1204.5000	276.199
1205.0000	276.208
1205.5000	276.261
1206.0000	276.305
1206.5000	276.313
1207.0000	276.361
1207.5000	276.377
1208.0000	276.404
1208.5000	276.467
1209.0000	276.503
1209.5000	276.505
1210.0000	276.496
1210.5000	276.494
1211.0000	276.416
1211.5000	276.432
1212.0000	276.449
1212.5000	276.44
1213.0000	276.483
1213.5000	276.494
1214.0000	276.487
1214.5000	276.479
1215.0000	276.523
1215.5000	276.606
1216.0000	276.653
1216.5000	276.723
1217.0000	276.747
1217.5000	276.627
1218.0000	276.605
1218.5000	276.61
1219.0000	276.618
1219.5000	276.748
1220.0000	276.783
1220.5000	276.751
1221.0000	276.697
1221.5000	276.669
1222.0000	276.655
1222.5000	276.71
1223.0000	276.725
1223.5000	276.748
1224.0000	276.774
1224.5000	276.795
1225.0000	276.864
1225.5000	276.862
1226.0000	276.864
1226.5000	276.806
1227.0000	276.847
1227.5000	276.89
1228.0000	276.937
1228.5000	277.015
1229.0000	276.98
1229.5000	276.986
1230.0000	277.023
1230.5000	277.044
1231.0000	277.061
1231.5000	277.07
1232.0000	277.045
1232.5000	277.033
1233.0000	277.065
1233.5000	277.095
1234.0000	277.127
1234.5000	277.12
1235.0000	277.117
1235.5000	277.143
1236.0000	277.17
1236.5000	277.28
1237.0000	277.309
1237.5000	277.297
1238.0000	277.267
1238.5000	277.201
1239.0000	277.233
1239.5000	277.233
1240.0000	277.298
1240.5000	277.346
1241.0000	277.316
1241.5000	277.338
1242.0000	277.368
1242.5000	277.366
1243.0000	277.391
1243.5000	277.42
1244.0000	277.389
1244.5000	277.413
1245.0000	277.442
1245.5000	277.409
1246.0000	277.462
1246.5000	277.428
1247.0000	277.408
1247.5000	277.475
1248.0000	277.435
1248.5000	277.474
1249.0000	277.494
1249.5000	277.49
1250.0000	277.555
1250.5000	277.553
1251.0000	277.584
1251.5000	277.564
1252.0000	277.545
1252.5000	277.596
1253.0000	277.544
1253.5000	277.542
1254.0000	277.592
1254.5000	277.569
1255.0000	277.57
1255.5000	277.607
1256.0000	277.528
1256.5000	277.534
1257.0000	277.565
1257.5000	277.578
1258.0000	277.626
1258.5000	277.628
1259.0000	277.682
1259.5000	277.714
1260.0000	277.757
1260.5000	277.785
1261.0000	277.799
1261.5000	277.785
1262.0000	277.767
1262.5000	277.811
1263.0000	277.79
1263.5000	277.749
1264.0000	277.775
1264.5000	277.707
1265.0000	277.767
1265.5000	277.846
1266.0000	277.814
1266.5000	277.84
1267.0000	277.785
1267.5000	277.818
1268.0000	277.79
1268.5000	277.825
1269.0000	277.885
1269.5000	277.874
1270.0000	277.918
1270.5000	277.929
1271.0000	277.934
1271.5000	277.961
1272.0000	278.019
1272.5000	278.076
1273.0000	278.025
1273.5000	277.942
1274.0000	277.872
1274.5000	277.79
1275.0000	277.874
1275.5000	277.876
1276.0000	277.919
1276.5000	278.031
1277.0000	278.008
1277.5000	278.052
1278.0000	278.073
1278.5000	277.998
1279.0000	278.057
1279.5000	278.068
1280.0000	278.097
1280.5000	278.125
1281.0000	278.096
1281.5000	278.114
1282.0000	278.097
1282.5000	278.09
1283.0000	278.075
1283.5000	278.08
1284.0000	278.137
1284.5000	278.17
1285.0000	278.18
1285.5000	278.196
1286.0000	278.182
1286.5000	278.178
1287.0000	278.237
1287.5000	278.223
1288.0000	278.218
1288.5000	278.244
1289.0000	278.22
1289.5000	278.235
1290.0000	278.241
1290.5000	278.266
1291.0000	278.276
1291.5000	278.329
1292.0000	278.326
1292.5000	278.288
1293.0000	278.339
1293.5000	278.268
1294.0000	278.328
1294.5000	278.362
1295.0000	278.313
1295.5000	278.376
1296.0000	278.352
1296.5000	278.377
1297.0000	278.428
1297.5000	278.401
1298.0000	278.436
1298.5000	278.478
1299.0000	278.495
1299.5000	278.532
1300.0000	278.521
1300.5000	278.487
1301.0000	278.475
1301.5000	278.5
1302.0000	278.526
1302.5000	278.489
1303.0000	278.508
1303.5000	278.464
1304.0000	278.489
1304.5000	278.514
1305.0000	278.474
1305.5000	278.531
1306.0000	278.488
1306.5000	278.523
1307.0000	278.5
1307.5000	278.513
1308.0000	278.512
1308.5000	278.505
1309.0000	278.528
1309.5000	278.537
1310.0000	278.556
1310.5000	278.561
1311.0000	278.616
1311.5000	278.612
1312.0000	278.646
1312.5000	278.708
1313.0000	278.722
1313.5000	278.706
1314.0000	278.701
1314.5000	278.651
1315.0000	278.646
1315.5000	278.693
1316.0000	278.662
1316.5000	278.724
1317.0000	278.737
1317.5000	278.716
1318.0000	278.745
1318.5000	278.754
1319.0000	278.737
1319.5000	278.784
1320.0000	278.775
1320.5000	278.785
1321.0000	278.833
1321.5000	278.84
1322.0000	278.875
1322.5000	278.844
1323.0000	278.858
1323.5000	278.837
1324.0000	278.868
1324.5000	278.884
1325.0000	278.848
1325.5000	278.886
1326.0000	278.9
1326.5000	278.912
1327.0000	278.97
1327.5000	278.998
1328.0000	278.989
1328.5000	279.034
1329.0000	279.016
1329.5000	279.014
1330.0000	279.007
1330.5000	279
1331.0000	279.086
1331.5000	279.093
1332.0000	279.12
1332.5000	279.152
1333.0000	279.086
1333.5000	279.096
1334.0000	279.1
1334.5000	279.044
1335.0000	279.017
1335.5000	279.026
1336.0000	279.036
1336.5000	279.073
1337.0000	279.139
1337.5000	279.152
1338.0000	279.136
1338.5000	279.147
1339.0000	279.167
1339.5000	279.154
1340.0000	279.181
1340.5000	279.182
1341.0000	279.136
1341.5000	279.167
1342.0000	279.202
1342.5000	279.208
1343.0000	279.222
1343.5000	279.169
1344.0000	279.237
1344.5000	279.293
1345.0000	279.278
1345.5000	279.365
1346.0000	279.333
1346.5000	279.292
1347.0000	279.359
1347.5000	279.354
1348.0000	279.356
1348.5000	279.376
1349.0000	279.429
1349.5000	279.456
1350.0000	279.484
1350.5000	279.486
1351.0000	279.436
1351.5000	279.392
1352.0000	279.331
1352.5000	279.311
1353.0000	279.363
1353.5000	279.395
1354.0000	279.407
1354.5000	279.437
1355.0000	279.418
1355.5000	279.441
1356.0000	279.515
1356.5000	279.539
1357.0000	279.58
1357.5000	279.57
1358.0000	279.525
1358.5000	279.524
1359.0000	279.495
1359.5000	279.465
1360.0000	279.538
1360.5000	279.538
1361.0000	279.581
1361.5000	279.618
1362.0000	279.553
1362.5000	279.577
1363.0000	279.51
1363.5000	279.52
1364.0000	279.553
1364.5000	279.545
1365.0000	279.556
1365.5000	279.642
1366.0000	279.682
1366.5000	279.692
1367.0000	279.791
1367.5000	279.743
1368.0000	279.704
1368.5000	279.773
1369.0000	279.71
1369.5000	279.708
1370.0000	279.714
1370.5000	279.665
1371.0000	279.734
1371.5000	279.74
1372.0000	279.833
1372.5000	279.842
1373.0000	279.82
1373.5000	279.882
1374.0000	279.779
1374.5000	279.788
1375.0000	279.77
1375.5000	279.712
1376.0000	279.765
1376.5000	279.844
1377.0000	279.872
1377.5000	279.881
1378.0000	279.9
1378.5000	279.833
1379.0000	279.868
1379.5000	279.935
1380.0000	279.961
1380.5000	280.024
1381.0000	280.007
1381.5000	279.986
1382.0000	280.005
1382.5000	279.993
1383.0000	280.058
1383.5000	280.045
1384.0000	280.024
1384.5000	280.023
1385.0000	279.957
1385.5000	279.948
1386.0000	279.927
1386.5000	279.884
1387.0000	279.913
1387.5000	279.96
1388.0000	280.02
1388.5000	280.081
1389.0000	280.102
1389.5000	280.076
1390.0000	280.027
1390.5000	280.003
1391.0000	279.986
1391.5000	280.003
1392.0000	280.049
1392.5000	280.078
1393.0000	280.077
1393.5000	280.081
1394.0000	280.07
1394.5000	280.06
1395.0000	280.065
1395.5000	280.062
1396.0000	280.045
1396.5000	280.099
1397.0000	280.091
1397.5000	280.123
1398.0000	280.158
1398.5000	280.17
1399.0000	280.229
1399.5000	280.256
1400.0000	280.267
1400.5000	280.24
1401.0000	280.225
1401.5000	280.199
1402.0000	280.194
1402.5000	280.205
1403.0000	280.217
1403.5000	280.218
1404.0000	280.161
1404.5000	280.183
1405.0000	280.205
1405.5000	280.227
1406.0000	280.32
1406.5000	280.324
1407.0000	280.296
1407.5000	280.288
1408.0000	280.288
1408.5000	280.242
1409.0000	280.271
1409.5000	280.322
1410.0000	280.344
1410.5000	280.36
1411.0000	280.356
1411.5000	280.358
1412.0000	280.354
1412.5000	280.397
1413.0000	280.402
1413.5000	280.366
1414.0000	280.338
1414.5000	280.35
1415.0000	280.391
1415.5000	280.387
1416.0000	280.389
1416.5000	280.394
1417.0000	280.369
1417.5000	280.349
1418.0000	280.425
1418.5000	280.465
1419.0000	280.48
1419.5000	280.535
1420.0000	280.527
1420.5000	280.534
1421.0000	280.545
1421.5000	280.531
1422.0000	280.513
1422.5000	280.473
1423.0000	280.448
1423.5000	280.469
1424.0000	280.498
1424.5000	280.492
1425.0000	280.488
1425.5000	280.527
1426.0000	280.524
1426.5000	280.541
1427.0000	280.572
1427.5000	280.536
1428.0000	280.52
1428.5000	280.524
1429.0000	280.538
1429.5000	280.604
1430.0000	280.646
1430.5000	280.679
1431.0000	280.702
1431.5000	280.698
1432.0000	280.681
1432.5000	280.66
1433.0000	280.622
1433.5000	280.638
1434.0000	280.623
1434.5000	280.618
1435.0000	280.66
1435.5000	280.648
1436.0000	280.634
1436.5000	280.733
1437.0000	280.753
1437.5000	280.73
1438.0000	280.803
1438.5000	280.694
1439.0000	280.683
1439.5000	280.654
1440.0000	280.679
1440.5000	280.73
1441.0000	280.767
1441.5000	280.779
1442.0000	280.75
1442.5000	280.777
1443.0000	280.798
1443.5000	280.81
1444.0000	280.854
1444.5000	280.842
1445.0000	280.816
1445.5000	280.794
1446.0000	280.711
1446.5000	280.733
1447.0000	280.687
1447.5000	280.712
1448.0000	280.781
1448.5000	280.762
1449.0000	280.76
1449.5000	280.765
1450.0000	280.729
1450.5000	280.769
1451.0000	280.79
1451.5000	280.813
1452.0000	280.823
1452.5000	280.804
1453.0000	280.79
1453.5000	280.824
1454.0000	280.8
1454.5000	280.801
1455.0000	280.873
1455.5000	280.864
1456.0000	280.905
1456.5000	280.915
1457.0000	280.844
1457.5000	280.824
1458.0000	280.763
1458.5000	280.729
1459.0000	280.809
1459.5000	280.828
1460.0000	280.901
1460.5000	280.945
1461.0000	280.911
1461.5000	280.907
1462.0000	280.897
1462.5000	280.862
1463.0000	280.877
1463.5000	280.989
1464.0000	280.971
1464.5000	280.995
1465.0000	281.019
1465.5000	280.924
1466.0000	280.969
1466.5000	280.975
1467.0000	280.941
1467.5000	280.972
1468.0000	280.969
1468.5000	281.006
1469.0000	281.05
1469.5000	280.987
1470.0000	280.956
1470.5000	280.956
1471.0000	280.922
1471.5000	280.998
1472.0000	281.051
1472.5000	280.994
1473.0000	280.984
1473.5000	281.033
1474.0000	281.042
1474.5000	281.118
1475.0000	281.209
1475.5000	281.164
1476.0000	281.157
1476.5000	281.121
1477.0000	281.075
1477.5000	281.043
1478.0000	281.042
1478.5000	281.049
1479.0000	281.036
1479.5000	281.073
1480.0000	281.129
1480.5000	281.126
1481.0000	281.143
1481.5000	281.098
1482.0000	281.068
1482.5000	281.077
1483.0000	281.08
1483.5000	281.128
1484.0000	281.15
1484.5000	281.124
1485.0000	281.206
1485.5000	281.257
1486.0000	281.261
1486.5000	281.329
1487.0000	281.29
1487.5000	281.246
1488.0000	281.187
1488.5000	281.142
1489.0000	281.13
1489.5000	281.15
1490.0000	281.23
1490.5000	281.243
1491.0000	281.261
1491.5000	281.245
1492.0000	281.236
1492.5000	281.261
1493.0000	281.191
1493.5000	281.191
1494.0000	281.117
1494.5000	281.079
1495.0000	281.152
1495.5000	281.124
1496.0000	281.188
1496.5000	281.277
1497.0000	281.272
1497.5000	281.311
1498.0000	281.323
1498.5000	281.329
1499.0000	281.28
1499.5000	281.325
1500.0000	281.28
1500.5000	281.202
1501.0000	281.238
1501.5000	281.218
1502.0000	281.31
1502.5000	281.341
1503.0000	281.319
1503.5000	281.325
1504.0000	281.265
1504.5000	281.259
1505.0000	281.304
1505.5000	281.307
1506.0000	281.311
1506.5000	281.351
1507.0000	281.358
1507.5000	281.391
1508.0000	281.459
1508.5000	281.46
1509.0000	281.449
1509.5000	281.409
1510.0000	281.376
1510.5000	281.367
1511.0000	281.385
1511.5000	281.411
1512.0000	281.382
1512.5000	281.39
1513.0000	281.386
1513.5000	281.371
1514.0000	281.354
1514.5000	281.358
1515.0000	281.362
1515.5000	281.38
1516.0000	281.425
1516.5000	281.392
1517.0000	281.445
1517.5000	281.369
1518.0000	281.377
1518.5000	281.457
1519.0000	281.398
1519.5000	281.475
1520.0000	281.468
1520.5000	281.472
1521.0000	281.468
1521.5000	281.479
1522.0000	281.419
1522.5000	281.366
1523.0000	281.407
1523.5000	281.426
1524.0000	281.485
1524.5000	281.529
1525.0000	281.516
1525.5000	281.484
1526.0000	281.483
1526.5000	281.413
1527.0000	281.388
1527.5000	281.381
1528.0000	281.378
1528.5000	281.466
1529.0000	281.544
1529.5000	281.567
1530.0000	281.575
1530.5000	281.535
1531.0000	281.485
1531.5000	281.446
1532.0000	281.486
1532.5000	281.503
1533.0000	281.456
1533.5000	281.518
1534.0000	281.501
1534.5000	281.536
1535.0000	281.609
1535.5000	281.621
1536.0000	281.634
1536.5000	281.642
1537.0000	281.619
1537.5000	281.578
1538.0000	281.548
1538.5000	281.52
1539.0000	281.474
1539.5000	281.517
1540.0000	281.545
1540.5000	281.594
1541.0000	281.668
1541.5000	281.631
1542.0000	281.622
1542.5000	281.578
1543.0000	281.59
1543.5000	281.619
1544.0000	281.569
1544.5000	281.553
1545.0000	281.546
1545.5000	281.53
1546.0000	281.646
1546.5000	281.67
1547.0000	281.673
1547.5000	281.737
1548.0000	281.693
1548.5000	281.673
1549.0000	281.643
1549.5000	281.599
1550.0000	281.595
1550.5000	281.648
1551.0000	281.675
1551.5000	281.661
1552.0000	281.665
1552.5000	281.622
1553.0000	281.678
1553.5000	281.722
1554.0000	281.733
1554.5000	281.732
1555.0000	281.69
1555.5000	281.695
1556.0000	281.694
1556.5000	281.684
1557.0000	281.723
1557.5000	281.725
1558.0000	281.671
1558.5000	281.65
1559.0000	281.597
1559.5000	281.636
1560.0000	281.71
1560.5000	281.765
1561.0000	281.785
1561.5000	281.73
1562.0000	281.703
1562.5000	281.696
1563.0000	281.711
1563.5000	281.71
1564.0000	281.671
1564.5000	281.691
1565.0000	281.632
1565.5000	281.625
1566.0000	281.662
1566.5000	281.669
1567.0000	281.747
1567.5000	281.713
1568.0000	281.722
1568.5000	281.747
1569.0000	281.727
1569.5000	281.764
1570.0000	281.771
1570.5000	281.706
1571.0000	281.701
1571.5000	281.742
1572.0000	281.759
1572.5000	281.761
1573.0000	281.833
1573.5000	281.851
1574.0000	281.83
1574.5000	281.843
1575.0000	281.775
1575.5000	281.756
1576.0000	281.782
1576.5000	281.772
1577.0000	281.788
1577.5000	281.777
1578.0000	281.768
1578.5000	281.789
1579.0000	281.787
1579.5000	281.832
1580.0000	281.864
1580.5000	281.852
1581.0000	281.861
1581.5000	281.814
1582.0000	281.812
1582.5000	281.85
1583.0000	281.898
1583.5000	281.916
1584.0000	281.924
1584.5000	281.914
1585.0000	281.861
1585.5000	281.841
1586.0000	281.827
1586.5000	281.826
1587.0000	281.834
1587.5000	281.887
1588.0000	281.948
1588.5000	281.924
1589.0000	281.917
1589.5000	281.896
1590.0000	281.842
1590.5000	281.906
1591.0000	281.986
1591.5000	282.031
1592.0000	281.982
1592.5000	281.991
1593.0000	281.954
1593.5000	281.9
1594.0000	281.914
1594.5000	281.865
1595.0000	281.839
1595.5000	281.824
1596.0000	281.86
1596.5000	281.903
1597.0000	281.894
1597.5000	281.944
1598.0000	281.961
1598.5000	281.94
1599.0000	281.961
1599.5000	281.956
1600.0000	281.922
1600.5000	281.961
1601.0000	282.006
1601.5000	282.026
1602.0000	282.171
1602.5000	282.161
1603.0000	282.17
1603.5000	282.161
1604.0000	282.01
1604.5000	281.962
1605.0000	281.923
1605.5000	281.897
1606.0000	282.004
1606.5000	282.064
1607.0000	282.13
1607.5000	282.172
1608.0000	282.152
1608.5000	282.15
1609.0000	282.125
1609.5000	282.128
1610.0000	282.097
1610.5000	282.084
1611.0000	282.139
1611.5000	282.173
1612.0000	282.185
1612.5000	282.195
1613.0000	282.136
1613.5000	282.108
1614.0000	282.105
1614.5000	282.07
1615.0000	282.076
1615.5000	282.086
1616.0000	282.057
1616.5000	282.154
1617.0000	282.155
1617.5000	282.146
1618.0000	282.166
1618.5000	282.122
1619.0000	282.108
1619.5000	282.115
1620.0000	282.169
1620.5000	282.223
1621.0000	282.214
1621.5000	282.158
1622.0000	282.164
1622.5000	282.156
1623.0000	282.2
1623.5000	282.261
1624.0000	282.225
1624.5000	282.132
1625.0000	282.105
1625.5000	282.069
1626.0000	282.037
1626.5000	282.166
1627.0000	282.201
1627.5000	282.231
1628.0000	282.291
1628.5000	282.166
1629.0000	282.176
1629.5000	282.188
1630.0000	282.239
1630.5000	282.274
1631.0000	282.225
1631.5000	282.307
1632.0000	282.258
1632.5000	282.285
1633.0000	282.274
1633.5000	282.191
1634.0000	282.147
1634.5000	282.087
1635.0000	282.107
1635.5000	282.114
1636.0000	282.187
1636.5000	282.283
1637.0000	282.303
1637.5000	282.301
1638.0000	282.289
1638.5000	282.289
1639.0000	282.229
1639.5000	282.257
1640.0000	282.221
1640.5000	282.224
1641.0000	282.238
1641.5000	282.233
1642.0000	282.264
1642.5000	282.237
1643.0000	282.253
1643.5000	282.244
1644.0000	282.257
1644.5000	282.286
1645.0000	282.325
1645.5000	282.286
1646.0000	282.283
1646.5000	282.241
1647.0000	282.239
1647.5000	282.333
1648.0000	282.323
1648.5000	282.297
1649.0000	282.322
1649.5000	282.274
1650.0000	282.253
1650.5000	282.295
1651.0000	282.272
1651.5000	282.303
1652.0000	282.323
1652.5000	282.322
1653.0000	282.343
1653.5000	282.253
1654.0000	282.292
1654.5000	282.334
1655.0000	282.294
1655.5000	282.34
1656.0000	282.375
1656.5000	282.307
1657.0000	282.338
1657.5000	282.35
1658.0000	282.287
1658.5000	282.317
1659.0000	282.33
1659.5000	282.365
1660.0000	282.363
1660.5000	282.332
1661.0000	282.286
1661.5000	282.248
1662.0000	282.242
1662.5000	282.277
1663.0000	282.324
1663.5000	282.336
1664.0000	282.372
1664.5000	282.398
1665.0000	282.406
1665.5000	282.439
1666.0000	282.424
1666.5000	282.455
1667.0000	282.403
1667.5000	282.375
1668.0000	282.371
1668.5000	282.351
1669.0000	282.387
1669.5000	282.405
1670.0000	282.393
1670.5000	282.385
1671.0000	282.386
1671.5000	282.387
1672.0000	282.357
1672.5000	282.324
1673.0000	282.356
1673.5000	282.408
1674.0000	282.459
1674.5000	282.411
1675.0000	282.407
1675.5000	282.364
1676.0000	282.373
1676.5000	282.447
1677.0000	282.399
1677.5000	282.391
1678.0000	282.36
1678.5000	282.37
1679.0000	282.394
1679.5000	282.395
1680.0000	282.406
1680.5000	282.44
1681.0000	282.455
1681.5000	282.373
1682.0000	282.352
1682.5000	282.296
1683.0000	282.296
1683.5000	282.369
1684.0000	282.387
1684.5000	282.462
1685.0000	282.481
1685.5000	282.475
1686.0000	282.503
1686.5000	282.431
1687.0000	282.433
1687.5000	282.416
1688.0000	282.381
1688.5000	282.411
1689.0000	282.425
1689.5000	282.414
1690.0000	282.48
1690.5000	282.495
1691.0000	282.458
1691.5000	282.509
1692.0000	282.496
1692.5000	282.533
1693.0000	282.547
1693.5000	282.569
1694.0000	282.535
1694.5000	282.525
1695.0000	282.539
1695.5000	282.525
1696.0000	282.571
1696.5000	282.546
1697.0000	282.534
1697.5000	282.594
1698.0000	282.582
1698.5000	282.576
1699.0000	282.594
1699.5000	282.599
1700.0000	282.556
1700.5000	282.541
1701.0000	282.546
1701.5000	282.487
1702.0000	282.498
1702.5000	282.505
1703.0000	282.505
1703.5000	282.548
1704.0000	282.594
1704.5000	282.613
1705.0000	282.596
1705.5000	282.501
1706.0000	282.435
1706.5000	282.381
1707.0000	282.389
1707.5000	282.445
1708.0000	282.465
1708.5000	282.499
1709.0000	282.436
1709.5000	282.465
1710.0000	282.484
1710.5000	282.536
1711.0000	282.557
1711.5000	282.561
1712.0000	282.569
1712.5000	282.538
1713.0000	282.634
1713.5000	282.597
1714.0000	282.643
1714.5000	282.688
1715.0000	282.637
1715.5000	282.626
1716.0000	282.601
1716.5000	282.568
1717.0000	282.569
1717.5000	282.557
1718.0000	282.535
1718.5000	282.521
1719.0000	282.547
1719.5000	282.583
1720.0000	282.581
1720.5000	282.549
1721.0000	282.534
1721.5000	282.563
1722.0000	282.606
1722.5000	282.687
1723.0000	282.705
1723.5000	282.695
1724.0000	282.713
1724.5000	282.703
1725.0000	282.696
1725.5000	282.647
1726.0000	282.621
1726.5000	282.61
1727.0000	282.613
1727.5000	282.713
1728.0000	282.732
1728.5000	282.73
1729.0000	282.729
1729.5000	282.647
1730.0000	282.641
1730.5000	282.604
1731.0000	282.608
1731.5000	282.684
1732.0000	282.634
1732.5000	282.618
1733.0000	282.632
1733.5000	282.588
1734.0000	282.59
1734.5000	282.708
1735.0000	282.689
1735.5000	282.704
1736.0000	282.759
1736.5000	282.675
1737.0000	282.67
1737.5000	282.679
1738.0000	282.687
1738.5000	282.732
1739.0000	282.748
1739.5000	282.746
1740.0000	282.755
1740.5000	282.699
1741.0000	282.775
1741.5000	282.797
1742.0000	282.805
1742.5000	282.802
1743.0000	282.758
1743.5000	282.75
1744.0000	282.744
1744.5000	282.795
1745.0000	282.802
1745.5000	282.828
1746.0000	282.788
1746.5000	282.771
1747.0000	282.772
1747.5000	282.765
1748.0000	282.802
1748.5000	282.841
1749.0000	282.838
1749.5000	282.802
1750.0000	282.808
1750.5000	282.788
1751.0000	282.743
1751.5000	282.747
1752.0000	282.74
1752.5000	282.766
1753.0000	282.802
1753.5000	282.83
1754.0000	282.826
1754.5000	282.825
1755.0000	282.829
1755.5000	282.795
1756.0000	282.81
1756.5000	282.767
1757.0000	282.722
1757.5000	282.763
1758.0000	282.742
1758.5000	282.753
1759.0000	282.781
1759.5000	282.773
1760.0000	282.746
1760.5000	282.726
1761.0000	282.746
1761.5000	282.676
1762.0000	282.68
1762.5000	282.691
1763.0000	282.717
1763.5000	282.791
1764.0000	282.845
1764.5000	282.876
1765.0000	282.852
1765.5000	282.814
1766.0000	282.796
1766.5000	282.789
1767.0000	282.763
1767.5000	282.853
1768.0000	282.888
1768.5000	282.901
1769.0000	282.912
1769.5000	282.85
1770.0000	282.837
1770.5000	282.861
1771.0000	282.921
1771.5000	282.915
1772.0000	282.899
1772.5000	282.864
1773.0000	282.811
1773.5000	282.81
1774.0000	282.832
1774.5000	282.898
1775.0000	282.962
1775.5000	282.981
1776.0000	282.916
1776.5000	282.848
1777.0000	282.79
1777.5000	282.81
1778.0000	282.832
1778.5000	282.886
1779.0000	282.918
1779.5000	282.913
1780.0000	282.937
1780.5000	282.952
1781.0000	282.924
1781.5000	282.908
1782.0000	282.89
1782.5000	282.831
1783.0000	282.834
1783.5000	282.888
1784.0000	282.854
1784.5000	282.857
1785.0000	282.881
1785.5000	282.805
1786.0000	282.881
1786.5000	282.925
1787.0000	282.948
1787.5000	282.939
1788.0000	282.985
1788.5000	282.944
1789.0000	282.934
1789.5000	282.957
1790.0000	282.936
1790.5000	282.928
1791.0000	282.914
1791.5000	282.939
1792.0000	282.898
1792.5000	282.928
1793.0000	282.951
1793.5000	282.946
1794.0000	282.946
1794.5000	282.961
1795.0000	282.943
1795.5000	282.938
1796.0000	282.972
1796.5000	282.934
1797.0000	282.94
1797.5000	282.939
1798.0000	282.948
1798.5000	282.984
1799.0000	282.995
1799.5000	283.023
1800.0000	283.029
1800.5000	283.051
1801.0000	283.013
1801.5000	282.982
1802.0000	282.992
1802.5000	282.983
1803.0000	283.001
1803.5000	283.009
1804.0000	283.022
1804.5000	282.995
1805.0000	283.039
1805.5000	283.044
1806.0000	282.955
1806.5000	282.985
1807.0000	282.94
1807.5000	282.969
1808.0000	283.049
1808.5000	283.033
1809.0000	282.995
1809.5000	283.011
1810.0000	283.011
1810.5000	283.02
1811.0000	283.108
1811.5000	283.077
1812.0000	283.055
1812.5000	283.078
1813.0000	283.056
1813.5000	283.042
1814.0000	283.062
1814.5000	283.015
1815.0000	283.037
1815.5000	283.074
1816.0000	283.05
1816.5000	283.065
1817.0000	283.042
1817.5000	283.034
1818.0000	283.042
1818.5000	283.047
1819.0000	283.046
1819.5000	283.022
1820.0000	282.95
1820.5000	282.969
1821.0000	282.98
1821.5000	283.004
1822.0000	283.098
1822.5000	283.061
1823.0000	283.031
1823.5000	282.978
1824.0000	282.935
1824.5000	282.932
1825.0000	282.933
1825.5000	282.95
1826.0000	282.986
1826.5000	283.049
1827.0000	283.062
1827.5000	283.074
1828.0000	283.082
1828.5000	283.081
1829.0000	283.074
1829.5000	283.094
1830.0000	283.109
1830.5000	283.083
1831.0000	283.093
1831.5000	283.12
1832.0000	283.138
1832.5000	283.142
1833.0000	283.205
1833.5000	283.194
1834.0000	283.136
1834.5000	283.16
1835.0000	283.14
1835.5000	283.133
1836.0000	283.143
1836.5000	283.119
1837.0000	283.075
1837.5000	283.023
1838.0000	283.042
1838.5000	283.092
1839.0000	283.089
1839.5000	283.119
1840.0000	283.056
1840.5000	283.04
1841.0000	283.064
1841.5000	283.124
1842.0000	283.23
1842.5000	283.24
1843.0000	283.233
1843.5000	283.191
1844.0000	283.156
1844.5000	283.139
1845.0000	283.127
1845.5000	283.155
1846.0000	283.142
1846.5000	283.171
1847.0000	283.233
1847.5000	283.224
1848.0000	283.254
1848.5000	283.208
1849.0000	283.157
1849.5000	283.141
1850.0000	283.159
1850.5000	283.144
1851.0000	283.176
1851.5000	283.22
1852.0000	283.164
1852.5000	283.183
1853.0000	283.249
1853.5000	283.155
1854.0000	283.176
1854.5000	283.158
1855.0000	283.087
1855.5000	283.159
1856.0000	283.159
1856.5000	283.202
1857.0000	283.233
1857.5000	283.233
1858.0000	283.199
1858.5000	283.161
1859.0000	283.144
1859.5000	283.111
1860.0000	283.115
1860.5000	283.123
1861.0000	283.114
1861.5000	283.218
1862.0000	283.236
1862.5000	283.221
1863.0000	283.263
1863.5000	283.221
1864.0000	283.259
1864.5000	283.31
1865.0000	283.254
1865.5000	283.246
1866.0000	283.231
1866.5000	283.193
1867.0000	283.217
1867.5000	283.22
1868.0000	283.276
1868.5000	283.34
1869.0000	283.304
1869.5000	283.3
1870.0000	283.245
1870.5000	283.254
1871.0000	283.255
1871.5000	283.298
1872.0000	283.334
1872.5000	283.267
1873.0000	283.298
1873.5000	283.217
1874.0000	283.201
1874.5000	283.259
1875.0000	283.327
1875.5000	283.39
1876.0000	283.378
1876.5000	283.388
1877.0000	283.335
1877.5000	283.38
1878.0000	283.405
1878.5000	283.402
1879.0000	283.42
1879.5000	283.347
1880.0000	283.343
1880.5000	283.298
1881.0000	283.258
1881.5000	283.256
1882.0000	283.203
1882.5000	283.208
1883.0000	283.212
1883.5000	283.215
1884.0000	283.21
1884.5000	283.27
1885.0000	283.278
1885.5000	283.26
1886.0000	283.315
1886.5000	283.255
1887.0000	283.264
1887.5000	283.345
1888.0000	283.295
1888.5000	283.332
1889.0000	283.304
1889.5000	283.301
1890.0000	283.366
1890.5000	283.345
1891.0000	283.368
1891.5000	283.364
1892.0000	283.362
1892.5000	283.351
1893.0000	283.392
1893.5000	283.374
1894.0000	283.362
1894.5000	283.382
1895.0000	283.377
1895.5000	283.357
1896.0000	283.373
1896.5000	283.388
1897.0000	283.382
1897.5000	283.4
1898.0000	283.422
1898.5000	283.44
1899.0000	283.488
1899.5000	283.435
1900.0000	283.399
1900.5000	283.368
1901.0000	283.342
1901.5000	283.36
1902.0000	283.406
1902.5000	283.453
1903.0000	283.414
1903.5000	283.436
1904.0000	283.415
1904.5000	283.43
1905.0000	283.463
1905.5000	283.495
1906.0000	283.432
1906.5000	283.402
1907.0000	283.378
1907.5000	283.396
1908.0000	283.444
1908.5000	283.421
1909.0000	283.46
1909.5000	283.422
1910.0000	283.402
1910.5000	283.451
1911.0000	283.441
1911.5000	283.446
1912.0000	283.402
1912.5000	283.429
1913.0000	283.39
1913.5000	283.376
1914.0000	283.441
1914.5000	283.377
1915.0000	283.413
1915.5000	283.453
1916.0000	283.519
1916.5000	283.515
1917.0000	283.552
1917.5000	283.546
1918.0000	283.487
1918.5000	283.531
1919.0000	283.498
1919.5000	283.493
1920.0000	283.465
1920.5000	283.407
1921.0000	283.438
1921.5000	283.424
1922.0000	283.428
1922.5000	283.491
1923.0000	283.481
1923.5000	283.537
1924.0000	283.595
1924.5000	283.575
1925.0000	283.529
1925.5000	283.481
1926.0000	283.482
1926.5000	283.451
1927.0000	283.482
1927.5000	283.555
1928.0000	283.509
1928.5000	283.535
1929.0000	283.538
1929.5000	283.495
1930.0000	283.479
1930.5000	283.525
1931.0000	283.502
1931.5000	283.517
1932.0000	283.562
1932.5000	283.516
1933.0000	283.523
1933.5000	283.506
1934.0000	283.499
1934.5000	283.498
1935.0000	283.523
1935.5000	283.555
1936.0000	283.584
1936.5000	283.611
1937.0000	283.62
1937.5000	283.626
1938.0000	283.606
1938.5000	283.563
1939.0000	283.535
1939.5000	283.501
1940.0000	283.476
1940.5000	283.516
1941.0000	283.531
1941.5000	283.502
1942.0000	283.565
1942.5000	283.606
1943.0000	283.601
1943.5000	283.622
1944.0000	283.571
1944.5000	283.515
1945.0000	283.515
1945.5000	283.492
1946.0000	283.484
1946.5000	283.54
1947.0000	283.556
1947.5000	283.562
1948.0000	283.644
1948.5000	283.639
1949.0000	283.619
1949.5000	283.642
1950.0000	283.582
1950.5000	283.535
1951.0000	283.585
1951.5000	283.648
1952.0000	283.654
1952.5000	283.618
1953.0000	283.578
1953.5000	283.538
1954.0000	283.556
1954.5000	283.616
1955.0000	283.659
1955.5000	283.68
1956.0000	283.67
1956.5000	283.695
1957.0000	283.68
1957.5000	283.682
1958.0000	283.705
1958.5000	283.695
1959.0000	283.713
1959.5000	283.693
1960.0000	283.68
1960.5000	283.664
1961.0000	283.717
1961.5000	283.644
1962.0000	283.688
1962.5000	283.729
1963.0000	283.646
1963.5000	283.757
1964.0000	283.748
1964.5000	283.722
1965.0000	283.734
1965.5000	283.681
1966.0000	283.688
1966.5000	283.711
1967.0000	283.75
1967.5000	283.784
1968.0000	283.747
1968.5000	283.74
1969.0000	283.738
1969.5000	283.68
1970.0000	283.676
1970.5000	283.643
1971.0000	283.642
1971.5000	283.712
1972.0000	283.776
1972.5000	283.802
1973.0000	283.756
1973.5000	283.749
1974.0000	283.753
1974.5000	283.764
1975.0000	283.81
1975.5000	283.825
1976.0000	283.816
1976.5000	283.78
1977.0000	283.738
1977.5000	283.771
1978.0000	283.746
1978.5000	283.821
1979.0000	283.863
1979.5000	283.784
1980.0000	283.764
1980.5000	283.716
1981.0000	283.736
1981.5000	283.745
1982.0000	283.804
1982.5000	283.818
1983.0000	283.756
1983.5000	283.789
1984.0000	283.757
1984.5000	283.753
1985.0000	283.81
1985.5000	283.778
1986.0000	283.798
1986.5000	283.814
1987.0000	283.856
1987.5000	283.867
1988.0000	283.838
1988.5000	283.884
1989.0000	283.811
1989.5000	283.851
1990.0000	283.889
1990.5000	283.823
1991.0000	283.819
1991.5000	283.822
1992.0000	283.813
1992.5000	283.775
1993.0000	283.77
1993.5000	283.77
1994.0000	283.736
1994.5000	283.763
1995.0000	283.818
1995.5000	283.787
1996.0000	283.86
1996.5000	283.93
1997.0000	283.91
1997.5000	283.919
1998.0000	283.921
1998.5000	283.886
1999.0000	283.914
1999.5000	283.881
2000.0000	283.868
2000.5000	283.872
2001.0000	283.879
2001.5000	283.906
2002.0000	283.892
2002.5000	283.928
2003.0000	283.922
2003.5000	283.967
2004.0000	283.958
2004.5000	283.991
2005.0000	283.964
2005.5000	283.921
2006.0000	283.934
2006.5000	283.836
2007.0000	283.891
2007.5000	283.924
2008.0000	283.91
2008.5000	283.896
2009.0000	283.874
2009.5000	283.859
2010.0000	283.908
2010.5000	284.01
2011.0000	283.968
2011.5000	283.999
2012.0000	283.997
2012.5000	283.979
2013.0000	284.009
2013.5000	284.007
2014.0000	284.017
2014.5000	283.989
2015.0000	283.978
2015.5000	284.01
2016.0000	283.972
2016.5000	283.967
2017.0000	283.937
2017.5000	283.913
2018.0000	283.908
2018.5000	283.899
2019.0000	283.944
2019.5000	283.965
2020.0000	283.956
2020.5000	283.957
2021.0000	284.001
2021.5000	284.017
2022.0000	284.035
2022.5000	284.059
2023.0000	283.94
2023.5000	283.881
2024.0000	283.846
2024.5000	283.85
2025.0000	283.934
2025.5000	283.9
2026.0000	283.948
2026.5000	284.004
2027.0000	283.981
2027.5000	284.056
2028.0000	284.044
2028.5000	283.947
2029.0000	283.966
2029.5000	283.978
2030.0000	283.984
2030.5000	284.039
2031.0000	284.108
2031.5000	284.095
2032.0000	284.063
2032.5000	284.078
2033.0000	284.023
2033.5000	284.005
2034.0000	284.048
2034.5000	284.016
2035.0000	284.018
2035.5000	284.026
2036.0000	284.02
2036.5000	284.058
2037.0000	284.054
2037.5000	284.035
2038.0000	284.029
2038.5000	284.009
2039.0000	284.03
2039.5000	284.055
2040.0000	284.125
2040.5000	284.169
2041.0000	284.17
2041.5000	284.204
2042.0000	284.156
2042.5000	284.141
2043.0000	284.141
2043.5000	284.109
2044.0000	284.118
2044.5000	284.113
2045.0000	284.036
2045.5000	284.056
2046.0000	284.066
2046.5000	284.084
2047.0000	284.198
2047.5000	284.177
2048.0000	284.086
2048.5000	284.018
2049.0000	283.967
2049.5000	284.012
2050.0000	284.131
2050.5000	284.169
2051.0000	284.189
2051.5000	284.178
2052.0000	284.161
2052.5000	284.161
2053.0000	284.182
2053.5000	284.173
2054.0000	284.176
2054.5000	284.188
2055.0000	284.181
2055.5000	284.167
2056.0000	284.175
2056.5000	284.181
2057.0000	284.134
2057.5000	284.132
2058.0000	284.138
2058.5000	284.127
2059.0000	284.148
2059.5000	284.126
2060.0000	284.101
2060.5000	284.086
2061.0000	284.109
2061.5000	284.113
2062.0000	284.127
2062.5000	284.138
2063.0000	284.148
2063.5000	284.208
2064.0000	284.19
2064.5000	284.2
2065.0000	284.18
2065.5000	284.177
2066.0000	284.166
2066.5000	284.147
2067.0000	284.162
2067.5000	284.142
2068.0000	284.133
2068.5000	284.123
2069.0000	284.105
2069.5000	284.118
2070.0000	284.145
2070.5000	284.202
2071.0000	284.206
2071.5000	284.179
2072.0000	284.202
2072.5000	284.19
2073.0000	284.189
2073.5000	284.234
2074.0000	284.217
2074.5000	284.227
2075.0000	284.261
2075.5000	284.22
2076.0000	284.196
2076.5000	284.185
2077.0000	284.171
2077.5000	284.181
2078.0000	284.219
2078.5000	284.162
2079.0000	284.152
2079.5000	284.094
2080.0000	284.063
2080.5000	284.109
2081.0000	284.11
2081.5000	284.181
2082.0000	284.196
2082.5000	284.179
2083.0000	284.207
2083.5000	284.196
2084.0000	284.174
2084.5000	284.19
2085.0000	284.188
2085.5000	284.214
2086.0000	284.257
2086.5000	284.285
2087.0000	284.258
2087.5000	284.183
2088.0000	284.131
2088.5000	284.168
2089.0000	284.207
2089.5000	284.248
2090.0000	284.315
2090.5000	284.259
2091.0000	284.22
2091.5000	284.242
2092.0000	284.251
2092.5000	284.267
2093.0000	284.293
2093.5000	284.331
2094.0000	284.284
2094.5000	284.287
2095.0000	284.308
2095.5000	284.281
2096.0000	284.312
2096.5000	284.284
2097.0000	284.269
2097.5000	284.295
2098.0000	284.293
2098.5000	284.345
2099.0000	284.435
2099.5000	284.361
2100.0000	284.407
2100.5000	284.393
2101.0000	284.256
2101.5000	284.326
2102.0000	284.303
2102.5000	284.314
2103.0000	284.344
2103.5000	284.336
2104.0000	284.284
2104.5000	284.257
2105.0000	284.236
2105.5000	284.307
2106.0000	284.298
2106.5000	284.295
2107.0000	284.408
2107.5000	284.296
2108.0000	284.337
2108.5000	284.359
2109.0000	284.294
2109.5000	284.391
2110.0000	284.423
2110.5000	284.432
2111.0000	284.442
2111.5000	284.358
2112.0000	284.334
2112.5000	284.369
2113.0000	284.339
2113.5000	284.391
2114.0000	284.405
2114.5000	284.37
2115.0000	284.405
2115.5000	284.366
2116.0000	284.319
2116.5000	284.394
2117.0000	284.416
2117.5000	284.472
2118.0000	284.56
2118.5000	284.501
2119.0000	284.493
2119.5000	284.472
2120.0000	284.437
2120.5000	284.421
2121.0000	284.4
2121.5000	284.378
2122.0000	284.388
2122.5000	284.452
2123.0000	284.541
2123.5000	284.566
2124.0000	284.472
2124.5000	284.446
2125.0000	284.417
2125.5000	284.399
2126.0000	284.482
2126.5000	284.479
2127.0000	284.461
2127.5000	284.527
2128.0000	284.473
2128.5000	284.518
2129.0000	284.467
2129.5000	284.505
2130.0000	284.618
2130.5000	284.61
2131.0000	284.586
2131.5000	284.576
2132.0000	284.588
2132.5000	284.571
2133.0000	284.645
2133.5000	284.611
2134.0000	284.563
2134.5000	284.575
2135.0000	284.573
2135.5000	284.552
2136.0000	284.567
2136.5000	284.58
2137.0000	284.557
2137.5000	284.605
2138.0000	284.575
2138.5000	284.504
2139.0000	284.51
2139.5000	284.486
2140.0000	284.567
2140.5000	284.627
2141.0000	284.617
2141.5000	284.597
2142.0000	284.527
2142.5000	284.524
2143.0000	284.606
2143.5000	284.566
2144.0000	284.639
2144.5000	284.628
2145.0000	284.571
2145.5000	284.644
2146.0000	284.583
2146.5000	284.595
2147.0000	284.553
2147.5000	284.585
2148.0000	284.665
2148.5000	284.658
2149.0000	284.725
2149.5000	284.717
2150.0000	284.647
2150.5000	284.614
2151.0000	284.592
2151.5000	284.546
2152.0000	284.562
2152.5000	284.604
2153.0000	284.605
2153.5000	284.634
2154.0000	284.665
2154.5000	284.653
2155.0000	284.649
2155.5000	284.726
2156.0000	284.687
2156.5000	284.783
2157.0000	284.839
2157.5000	284.799
2158.0000	284.775
2158.5000	284.682
2159.0000	284.637
2159.5000	284.592
2160.0000	284.602
2160.5000	284.629
2161.0000	284.635
2161.5000	284.65
2162.0000	284.643
2162.5000	284.673
2163.0000	284.692
2163.5000	284.731
2164.0000	284.738
2164.5000	284.664
2165.0000	284.639
2165.5000	284.576
2166.0000	284.658
2166.5000	284.664
2167.0000	284.686
2167.5000	284.731
2168.0000	284.635
2168.5000	284.663
2169.0000	284.722
2169.5000	284.681
2170.0000	284.734
2170.5000	284.786
2171.0000	284.692
2171.5000	284.721
2172.0000	284.682
2172.5000	284.657
2173.0000	284.734
2173.5000	284.773
2174.0000	284.788
2174.5000	284.744
2175.0000	284.697
2175.5000	284.616
2176.0000	284.688
2176.5000	284.737
2177.0000	284.8
2177.5000	284.833
2178.0000	284.791
2178.5000	284.815
2179.0000	284.833
2179.5000	284.861
2180.0000	284.882
2180.5000	284.855
2181.0000	284.8
2181.5000	284.823
2182.0000	284.778
2182.5000	284.782
2183.0000	284.796
2183.5000	284.817
2184.0000	284.841
2184.5000	284.82
2185.0000	284.794
2185.5000	284.766
2186.0000	284.778
2186.5000	284.81
2187.0000	284.888
2187.5000	284.813
2188.0000	284.826
2188.5000	284.845
2189.0000	284.802
2189.5000	284.885
2190.0000	284.902
2190.5000	284.897
2191.0000	284.908
2191.5000	284.876
2192.0000	284.821
2192.5000	284.826
2193.0000	284.794
2193.5000	284.796
2194.0000	284.882
2194.5000	284.856
2195.0000	284.882
2195.5000	284.951
2196.0000	284.926
2196.5000	284.901
2197.0000	284.89
2197.5000	284.883
2198.0000	284.854
2198.5000	284.92
2199.0000	284.928
2199.5000	284.901
2200.0000	284.898
2200.5000	284.843
2201.0000	284.862
2201.5000	284.842
2202.0000	284.849
2202.5000	284.903
2203.0000	284.902
2203.5000	284.884
2204.0000	284.895
2204.5000	284.87
2205.0000	284.858
2205.5000	284.914
2206.0000	284.942
2206.5000	284.98
2207.0000	285.015
2207.5000	284.996
2208.0000	285.011
2208.5000	284.973
2209.0000	284.95
2209.5000	285.023
2210.0000	285.032
2210.5000	285.021
2211.0000	285.02
2211.5000	284.989
2212.0000	284.936
2212.5000	284.98
2213.0000	284.962
2213.5000	284.996
2214.0000	285.038
2214.5000	285.021
2215.0000	285.09
2215.5000	284.974
2216.0000	284.97
2216.5000	284.997
2217.0000	284.95
2217.5000	284.965
2218.0000	284.946
2218.5000	284.943
2219.0000	284.979
2219.5000	285.012
2220.0000	285.004
2220.5000	285.034
2221.0000	285.051
2221.5000	285.06
2222.0000	285.075
2222.5000	285.032
2223.0000	284.974
2223.5000	284.972
2224.0000	284.963
2224.5000	285.001
2225.0000	285.031
2225.5000	285.039
2226.0000	285.078
2226.5000	285.017
2227.0000	285.023
2227.5000	285.106
2228.0000	285.091
2228.5000	285.125
2229.0000	285.11
2229.5000	285.007
2230.0000	285.006
2230.5000	284.944
2231.0000	284.95
2231.5000	284.981
2232.0000	284.927
2232.5000	284.99
2233.0000	284.913
2233.5000	284.93
2234.0000	285.024
2234.5000	284.986
2235.0000	285.068
2235.5000	285.066
2236.0000	285.11
2236.5000	285.139
2237.0000	285.137
2237.5000	285.109
2238.0000	285.052
2238.5000	285.029
2239.0000	284.995
2239.5000	285.037
2240.0000	284.997
2240.5000	285.029
2241.0000	285.11
2241.5000	285.04
2242.0000	285.096
2242.5000	285.13
2243.0000	285.122
2243.5000	285.243
2244.0000	285.225
2244.5000	285.238
2245.0000	285.191
2245.5000	285.148
2246.0000	285.134
2246.5000	285.149
2247.0000	285.192
2247.5000	285.121
2248.0000	285.121
2248.5000	285.112
2249.0000	285.106
2249.5000	285.109
2250.0000	285.115
2250.5000	285.099
2251.0000	285.071
2251.5000	285.168
2252.0000	285.152
2252.5000	285.144
2253.0000	285.195
2253.5000	285.172
2254.0000	285.228
2254.5000	285.266
2255.0000	285.306
2255.5000	285.283
2256.0000	285.232
2256.5000	285.208
2257.0000	285.138
2257.5000	285.203
2258.0000	285.215
2258.5000	285.233
2259.0000	285.237
2259.5000	285.189
2260.0000	285.209
2260.5000	285.231
2261.0000	285.298
2261.5000	285.298
2262.0000	285.287
2262.5000	285.232
2263.0000	285.19
2263.5000	285.201
2264.0000	285.161
2264.5000	285.172
2265.0000	285.2
2265.5000	285.223
2266.0000	285.282
2266.5000	285.311
2267.0000	285.269
2267.5000	285.263
2268.0000	285.27
2268.5000	285.257
2269.0000	285.293
2269.5000	285.271
2270.0000	285.244
2270.5000	285.229
2271.0000	285.203
2271.5000	285.17
2272.0000	285.208
2272.5000	285.234
2273.0000	285.221
2273.5000	285.253
2274.0000	285.258
2274.5000	285.241
2275.0000	285.232
2275.5000	285.26
2276.0000	285.259
2276.5000	285.297
2277.0000	285.33
2277.5000	285.362
2278.0000	285.349
2278.5000	285.392
2279.0000	285.428
2279.5000	285.429
2280.0000	285.451
2280.5000	285.415
2281.0000	285.404
2281.5000	285.355
2282.0000	285.337
2282.5000	285.35
2283.0000	285.355
2283.5000	285.414
2284.0000	285.414
2284.5000	285.41
2285.0000	285.421
2285.5000	285.443
2286.0000	285.452
2286.5000	285.492
2287.0000	285.49
2287.5000	285.44
2288.0000	285.435
2288.5000	285.339
2289.0000	285.359
2289.5000	285.358
2290.0000	285.398
2290.5000	285.475
2291.0000	285.456
2291.5000	285.475
2292.0000	285.489
2292.5000	285.494
2293.0000	285.494
2293.5000	285.529
2294.0000	285.541
2294.5000	285.492
2295.0000	285.511
2295.5000	285.458
2296.0000	285.475
2296.5000	285.506
2297.0000	285.441
2297.5000	285.473
2298.0000	285.456
2298.5000	285.442
2299.0000	285.451
2299.5000	285.455
2300.0000	285.452
2300.5000	285.425
2301.0000	285.46
2301.5000	285.503
2302.0000	285.45
2302.5000	285.512
2303.0000	285.568
2303.5000	285.537
2304.0000	285.579
2304.5000	285.538
2305.0000	285.523
2305.5000	285.495
2306.0000	285.48
2306.5000	285.516
2307.0000	285.436
2307.5000	285.397
2308.0000	285.454
2308.5000	285.439
2309.0000	285.471
2309.5000	285.546
2310.0000	285.508
2310.5000	285.536
2311.0000	285.572
2311.5000	285.541
2312.0000	285.575
2312.5000	285.572
2313.0000	285.59
2313.5000	285.611
2314.0000	285.56
2314.5000	285.608
2315.0000	285.657
2315.5000	285.61
2316.0000	285.62
2316.5000	285.581
2317.0000	285.534
2317.5000	285.574
2318.0000	285.627
2318.5000	285.58
2319.0000	285.612
2319.5000	285.631
2320.0000	285.582
2320.5000	285.609
2321.0000	285.609
2321.5000	285.632
2322.0000	285.65
2322.5000	285.723
2323.0000	285.671
2323.5000	285.654
2324.0000	285.672
2324.5000	285.637
2325.0000	285.634
2325.5000	285.659
2326.0000	285.639
2326.5000	285.632
2327.0000	285.666
2327.5000	285.619
2328.0000	285.626
2328.5000	285.615
2329.0000	285.645
2329.5000	285.667
2330.0000	285.676
2330.5000	285.739
2331.0000	285.796
2331.5000	285.758
2332.0000	285.796
2332.5000	285.725
2333.0000	285.652
2333.5000	285.715
2334.0000	285.698
2334.5000	285.707
2335.0000	285.699
2335.5000	285.716
2336.0000	285.742
2336.5000	285.772
2337.0000	285.77
2337.5000	285.737
2338.0000	285.733
2338.5000	285.786
2339.0000	285.806
2339.5000	285.841
2340.0000	285.841
2340.5000	285.789
2341.0000	285.768
2341.5000	285.753
2342.0000	285.732
2342.5000	285.745
2343.0000	285.783
2343.5000	285.843
2344.0000	285.864
2344.5000	285.836
2345.0000	285.838
2345.5000	285.772
2346.0000	285.797
2346.5000	285.942
2347.0000	285.929
2347.5000	285.964
2348.0000	285.965
2348.5000	285.912
2349.0000	285.904
2349.5000	285.893
2350.0000	285.867
2350.5000	285.807
2351.0000	285.856
2351.5000	285.89
2352.0000	285.858
2352.5000	285.831
2353.0000	285.775
2353.5000	285.733
2354.0000	285.772
2354.5000	285.829
2355.0000	285.844
2355.5000	285.864
2356.0000	285.911
2356.5000	285.857
2357.0000	285.907
2357.5000	285.929
2358.0000	285.879
2358.5000	285.947
2359.0000	285.944
2359.5000	285.897
2360.0000	285.85
2360.5000	285.8
2361.0000	285.742
2361.5000	285.767
2362.0000	285.76
2362.5000	285.823
2363.0000	285.844
2363.5000	285.819
2364.0000	285.918
2364.5000	285.878
2365.0000	285.891
2365.5000	285.911
2366.0000	285.89
2366.5000	285.904
2367.0000	285.913
2367.5000	285.935
2368.0000	285.945
2368.5000	285.933
2369.0000	285.941
2369.5000	285.962
2370.0000	285.977
2370.5000	285.999
2371.0000	286.024
2371.5000	286.004
2372.0000	285.98
2372.5000	285.964
2373.0000	285.94
2373.5000	285.94
2374.0000	285.932
2374.5000	285.984
2375.0000	286.031
2375.5000	286.116
2376.0000	286.122
2376.5000	286.151
2377.0000	286.133
2377.5000	286.042
2378.0000	286.081
2378.5000	285.991
2379.0000	285.919
2379.5000	285.957
2380.0000	285.958
2380.5000	286.017
2381.0000	286.057
2381.5000	286.054
2382.0000	286.049
2382.5000	285.993
2383.0000	286.041
2383.5000	286.067
2384.0000	286.111
2384.5000	286.158
2385.0000	286.189
2385.5000	286.132
2386.0000	286.055
2386.5000	286.131
2387.0000	286.063
2387.5000	286.095
2388.0000	286.081
2388.5000	286.001
2389.0000	286.017
2389.5000	286
2390.0000	286.006
2390.5000	286.041
2391.0000	286.002
2391.5000	286.06
2392.0000	286.092
2392.5000	286.08
2393.0000	286.158
2393.5000	286.105
2394.0000	286.11
2394.5000	286.109
2395.0000	286.077
2395.5000	286.115
2396.0000	286.112
2396.5000	286.1
2397.0000	286.096
2397.5000	286.085
2398.0000	286.121
2398.5000	286.166
2399.0000	286.152
2399.5000	286.166
2400.0000	286.148
2400.5000	286.171
2401.0000	286.204
2401.5000	286.247
2402.0000	286.231
2402.5000	286.173
2403.0000	286.188
2403.5000	286.078
2404.0000	286.047
2404.5000	286.072
2405.0000	286.104
2405.5000	286.174
2406.0000	286.199
2406.5000	286.16
2407.0000	286.112
2407.5000	286.143
2408.0000	286.171
2408.5000	286.23
2409.0000	286.228
2409.5000	286.233
2410.0000	286.253
2410.5000	286.231
2411.0000	286.222
2411.5000	286.173
2412.0000	286.14
2412.5000	286.136
2413.0000	286.21
2413.5000	286.238
2414.0000	286.271
2414.5000	286.27
2415.0000	286.179
2415.5000	286.172
2416.0000	286.116
2416.5000	286.134
2417.0000	286.207
2417.5000	286.197
2418.0000	286.245
2418.5000	286.278
2419.0000	286.226
2419.5000	286.273
2420.0000	286.307
2420.5000	286.253
2421.0000	286.299
2421.5000	286.279
2422.0000	286.223
2422.5000	286.248
2423.0000	286.227
2423.5000	286.204
2424.0000	286.27
2424.5000	286.228
2425.0000	286.233
2425.5000	286.274
2426.0000	286.214
2426.5000	286.236
2427.0000	286.244
2427.5000	286.193
2428.0000	286.214
2428.5000	286.257
2429.0000	286.291
2429.5000	286.358
2430.0000	286.395
2430.5000	286.374
2431.0000	286.355
2431.5000	286.383
2432.0000	286.336
2432.5000	286.327
2433.0000	286.331
2433.5000	286.288
2434.0000	286.331
2434.5000	286.357
2435.0000	286.369
2435.5000	286.391
2436.0000	286.366
2436.5000	286.369
2437.0000	286.35
2437.5000	286.346
2438.0000	286.402
2438.5000	286.355
2439.0000	286.349
2439.5000	286.326
2440.0000	286.323
2440.5000	286.342
2441.0000	286.347
2441.5000	286.314
2442.0000	286.274
2442.5000	286.312
2443.0000	286.355
2443.5000	286.427
2444.0000	286.41
2444.5000	286.343
2445.0000	286.331
2445.5000	286.335
2446.0000	286.408
2446.5000	286.493
2447.0000	286.484
2447.5000	286.422
2448.0000	286.428
2448.5000	286.439
2449.0000	286.434
2449.5000	286.46
2450.0000	286.427
2450.5000	286.411
2451.0000	286.426
2451.5000	286.403
2452.0000	286.34
2452.5000	286.331
2453.0000	286.308
2453.5000	286.356
2454.0000	286.433
2454.5000	286.399
2455.0000	286.374
2455.5000	286.404
2456.0000	286.364
2456.5000	286.411
2457.0000	286.412
2457.5000	286.406
2458.0000	286.439
2458.5000	286.419
2459.0000	286.444
2459.5000	286.425
2460.0000	286.371
2460.5000	286.39
2461.0000	286.416
2461.5000	286.384
2462.0000	286.439
2462.5000	286.443
2463.0000	286.418
2463.5000	286.402
2464.0000	286.436
2464.5000	286.48
2465.0000	286.522
2465.5000	286.56
2466.0000	286.528
2466.5000	286.468
2467.0000	286.479
2467.5000	286.528
2468.0000	286.561
2468.5000	286.603
2469.0000	286.605
2469.5000	286.591
2470.0000	286.604
2470.5000	286.613
2471.0000	286.561
2471.5000	286.573
2472.0000	286.573
2472.5000	286.548
2473.0000	286.587
2473.5000	286.589
2474.0000	286.534
2474.5000	286.537
2475.0000	286.581
2475.5000	286.565
2476.0000	286.624
2476.5000	286.645
2477.0000	286.554
2477.5000	286.56
2478.0000	286.523
2478.5000	286.506
2479.0000	286.57
2479.5000	286.547
2480.0000	286.514
2480.5000	286.533
2481.0000	286.528
2481.5000	286.547
2482.0000	286.582
2482.5000	286.564
2483.0000	286.561
2483.5000	286.544
2484.0000	286.57
2484.5000	286.596
2485.0000	286.535
2485.5000	286.528
2486.0000	286.459
2486.5000	286.411
2487.0000	286.529
2487.5000	286.532
2488.0000	286.548
2488.5000	286.599
2489.0000	286.571
2489.5000	286.547
2490.0000	286.65
2490.5000	286.647
2491.0000	286.625
2491.5000	286.658
2492.0000	286.607
2492.5000	286.573
2493.0000	286.538
2493.5000	286.568
2494.0000	286.548
2494.5000	286.555
2495.0000	286.569
2495.5000	286.511
2496.0000	286.535
2496.5000	286.492
2497.0000	286.527
2497.5000	286.616
2498.0000	286.588
2498.5000	286.681
2499.0000	286.68
2499.5000	286.617
2500.0000	286.607
2500.5000	286.604
2501.0000	286.62
2501.5000	286.657
2502.0000	286.683
2502.5000	286.735
2503.0000	286.667
2503.5000	286.661
2504.0000	286.696
2504.5000	286.579
2505.0000	286.631
2505.5000	286.682
2506.0000	286.628
2506.5000	286.66
2507.0000	286.657
2507.5000	286.602
2508.0000	286.626
2508.5000	286.669
2509.0000	286.673
2509.5000	286.673
2510.0000	286.692
2510.5000	286.731
2511.0000	286.726
2511.5000	286.741
2512.0000	286.744
2512.5000	286.648
2513.0000	286.661
2513.5000	286.652
2514.0000	286.689
2514.5000	286.732
2515.0000	286.692
2515.5000	286.675
2516.0000	286.573
2516.5000	286.605
2517.0000	286.648
2517.5000	286.665
2518.0000	286.682
2518.5000	286.628
2519.0000	286.638
2519.5000	286.626
2520.0000	286.688
2520.5000	286.743
2521.0000	286.757
2521.5000	286.792
2522.0000	286.811
2522.5000	286.809
2523.0000	286.784
2523.5000	286.844
2524.0000	286.77
2524.5000	286.728
2525.0000	286.725
2525.5000	286.68
2526.0000	286.754
2526.5000	286.785
2527.0000	286.751
2527.5000	286.78
2528.0000	286.727
2528.5000	286.715
2529.0000	286.795
2529.5000	286.784
2530.0000	286.808
2530.5000	286.837
2531.0000	286.761
2531.5000	286.672
2532.0000	286.705
2532.5000	286.671
2533.0000	286.736
2533.5000	286.806
2534.0000	286.766
2534.5000	286.784
2535.0000	286.754
2535.5000	286.681
2536.0000	286.663
2536.5000	286.694
2537.0000	286.739
2537.5000	286.8
2538.0000	286.867
2538.5000	286.822
2539.0000	286.775
2539.5000	286.793
2540.0000	286.767
2540.5000	286.776
2541.0000	286.808
2541.5000	286.851
2542.0000	286.78
2542.5000	286.741
2543.0000	286.766
2543.5000	286.73
2544.0000	286.759
2544.5000	286.804
2545.0000	286.787
2545.5000	286.767
2546.0000	286.771
2546.5000	286.774
2547.0000	286.725
2547.5000	286.681
2548.0000	286.734
2548.5000	286.708
2549.0000	286.74
2549.5000	286.79
2550.0000	286.809
2550.5000	286.816
2551.0000	286.841
2551.5000	286.908
2552.0000	286.858
2552.5000	286.864
2553.0000	286.902
2553.5000	286.874
2554.0000	286.914
2554.5000	287.011
2555.0000	286.978
2555.5000	287.013
2556.0000	287.02
2556.5000	286.965
2557.0000	286.937
2557.5000	286.895
2558.0000	286.873
2558.5000	286.827
2559.0000	286.83
2559.5000	286.827
2560.0000	286.851
2560.5000	286.892
2561.0000	286.935
2561.5000	286.955
2562.0000	286.917
2562.5000	286.965
2563.0000	286.973
2563.5000	286.949
2564.0000	286.974
2564.5000	286.906
2565.0000	286.882
2565.5000	286.884
2566.0000	286.869
2566.5000	286.869
2567.0000	286.871
2567.5000	286.876
2568.0000	286.871
2568.5000	286.87
2569.0000	286.831
2569.5000	286.834
2570.0000	286.866
2570.5000	286.862
2571.0000	286.914
2571.5000	286.912
2572.0000	286.897
2572.5000	286.967
2573.0000	286.988
2573.5000	286.997
2574.0000	287.028
2574.5000	287.016
2575.0000	286.988
2575.5000	286.983
2576.0000	286.921
2576.5000	286.854
2577.0000	286.852
2577.5000	286.863
2578.0000	286.96
2578.5000	286.969
2579.0000	286.961
2579.5000	286.969
2580.0000	286.899
2580.5000	286.929
2581.0000	286.994
2581.5000	286.947
2582.0000	286.97
2582.5000	286.984
2583.0000	286.967
2583.5000	286.981
2584.0000	287.002
2584.5000	287.007
2585.0000	287.03
2585.5000	287.094
2586.0000	287.065
2586.5000	287.083
2587.0000	287.019
2587.5000	286.97
2588.0000	286.946
2588.5000	286.962
2589.0000	286.99
2589.5000	286.974
2590.0000	287.065
2590.5000	287.051
2591.0000	287
2591.5000	287.059
2592.0000	287.07
2592.5000	287.065
2593.0000	287.14
2593.5000	287.103
2594.0000	287.05
2594.5000	287.038
2595.0000	287.022
2595.5000	287.003
2596.0000	287.006
2596.5000	287.01
2597.0000	287.01
2597.5000	287.058
2598.0000	287.077
2598.5000	287.077
2599.0000	287.082
2599.5000	287.129
2600.0000	287.123
2600.5000	287.124
2601.0000	287.132
2601.5000	287.076
2602.0000	287.093
2602.5000	287.124
2603.0000	287.09
2603.5000	287.159
2604.0000	287.115
2604.5000	287.09
2605.0000	287.108
2605.5000	287.072
2606.0000	287.067
2606.5000	287.068
2607.0000	287.089
2607.5000	287.045
2608.0000	287.014
2608.5000	287.057
2609.0000	287.043
2609.5000	287.056
2610.0000	287.12
2610.5000	287.097
2611.0000	287.047
2611.5000	287.038
2612.0000	287.087
2612.5000	287.036
2613.0000	287.086
2613.5000	287.123
2614.0000	287.055
2614.5000	287.11
2615.0000	287.156
2615.5000	287.119
2616.0000	287.112
2616.5000	287.09
2617.0000	287.08
2617.5000	287.137
2618.0000	287.131
2618.5000	287.086
2619.0000	287.019
2619.5000	286.991
2620.0000	287.06
2620.5000	287.098
2621.0000	287.167
2621.5000	287.18
2622.0000	287.149
2622.5000	287.168
2623.0000	287.126
2623.5000	287.141
2624.0000	287.118
2624.5000	287.089
2625.0000	287.113
2625.5000	287.041
2626.0000	287.095
2626.5000	287.117
2627.0000	287.131
2627.5000	287.221
2628.0000	287.213
2628.5000	287.19
2629.0000	287.133
2629.5000	287.06
2630.0000	286.995
2630.5000	287.003
2631.0000	287.023
2631.5000	287.071
2632.0000	287.148
2632.5000	287.218
2633.0000	287.244
2633.5000	287.216
2634.0000	287.233
2634.5000	287.183
2635.0000	287.193
2635.5000	287.206
2636.0000	287.176
2636.5000	287.189
2637.0000	287.151
2637.5000	287.165
2638.0000	287.188
2638.5000	287.206
2639.0000	287.198
2639.5000	287.213
2640.0000	287.193
2640.5000	287.123
2641.0000	287.154
2641.5000	287.163
2642.0000	287.112
2642.5000	287.171
2643.0000	287.188
2643.5000	287.093
2644.0000	287.216
2644.5000	287.196
2645.0000	287.159
2645.5000	287.216
2646.0000	287.193
2646.5000	287.178
2647.0000	287.202
2647.5000	287.208
2648.0000	287.154
2648.5000	287.167
2649.0000	287.21
2649.5000	287.22
2650.0000	287.218
2650.5000	287.196
2651.0000	287.214
2651.5000	287.201
2652.0000	287.198
2652.5000	287.263
2653.0000	287.209
2653.5000	287.265
2654.0000	287.284
2654.5000	287.239
2655.0000	287.28
2655.5000	287.21
2656.0000	287.187
2656.5000	287.216
2657.0000	287.218
2657.5000	287.256
2658.0000	287.306
2658.5000	287.286
2659.0000	287.269
2659.5000	287.329
2660.0000	287.316
2660.5000	287.31
2661.0000	287.304
2661.5000	287.207
2662.0000	287.162
2662.5000	287.146
2663.0000	287.18
2663.5000	287.208
2664.0000	287.254
2664.5000	287.292
2665.0000	287.28
2665.5000	287.316
2666.0000	287.271
2666.5000	287.297
2667.0000	287.321
2667.5000	287.299
2668.0000	287.367
2668.5000	287.388
2669.0000	287.303
2669.5000	287.339
2670.0000	287.345
2670.5000	287.299
2671.0000	287.305
2671.5000	287.257
2672.0000	287.188
2672.5000	287.215
2673.0000	287.262
2673.5000	287.289
2674.0000	287.328
2674.5000	287.317
2675.0000	287.328
2675.5000	287.337
2676.0000	287.401
2676.5000	287.37
2677.0000	287.313
2677.5000	287.282
2678.0000	287.173
2678.5000	287.237
2679.0000	287.234
2679.5000	287.258
2680.0000	287.303
2680.5000	287.246
2681.0000	287.294
2681.5000	287.252
2682.0000	287.24
2682.5000	287.261
2683.0000	287.259
2683.5000	287.277
2684.0000	287.309
2684.5000	287.313
2685.0000	287.344
2685.5000	287.371
2686.0000	287.398
2686.5000	287.394
2687.0000	287.335
2687.5000	287.318
2688.0000	287.245
2688.5000	287.277
2689.0000	287.294
2689.5000	287.271
2690.0000	287.368
2690.5000	287.322
2691.0000	287.333
2691.5000	287.36
2692.0000	287.351
2692.5000	287.395
2693.0000	287.411
2693.5000	287.479
2694.0000	287.425
2694.5000	287.43
2695.0000	287.471
2695.5000	287.398
2696.0000	287.386
2696.5000	287.415
2697.0000	287.381
2697.5000	287.412
2698.0000	287.481
2698.5000	287.463
2699.0000	287.531
2699.5000	287.612
2700.0000	287.593
2700.5000	287.609
2701.0000	287.542
2701.5000	287.426
2702.0000	287.483
2702.5000	287.446
2703.0000	287.449
2703.5000	287.491
2704.0000	287.463
2704.5000	287.437
2705.0000	287.411
2705.5000	287.408
2706.0000	287.395
2706.5000	287.428
2707.0000	287.501
2707.5000	287.539
2708.0000	287.544
2708.5000	287.552
2709.0000	287.505
2709.5000	287.488
2710.0000	287.414
2710.5000	287.407
2711.0000	287.44
2711.5000	287.425
2712.0000	287.457
2712.5000	287.44
2713.0000	287.397
2713.5000	287.438
2714.0000	287.451
2714.5000	287.46
2715.0000	287.468
2715.5000	287.438
2716.0000	287.438
2716.5000	287.474
2717.0000	287.512
2717.5000	287.465
2718.0000	287.51
2718.5000	287.54
2719.0000	287.504
2719.5000	287.597
2720.0000	287.531
2720.5000	287.491
2721.0000	287.516
2721.5000	287.456
2722.0000	287.47
2722.5000	287.464
2723.0000	287.456
2723.5000	287.44
2724.0000	287.447
2724.5000	287.458
2725.0000	287.432
2725.5000	287.438
2726.0000	287.399
2726.5000	287.338
2727.0000	287.341
2727.5000	287.364
2728.0000	287.388
2728.5000	287.419
2729.0000	287.459
2729.5000	287.482
2730.0000	287.486
2730.5000	287.49
2731.0000	287.457
2731.5000	287.43
2732.0000	287.428
2732.5000	287.447
2733.0000	287.481
2733.5000	287.494
2734.0000	287.548
2734.5000	287.592
2735.0000	287.562
2735.5000	287.532
2736.0000	287.495
2736.5000	287.413
2737.0000	287.429
2737.5000	287.481
2738.0000	287.497
2738.5000	287.512
2739.0000	287.489
2739.5000	287.458
2740.0000	287.404
2740.5000	287.459
2741.0000	287.47
2741.5000	287.527
2742.0000	287.546
2742.5000	287.541
2743.0000	287.58
2743.5000	287.516
2744.0000	287.539
2744.5000	287.552
2745.0000	287.542
2745.5000	287.484
2746.0000	287.471
2746.5000	287.482
2747.0000	287.449
2747.5000	287.485
2748.0000	287.473
2748.5000	287.406
2749.0000	287.456
2749.5000	287.477
2750.0000	287.501
2750.5000	287.487
2751.0000	287.47
2751.5000	287.505
2752.0000	287.484
2752.5000	287.579
2753.0000	287.577
2753.5000	287.544
2754.0000	287.567
2754.5000	287.548
2755.0000	287.548
2755.5000	287.531
2756.0000	287.535
2756.5000	287.487
2757.0000	287.486
2757.5000	287.559
2758.0000	287.569
2758.5000	287.597
2759.0000	287.571
2759.5000	287.583
2760.0000	287.579
2760.5000	287.567
2761.0000	287.565
2761.5000	287.568
2762.0000	287.596
2762.5000	287.549
2763.0000	287.561
2763.5000	287.57
2764.0000	287.52
2764.5000	287.567
2765.0000	287.603
2765.5000	287.578
2766.0000	287.651
2766.5000	287.663
2767.0000	287.677
2767.5000	287.67
2768.0000	287.628
2768.5000	287.598
2769.0000	287.558
2769.5000	287.551
2770.0000	287.594
2770.5000	287.647
2771.0000	287.673
2771.5000	287.677
2772.0000	287.692
2772.5000	287.674
2773.0000	287.647
2773.5000	287.62
2774.0000	287.581
2774.5000	287.582
2775.0000	287.594
2775.5000	287.603
2776.0000	287.61
2776.5000	287.61
2777.0000	287.592
2777.5000	287.631
2778.0000	287.623
2778.5000	287.601
2779.0000	287.643
2779.5000	287.619
2780.0000	287.594
2780.5000	287.622
2781.0000	287.623
2781.5000	287.614
2782.0000	287.615
2782.5000	287.636
2783.0000	287.603
2783.5000	287.623
2784.0000	287.682
2784.5000	287.643
2785.0000	287.66
2785.5000	287.682
2786.0000	287.633
2786.5000	287.637
2787.0000	287.684
2787.5000	287.616
2788.0000	287.638
2788.5000	287.692
2789.0000	287.666
2789.5000	287.709
2790.0000	287.732
2790.5000	287.773
2791.0000	287.719
2791.5000	287.714
2792.0000	287.674
2792.5000	287.609
2793.0000	287.657
2793.5000	287.667
2794.0000	287.722
2794.5000	287.716
2795.0000	287.723
2795.5000	287.72
2796.0000	287.646
2796.5000	287.701
2797.0000	287.687
2797.5000	287.657
2798.0000	287.709
2798.5000	287.685
2799.0000	287.7
2799.5000	287.739
2800.0000	287.764
2800.5000	287.763
2801.0000	287.785
2801.5000	287.799
2802.0000	287.762
2802.5000	287.781
2803.0000	287.755
2803.5000	287.701
2804.0000	287.725
2804.5000	287.712
2805.0000	287.747
2805.5000	287.765
2806.0000	287.757
2806.5000	287.722
2807.0000	287.679
2807.5000	287.662
2808.0000	287.631
2808.5000	287.627
2809.0000	287.607
2809.5000	287.641
2810.0000	287.676
2810.5000	287.668
2811.0000	287.655
2811.5000	287.658
2812.0000	287.642
2812.5000	287.676
2813.0000	287.743
2813.5000	287.776
2814.0000	287.755
2814.5000	287.746
2815.0000	287.763
2815.5000	287.753
2816.0000	287.76
2816.5000	287.764
2817.0000	287.733
2817.5000	287.739
2818.0000	287.808
2818.5000	287.826
2819.0000	287.846
2819.5000	287.849
2820.0000	287.783
2820.5000	287.791
2821.0000	287.752
2821.5000	287.748
2822.0000	287.726
2822.5000	287.756
2823.0000	287.806
2823.5000	287.831
2824.0000	287.903
2824.5000	287.881
2825.0000	287.84
2825.5000	287.808
2826.0000	287.824
2826.5000	287.86
2827.0000	287.851
2827.5000	287.904
2828.0000	287.836
2828.5000	287.802
2829.0000	287.851
2829.5000	287.763
2830.0000	287.728
2830.5000	287.74
2831.0000	287.747
2831.5000	287.866
2832.0000	287.956
2832.5000	287.958
2833.0000	287.912
2833.5000	287.809
2834.0000	287.784
2834.5000	287.748
2835.0000	287.846
2835.5000	287.826
2836.0000	287.81
2836.5000	287.803
2837.0000	287.721
2837.5000	287.758
2838.0000	287.743
2838.5000	287.778
2839.0000	287.822
2839.5000	287.835
2840.0000	287.831
2840.5000	287.875
2841.0000	287.863
2841.5000	287.888
2842.0000	287.885
2842.5000	287.799
2843.0000	287.765
2843.5000	287.739
2844.0000	287.786
2844.5000	287.839
2845.0000	287.877
2845.5000	287.865
2846.0000	287.855
2846.5000	287.856
2847.0000	287.815
2847.5000	287.834
2848.0000	287.851
2848.5000	287.807
2849.0000	287.83
2849.5000	287.843
2850.0000	287.812
2850.5000	287.838
2851.0000	287.818
2851.5000	287.802
2852.0000	287.794
2852.5000	287.77
2853.0000	287.821
2853.5000	287.805
2854.0000	287.824
2854.5000	287.888
2855.0000	287.853
2855.5000	287.894
2856.0000	287.886
2856.5000	287.831
2857.0000	287.881
2857.5000	287.921
2858.0000	287.91
2858.5000	287.925
2859.0000	287.912
2859.5000	287.839
2860.0000	287.887
2860.5000	287.879
2861.0000	287.823
2861.5000	287.851
2862.0000	287.804
2862.5000	287.828
2863.0000	287.857
2863.5000	287.831
2864.0000	287.872
2864.5000	287.862
2865.0000	287.858
2865.5000	287.873
2866.0000	287.823
2866.5000	287.766
2867.0000	287.775
2867.5000	287.775
2868.0000	287.834
2868.5000	287.907
2869.0000	287.906
2869.5000	287.894
2870.0000	287.877
2870.5000	287.789
2871.0000	287.815
2871.5000	287.808
2872.0000	287.822
2872.5000	287.893
2873.0000	287.794
2873.5000	287.816
2874.0000	287.777
2874.5000	287.768
2875.0000	287.802
2875.5000	287.759
2876.0000	287.828
2876.5000	287.846
2877.0000	287.877
2877.5000	287.989
2878.0000	287.981
2878.5000	288.009
2879.0000	288.005
2879.5000	287.966
2880.0000	287.955
2880.5000	287.89
2881.0000	287.912
2881.5000	287.888
2882.0000	287.891
2882.5000	287.915
2883.0000	287.892
2883.5000	287.95
2884.0000	287.918
2884.5000	287.905
2885.0000	287.964
2885.5000	287.987
2886.0000	288.022
2886.5000	288.074
2887.0000	288.016
2887.5000	287.94
2888.0000	287.945
2888.5000	287.919
2889.0000	287.935
2889.5000	287.948
2890.0000	287.872
2890.5000	287.916
2891.0000	287.947
2891.5000	287.911
2892.0000	287.97
2892.5000	287.903
2893.0000	287.863
2893.5000	287.943
2894.0000	287.894
2894.5000	287.912
2895.0000	287.897
2895.5000	287.834
2896.0000	287.867
2896.5000	287.825
2897.0000	287.904
2897.5000	287.895
2898.0000	287.877
2898.5000	287.941
2899.0000	287.897
2899.5000	287.899
2900.0000	287.954
2900.5000	287.921
2901.0000	287.88
2901.5000	287.971
2902.0000	287.95
2902.5000	287.991
2903.0000	287.985
2903.5000	287.931
2904.0000	287.932
2904.5000	287.927
2905.0000	287.933
2905.5000	287.92
2906.0000	287.931
2906.5000	287.924
2907.0000	287.953
2907.5000	287.958
2908.0000	287.923
2908.5000	287.872
2909.0000	287.874
2909.5000	287.858
2910.0000	287.893
2910.5000	287.892
2911.0000	287.893
2911.5000	287.859
2912.0000	287.832
2912.5000	287.898
2913.0000	287.925
2913.5000	287.946
2914.0000	287.987
2914.5000	287.981
2915.0000	287.953
2915.5000	287.94
2916.0000	287.898
2916.5000	287.857
2917.0000	287.876
2917.5000	287.887
2918.0000	287.909
2918.5000	287.936
2919.0000	287.89
2919.5000	287.908
2920.0000	287.947
2920.5000	287.979
2921.0000	287.984
2921.5000	288.048
2922.0000	288.024
2922.5000	288.015
2923.0000	288.038
2923.5000	287.992
2924.0000	287.949
2924.5000	287.959
2925.0000	288.002
2925.5000	287.975
2926.0000	288.01
2926.5000	287.996
2927.0000	287.988
2927.5000	288.022
2928.0000	288.038
2928.5000	288.032
2929.0000	288.004
2929.5000	287.99
2930.0000	287.937
2930.5000	287.929
2931.0000	287.937
2931.5000	287.923
2932.0000	287.958
2932.5000	287.943
2933.0000	287.955
2933.5000	287.958
2934.0000	287.97
2934.5000	288.051
2935.0000	288.04
2935.5000	288.059
2936.0000	288.055
2936.5000	288.018
2937.0000	288.071
2937.5000	288.077
2938.0000	288.039
2938.5000	288.06
2939.0000	288.027
2939.5000	288.034
2940.0000	288.087
2940.5000	288.065
2941.0000	288.068
2941.5000	288.086
2942.0000	288.066
2942.5000	288.009
2943.0000	287.936
2943.5000	287.894
2944.0000	287.904
2944.5000	287.944
2945.0000	288.05
2945.5000	288.11
2946.0000	288.148
2946.5000	288.125
2947.0000	288.041
2947.5000	288.014
2948.0000	287.951
2948.5000	287.972
2949.0000	287.984
2949.5000	288.004
2950.0000	288.002
2950.5000	288.005
2951.0000	288.021
2951.5000	287.955
2952.0000	287.952
2952.5000	287.943
2953.0000	287.938
2953.5000	287.962
2954.0000	287.94
2954.5000	287.98
2955.0000	288
2955.5000	288.042
2956.0000	288.109
2956.5000	288.12
2957.0000	288.155
2957.5000	288.065
2958.0000	288.065
2958.5000	287.973
2959.0000	287.898
2959.5000	287.95
2960.0000	287.93
2960.5000	287.944
2961.0000	287.976
2961.5000	288.01
2962.0000	287.986
2962.5000	288.019
2963.0000	288.047
2963.5000	287.989
2964.0000	288.008
2964.5000	288.021
2965.0000	288.033
2965.5000	288.09
2966.0000	288.13
2966.5000	288.086
2967.0000	287.997
2967.5000	288.003
2968.0000	287.973
2968.5000	288.015
2969.0000	288.023
2969.5000	288.019
2970.0000	288.016
2970.5000	287.994
2971.0000	288.011
2971.5000	287.943
2972.0000	287.966
2972.5000	287.954
2973.0000	288.003
2973.5000	288.012
2974.0000	287.967
2974.5000	288.014
2975.0000	287.963
2975.5000	288.02
2976.0000	288.141
2976.5000	288.168
2977.0000	288.237
2977.5000	288.244
2978.0000	288.171
2978.5000	288.179
2979.0000	288.191
2979.5000	288.111
2980.0000	288.11
2980.5000	288.059
2981.0000	288.037
2981.5000	288.114
2982.0000	288.07
2982.5000	288.061
2983.0000	288.054
2983.5000	288.027
2984.0000	288.052
2984.5000	288.007
2985.0000	287.97
2985.5000	287.943
2986.0000	287.926
2986.5000	287.971
2987.0000	287.975
2987.5000	288.014
2988.0000	288.069
2988.5000	288.005
2989.0000	288.052
2989.5000	288.073
2990.0000	288.052
2990.5000	288.091
2991.0000	288.086
2991.5000	288.051
2992.0000	288.092
2992.5000	288.1
2993.0000	288.036
2993.5000	288.047
2994.0000	287.998
2994.5000	287.99
2995.0000	288.027
2995.5000	288.013
2996.0000	288.043
2996.5000	288.113
2997.0000	288.108
2997.5000	288.14
2998.0000	288.099
2998.5000	288.064
2999.0000	288.06
2999.5000	288.044
3000.0000	288.048
3000.5000	288.005
3001.0000	288.036
3001.5000	288.018
3002.0000	288.012
3002.5000	288.025
3003.0000	288.042
3003.5000	288.037
3004.0000	288.048
3004.5000	288.079
3005.0000	288.033
3005.5000	288.027
3006.0000	288.009
3006.5000	288.001
3007.0000	288.042
3007.5000	288.049
3008.0000	288.028
3008.5000	288.03
3009.0000	288.047
3009.5000	288.042
3010.0000	288.031
3010.5000	288.047
3011.0000	288.054
3011.5000	288.085
3012.0000	288.123
3012.5000	288.135
3013.0000	288.032
3013.5000	288.093
3014.0000	288.096
3014.5000	288.042
3015.0000	288.135
3015.5000	288.034
3016.0000	288.054
3016.5000	288.083
3017.0000	288.055
3017.5000	288.043
3018.0000	288.036
3018.5000	288.013
3019.0000	287.939
3019.5000	287.998
3020.0000	287.991
3020.5000	288.034
3021.0000	288.082
3021.5000	288.089
3022.0000	288.146
3022.5000	288.109
3023.0000	288.145
3023.5000	288.085
3024.0000	288.039
3024.5000	288.058
3025.0000	288.042
3025.5000	288.059
3026.0000	288.033
3026.5000	288.018
3027.0000	287.982
3027.5000	287.992
3028.0000	287.996
3028.5000	287.966
3029.0000	287.972
3029.5000	287.992
3030.0000	287.965
3030.5000	288.028
3031.0000	288.014
3031.5000	288.001
3032.0000	288.029
3032.5000	288.018
3033.0000	288.084
3033.5000	288.062
3034.0000	288.019
3034.5000	287.957
3035.0000	287.941
3035.5000	287.939
3036.0000	287.991
3036.5000	288.022
3037.0000	287.937
3037.5000	287.946
3038.0000	287.913
3038.5000	287.92
3039.0000	287.962
3039.5000	287.942
3040.0000	287.957
3040.5000	287.97
3041.0000	287.984
3041.5000	288.007
3042.0000	288.053
3042.5000	288.044
3043.0000	288.07
3043.5000	288.062
3044.0000	288.051
3044.5000	288.041
3045.0000	288.046
3045.5000	288.087
3046.0000	288.047
3046.5000	288.036
3047.0000	288.003
3047.5000	287.963
3048.0000	288.013
3048.5000	288.054
3049.0000	288.023
3049.5000	288.089
3050.0000	288.033
3050.5000	287.997
3051.0000	288.051
3051.5000	288.004
3052.0000	287.997
3052.5000	287.983
3053.0000	288.005
3053.5000	288.038
3054.0000	288.058
3054.5000	288.052
3055.0000	288.007
3055.5000	287.901
3056.0000	287.923
3056.5000	287.974
3057.0000	287.965
3057.5000	288.03
3058.0000	288.026
3058.5000	287.952
3059.0000	288.032
3059.5000	288.018
3060.0000	288.034
3060.5000	288.103
3061.0000	288.076
3061.5000	288.104
3062.0000	288.087
3062.5000	288.065
3063.0000	287.973
3063.5000	287.931
3064.0000	287.952
3064.5000	287.9
3065.0000	287.926
3065.5000	287.962
3066.0000	287.914
3066.5000	288.033
3067.0000	288.022
3067.5000	288.022
3068.0000	288.079
3068.5000	288.025
3069.0000	288.022
3069.5000	287.989
3070.0000	287.922
3070.5000	287.917
3071.0000	287.936
3071.5000	287.984
3072.0000	287.997
3072.5000	288.047
3073.0000	288.077
3073.5000	288.087
3074.0000	288.109
3074.5000	288.137
3075.0000	288.105
3075.5000	288.074
3076.0000	288.066
3076.5000	288.027
3077.0000	288.028
3077.5000	288.009
3078.0000	288.051
3078.5000	288.02
3079.0000	288.083
3079.5000	288.11
3080.0000	288.037
3080.5000	288.083
3081.0000	288.091
3081.5000	288.091
3082.0000	288.116
3082.5000	288.096
3083.0000	288.095
3083.5000	288.07
3084.0000	288.084
3084.5000	288.053
3085.0000	287.975
3085.5000	288.036
3086.0000	288.036
3086.5000	288.082
3087.0000	288.074
3087.5000	288.039
3088.0000	288.056
3088.5000	288.007
3089.0000	288.082
3089.5000	288.057
3090.0000	288.039
3090.5000	288.075
3091.0000	288.018
3091.5000	288.028
3092.0000	288.019
3092.5000	288.021
3093.0000	288.069
3093.5000	288.06
3094.0000	288.079
3094.5000	288.04
3095.0000	288.019
3095.5000	287.997
3096.0000	287.979
3096.5000	287.983
3097.0000	287.926
3097.5000	287.976
3098.0000	287.967
3098.5000	287.978
3099.0000	288.03
3099.5000	287.989
3100.0000	288.042
3100.5000	288.083
3101.0000	287.99
3101.5000	288.063
3102.0000	288.02
3102.5000	288.015
3103.0000	288.079
3103.5000	287.989
3104.0000	288.011
3104.5000	288.016
3105.0000	288.088
3105.5000	288.154
3106.0000	288.093
3106.5000	288.054
3107.0000	288.063
3107.5000	288.057
3108.0000	288.123
3108.5000	288.151
3109.0000	288.064
3109.5000	288.061
3110.0000	287.986
3110.5000	287.953
3111.0000	287.987
3111.5000	287.994
3112.0000	287.999
3112.5000	288.052
3113.0000	288.001
3113.5000	287.992
3114.0000	288.045
3114.5000	287.979
3115.0000	288.009
3115.5000	287.964
3116.0000	288.005
3116.5000	288.002
3117.0000	288.061
3117.5000	288.129
3118.0000	288.11
3118.5000	288.08
3119.0000	288.018
3119.5000	288.019
3120.0000	287.924
3120.5000	287.986
3121.0000	288.011
3121.5000	287.941
3122.0000	287.987
3122.5000	288.017
3123.0000	287.977
3123.5000	288.056
3124.0000	288.09
3124.5000	288.064
3125.0000	288.119
3125.5000	288.115
3126.0000	288.149
3126.5000	288.12
3127.0000	288.094
3127.5000	288.012
3128.0000	287.975
3128.5000	287.972
3129.0000	288.044
3129.5000	288.113
3130.0000	288.122
3130.5000	288.134
3131.0000	288.108
3131.5000	288.086
3132.0000	288.073
3132.5000	288.107
3133.0000	288.081
3133.5000	288.175
3134.0000	288.177
3134.5000	288.14
3135.0000	288.15
3135.5000	287.996
3136.0000	288.004
3136.5000	288.073
3137.0000	288.053
3137.5000	288.163
3138.0000	288.176
3138.5000	288.089
3139.0000	288.053
3139.5000	287.991
3140.0000	287.976
3140.5000	287.994
3141.0000	288.059
3141.5000	288.103
3142.0000	288.068
3142.5000	288.038
3143.0000	288.049
3143.5000	288.033
3144.0000	288.099
3144.5000	288.124
3145.0000	288.102
3145.5000	288.099
3146.0000	288.074
3146.5000	288.063
3147.0000	288.05
3147.5000	288.018
3148.0000	288.021
3148.5000	288.064
3149.0000	288.039
3149.5000	288.087
3150.0000	288.034
3150.5000	288.034
3151.0000	288.108
3151.5000	288.096
3152.0000	288.132
3152.5000	288.131
3153.0000	288.08
3153.5000	288.12
3154.0000	288.086
3154.5000	288.1
3155.0000	288.067
3155.5000	287.98
3156.0000	288.064
3156.5000	288.063
3157.0000	288.086
3157.5000	288.156
3158.0000	288.053
3158.5000	288.05
3159.0000	288.038
3159.5000	288.009
3160.0000	288.088
3160.5000	288.094
3161.0000	288.085
3161.5000	288.105
3162.0000	288.086
3162.5000	288.064
3163.0000	288.104
3163.5000	288.057
3164.0000	288.059
3164.5000	288.066
3165.0000	288.036
3165.5000	288.032
3166.0000	287.968
3166.5000	287.965
3167.0000	287.997
3167.5000	287.984
3168.0000	288.029
3168.5000	288.027
3169.0000	288.087
3169.5000	288.101
3170.0000	288.138
3170.5000	288.146
3171.0000	288.073
3171.5000	288.122
3172.0000	288.129
3172.5000	288.085
3173.0000	288.072
3173.5000	288.05
3174.0000	288.029
3174.5000	288.083
3175.0000	288.043
3175.5000	288.02
3176.0000	288.029
3176.5000	287.999
3177.0000	288.068
3177.5000	288.028
3178.0000	287.98
3178.5000	287.992
3179.0000	288.008
3179.5000	288.045
3180.0000	288.053
3180.5000	287.997
3181.0000	287.971
3181.5000	287.979
3182.0000	287.973
3182.5000	288.051
3183.0000	287.981
3183.5000	287.994
3184.0000	288.038
3184.5000	287.989
3185.0000	288.055
3185.5000	288.078
3186.0000	288.083
3186.5000	288.083
3187.0000	288.082
3187.5000	288.065
3188.0000	288.025
3188.5000	288.087
3189.0000	288.108
3189.5000	288.123
3190.0000	288.151
3190.5000	288.172
3191.0000	288.194
3191.5000	288.168
3192.0000	288.126
3192.5000	288.076
3193.0000	288.054
3193.5000	288.069
3194.0000	288.082
3194.5000	288.031
3195.0000	287.948
3195.5000	287.947
3196.0000	287.985
3196.5000	288.018
3197.0000	288.055
3197.5000	288.023
3198.0000	287.999
3198.5000	288.036
3199.0000	288.05
3199.5000	288.09
3200.0000	288.07
3200.5000	288.1
3201.0000	288.11
3201.5000	288.103
3202.0000	288.157
3202.5000	288.024
3203.0000	288.043
3203.5000	288.022
3204.0000	287.961
3204.5000	288.054
3205.0000	288.043
3205.5000	288.078
3206.0000	288.079
3206.5000	288.071
3207.0000	288.015
3207.5000	288.007
3208.0000	288.001
3208.5000	287.962
3209.0000	288.03
3209.5000	287.985
3210.0000	288
3210.5000	287.987
3211.0000	287.964
3211.5000	287.967
3212.0000	287.949
3212.5000	287.997
3213.0000	288.02
3213.5000	288.056
3214.0000	288.125
3214.5000	288.13
3215.0000	288.139
3215.5000	288.162
3216.0000	288.098
3216.5000	288.102
3217.0000	288.115
3217.5000	288.146
3218.0000	288.222
3218.5000	288.214
3219.0000	288.172
3219.5000	288.154
3220.0000	288.105
3220.5000	288.058
3221.0000	288.06
3221.5000	288.019
3222.0000	288.035
3222.5000	288.103
3223.0000	288.111
3223.5000	288.098
3224.0000	288.162
3224.5000	288.123
3225.0000	288.162
3225.5000	288.129
3226.0000	288.038
3226.5000	288.063
3227.0000	288.019
3227.5000	288.056
3228.0000	288.008
3228.5000	288.013
3229.0000	288.006
3229.5000	287.988
3230.0000	288.01
3230.5000	287.99
3231.0000	287.974
3231.5000	287.964
3232.0000	287.996
3232.5000	288.011
3233.0000	288.024
3233.5000	288.025
3234.0000	288.025
3234.5000	288.019
3235.0000	288.009
3235.5000	288.032
3236.0000	288.021
3236.5000	288.013
3237.0000	288.006
3237.5000	288.06
3238.0000	288.118
3238.5000	288.116
3239.0000	288.155
3239.5000	288.119
3240.0000	288.062
3240.5000	288.045
3241.0000	288.014
3241.5000	287.97
3242.0000	287.96
3242.5000	287.977
3243.0000	287.992
3243.5000	287.975
3244.0000	287.952
3244.5000	287.965
3245.0000	287.974
3245.5000	288.009
3246.0000	288.04
3246.5000	288.001
3247.0000	287.974
3247.5000	287.975
3248.0000	287.913
3248.5000	287.942
3249.0000	287.91
3249.5000	287.879
3250.0000	287.993
3250.5000	288.013
3251.0000	288.078
3251.5000	288.073
3252.0000	288.022
3252.5000	287.972
3253.0000	287.921
3253.5000	287.982
3254.0000	287.972
3254.5000	287.993
3255.0000	288.045
3255.5000	288.009
3256.0000	287.978
3256.5000	287.976
3257.0000	287.921
3257.5000	287.943
3258.0000	287.965
3258.5000	287.952
3259.0000	288.015
3259.5000	287.994
3260.0000	288.019
3260.5000	287.966
3261.0000	287.925
3261.5000	287.965
3262.0000	287.986
3262.5000	288.019
3263.0000	288.03
3263.5000	288.011
3264.0000	287.968
3264.5000	288.004
3265.0000	288.004
3265.5000	287.966
3266.0000	287.993
3266.5000	288.034
3267.0000	287.991
3267.5000	287.947
3268.0000	287.924
3268.5000	287.9
3269.0000	287.919
3269.5000	287.966
3270.0000	287.94
3270.5000	287.942
3271.0000	287.974
3271.5000	288.002
3272.0000	288.06
3272.5000	288.009
3273.0000	288.003
3273.5000	287.991
3274.0000	287.967
3274.5000	288
3275.0000	287.977
3275.5000	287.967
3276.0000	287.946
3276.5000	287.865
3277.0000	287.832
3277.5000	287.807
3278.0000	287.775
3278.5000	287.803
3279.0000	287.806
3279.5000	287.84
3280.0000	287.854
3280.5000	287.891
3281.0000	287.91
3281.5000	287.837
3282.0000	287.81
3282.5000	287.777
3283.0000	287.771
3283.5000	287.835
3284.0000	287.843
3284.5000	287.884
3285.0000	287.876
3285.5000	287.84
3286.0000	287.953
3286.5000	287.936
3287.0000	287.953
3287.5000	287.968
3288.0000	287.903
3288.5000	287.936
3289.0000	287.902
3289.5000	287.91
3290.0000	287.89
3290.5000	287.795
3291.0000	287.82
3291.5000	287.816
3292.0000	287.814
3292.5000	287.85
3293.0000	287.873
3293.5000	287.895
3294.0000	287.909
3294.5000	287.864
3295.0000	287.837
3295.5000	287.853
3296.0000	287.849
3296.5000	287.914
3297.0000	287.904
3297.5000	287.904
3298.0000	287.92
3298.5000	287.885
3299.0000	287.858
3299.5000	287.797
3300.0000	287.804
3300.5000	287.827
3301.0000	287.863
3301.5000	287.882
3302.0000	287.855
3302.5000	287.85
3303.0000	287.866
3303.5000	287.856
3304.0000	287.804
3304.5000	287.841
3305.0000	287.825
3305.5000	287.82
3306.0000	287.854
3306.5000	287.838
3307.0000	287.803
3307.5000	287.815
3308.0000	287.811
3308.5000	287.778
3309.0000	287.808
3309.5000	287.839
3310.0000	287.859
3310.5000	287.885
3311.0000	287.907
3311.5000	287.851
3312.0000	287.897
3312.5000	287.9
3313.0000	287.911
3313.5000	287.892
3314.0000	287.844
3314.5000	287.849
3315.0000	287.827
3315.5000	287.871
3316.0000	287.925
3316.5000	287.927
3317.0000	287.915
3317.5000	287.939
3318.0000	287.838
3318.5000	287.885
3319.0000	287.898
3319.5000	287.886
3320.0000	287.92
3320.5000	287.851
3321.0000	287.848
3321.5000	287.801
3322.0000	287.798
3322.5000	287.767
3323.0000	287.834
3323.5000	287.848
3324.0000	287.866
3324.5000	287.933
3325.0000	287.887
3325.5000	287.872
3326.0000	287.871
3326.5000	287.894
3327.0000	287.885
3327.5000	287.91
3328.0000	287.908
3328.5000	287.783
3329.0000	287.778
3329.5000	287.776
3330.0000	287.787
3330.5000	287.806
3331.0000	287.759
3331.5000	287.76
3332.0000	287.685
3332.5000	287.748
3333.0000	287.757
3333.5000	287.767
3334.0000	287.826
3334.5000	287.78
3335.0000	287.796
3335.5000	287.798
3336.0000	287.78
3336.5000	287.808
3337.0000	287.82
3337.5000	287.819
3338.0000	287.865
3338.5000	287.897
3339.0000	287.864
3339.5000	287.851
3340.0000	287.83
3340.5000	287.78
3341.0000	287.774
3341.5000	287.753
3342.0000	287.737
3342.5000	287.764
3343.0000	287.816
3343.5000	287.887
3344.0000	287.89
3344.5000	287.835
3345.0000	287.823
3345.5000	287.721
3346.0000	287.674
3346.5000	287.72
3347.0000	287.705
3347.5000	287.728
3348.0000	287.729
3348.5000	287.796
3349.0000	287.81
3349.5000	287.817
3350.0000	287.899
3350.5000	287.805
3351.0000	287.831
3351.5000	287.934
3352.0000	287.9
3352.5000	287.94
3353.0000	287.896
3353.5000	287.823
3354.0000	287.832
3354.5000	287.816
3355.0000	287.798
3355.5000	287.712
3356.0000	287.69
3356.5000	287.703
3357.0000	287.722
3357.5000	287.766
3358.0000	287.745
3358.5000	287.716
3359.0000	287.704
3359.5000	287.751
3360.0000	287.755
3360.5000	287.785
3361.0000	287.82
3361.5000	287.82
3362.0000	287.826
3362.5000	287.829
3363.0000	287.799
3363.5000	287.791
3364.0000	287.821
3364.5000	287.787
3365.0000	287.887
3365.5000	287.851
3366.0000	287.833
3366.5000	287.792
3367.0000	287.708
3367.5000	287.681
3368.0000	287.706
3368.5000	287.755
3369.0000	287.767
3369.5000	287.772
3370.0000	287.722
3370.5000	287.694
3371.0000	287.652
3371.5000	287.668
3372.0000	287.624
3372.5000	287.614
3373.0000	287.606
3373.5000	287.613
3374.0000	287.638
3374.5000	287.685
3375.0000	287.674
3375.5000	287.699
3376.0000	287.705
3376.5000	287.672
3377.0000	287.68
3377.5000	287.682
3378.0000	287.684
3378.5000	287.722
3379.0000	287.76
3379.5000	287.721
3380.0000	287.717
3380.5000	287.688
3381.0000	287.679
3381.5000	287.705
3382.0000	287.722
3382.5000	287.655
3383.0000	287.629
3383.5000	287.63
3384.0000	287.626
3384.5000	287.706
3385.0000	287.706
3385.5000	287.672
3386.0000	287.703
3386.5000	287.677
3387.0000	287.71
3387.5000	287.747
3388.0000	287.703
3388.5000	287.707
3389.0000	287.743
3389.5000	287.711
3390.0000	287.751
3390.5000	287.78
3391.0000	287.714
3391.5000	287.78
3392.0000	287.772
3392.5000	287.764
3393.0000	287.736
3393.5000	287.662
3394.0000	287.615
3394.5000	287.602
3395.0000	287.678
3395.5000	287.705
3396.0000	287.772
3396.5000	287.784
3397.0000	287.713
3397.5000	287.739
3398.0000	287.699
3398.5000	287.658
3399.0000	287.708
3399.5000	287.675
3400.0000	287.65
3400.5000	287.72
3401.0000	287.661
3401.5000	287.654
3402.0000	287.692
3402.5000	287.637
3403.0000	287.689
3403.5000	287.681
3404.0000	287.696
3404.5000	287.74
3405.0000	287.744
3405.5000	287.766
3406.0000	287.762
3406.5000	287.78
3407.0000	287.732
3407.5000	287.74
3408.0000	287.769
3408.5000	287.705
3409.0000	287.76
3409.5000	287.761
3410.0000	287.708
3410.5000	287.751
3411.0000	287.703
3411.5000	287.669
3412.0000	287.703
3412.5000	287.661
3413.0000	287.68
3413.5000	287.683
3414.0000	287.656
3414.5000	287.628
3415.0000	287.688
3415.5000	287.692
3416.0000	287.702
3416.5000	287.718
3417.0000	287.642
3417.5000	287.651
3418.0000	287.657
3418.5000	287.66
3419.0000	287.681
3419.5000	287.724
3420.0000	287.733
3420.5000	287.733
3421.0000	287.737
3421.5000	287.701
3422.0000	287.661
3422.5000	287.649
3423.0000	287.64
3423.5000	287.659
3424.0000	287.705
3424.5000	287.716
3425.0000	287.749
3425.5000	287.719
3426.0000	287.629
3426.5000	287.648
3427.0000	287.634
3427.5000	287.596
3428.0000	287.615
3428.5000	287.605
3429.0000	287.615
3429.5000	287.641
3430.0000	287.659
3430.5000	287.653
3431.0000	287.604
3431.5000	287.591
3432.0000	287.621
3432.5000	287.608
3433.0000	287.611
3433.5000	287.654
3434.0000	287.633
3434.5000	287.655
3435.0000	287.663
3435.5000	287.602
3436.0000	287.648
3436.5000	287.627
3437.0000	287.661
3437.5000	287.706
3438.0000	287.667
3438.5000	287.685
3439.0000	287.679
3439.5000	287.674
3440.0000	287.736
3440.5000	287.752
3441.0000	287.746
3441.5000	287.72
3442.0000	287.647
3442.5000	287.652
3443.0000	287.676
3443.5000	287.745
3444.0000	287.807
3444.5000	287.76
3445.0000	287.738
3445.5000	287.699
3446.0000	287.662
3446.5000	287.686
3447.0000	287.645
3447.5000	287.656
3448.0000	287.636
3448.5000	287.596
3449.0000	287.629
3449.5000	287.582
3450.0000	287.608
3450.5000	287.636
3451.0000	287.631
3451.5000	287.694
3452.0000	287.634
3452.5000	287.592
3453.0000	287.518
3453.5000	287.407
3454.0000	287.453
3454.5000	287.514
3455.0000	287.609
3455.5000	287.707
3456.0000	287.705
3456.5000	287.65
3457.0000	287.587
3457.5000	287.601
3458.0000	287.608
3458.5000	287.656
3459.0000	287.636
3459.5000	287.588
3460.0000	287.563
3460.5000	287.564
3461.0000	287.661
3461.5000	287.665
3462.0000	287.674
3462.5000	287.655
3463.0000	287.602
3463.5000	287.634
3464.0000	287.631
3464.5000	287.621
3465.0000	287.631
3465.5000	287.629
3466.0000	287.674
3466.5000	287.747
3467.0000	287.799
3467.5000	287.769
3468.0000	287.689
3468.5000	287.632
3469.0000	287.563
3469.5000	287.603
3470.0000	287.598
3470.5000	287.574
3471.0000	287.574
3471.5000	287.509
3472.0000	287.545
3472.5000	287.553
3473.0000	287.542
3473.5000	287.577
3474.0000	287.558
3474.5000	287.595
3475.0000	287.571
3475.5000	287.524
3476.0000	287.513
3476.5000	287.462
3477.0000	287.474
3477.5000	287.485
3478.0000	287.522
3478.5000	287.524
3479.0000	287.538
3479.5000	287.573
3480.0000	287.541
3480.5000	287.517
3481.0000	287.55
3481.5000	287.572
3482.0000	287.584
3482.5000	287.646
3483.0000	287.567
3483.5000	287.483
3484.0000	287.5
3484.5000	287.443
3485.0000	287.449
3485.5000	287.437
3486.0000	287.495
3486.5000	287.498
3487.0000	287.52
3487.5000	287.582
3488.0000	287.522
3488.5000	287.568
3489.0000	287.594
3489.5000	287.589
3490.0000	287.554
3490.5000	287.521
3491.0000	287.5
3491.5000	287.421
3492.0000	287.425
3492.5000	287.469
3493.0000	287.468
3493.5000	287.5
3494.0000	287.536
3494.5000	287.501
3495.0000	287.46
3495.5000	287.549
3496.0000	287.478
3496.5000	287.462
3497.0000	287.515
3497.5000	287.423
3498.0000	287.479
3498.5000	287.479
3499.0000	287.456
3499.5000	287.504
3500.0000	287.455
3500.5000	287.496
3501.0000	287.5
3501.5000	287.456
3502.0000	287.483
3502.5000	287.515
3503.0000	287.512
3503.5000	287.532
3504.0000	287.59
3504.5000	287.591
3505.0000	287.654
3505.5000	287.673
3506.0000	287.612
3506.5000	287.616
3507.0000	287.51
3507.5000	287.507
3508.0000	287.533
3508.5000	287.466
3509.0000	287.507
3509.5000	287.51
3510.0000	287.468
3510.5000	287.483
3511.0000	287.506
3511.5000	287.507
3512.0000	287.488
3512.5000	287.47
3513.0000	287.485
3513.5000	287.469
3514.0000	287.554
3514.5000	287.569
3515.0000	287.571
3515.5000	287.537
3516.0000	287.505
3516.5000	287.464
3517.0000	287.44
3517.5000	287.491
3518.0000	287.441
3518.5000	287.476
3519.0000	287.498
3519.5000	287.478
3520.0000	287.55
3520.5000	287.5
3521.0000	287.469
3521.5000	287.432
3522.0000	287.407
3522.5000	287.449
3523.0000	287.479
3523.5000	287.559
3524.0000	287.576
3524.5000	287.569
3525.0000	287.523
3525.5000	287.517
3526.0000	287.526
3526.5000	287.477
3527.0000	287.551
3527.5000	287.492
3528.0000	287.447
3528.5000	287.463
3529.0000	287.434
3529.5000	287.405
3530.0000	287.409
3530.5000	287.395
3531.0000	287.351
3531.5000	287.395
3532.0000	287.417
3532.5000	287.465
3533.0000	287.479
3533.5000	287.476
3534.0000	287.455
3534.5000	287.422
3535.0000	287.372
3535.5000	287.348
3536.0000	287.371
3536.5000	287.409
3537.0000	287.466
3537.5000	287.47
3538.0000	287.44
3538.5000	287.4
3539.0000	287.416
3539.5000	287.428
3540.0000	287.436
3540.5000	287.517
3541.0000	287.533
3541.5000	287.517
3542.0000	287.535
3542.5000	287.441
3543.0000	287.408
3543.5000	287.436
3544.0000	287.393
3544.5000	287.459
3545.0000	287.462
3545.5000	287.481
3546.0000	287.52
3546.5000	287.485
3547.0000	287.435
3547.5000	287.432
3548.0000	287.421
3548.5000	287.401
3549.0000	287.398
3549.5000	287.411
3550.0000	287.432
3550.5000	287.422
3551.0000	287.446
3551.5000	287.388
3552.0000	287.398
3552.5000	287.414
3553.0000	287.416
3553.5000	287.404
3554.0000	287.338
3554.5000	287.378
3555.0000	287.351
3555.5000	287.414
3556.0000	287.415
3556.5000	287.369
3557.0000	287.428
3557.5000	287.435
3558.0000	287.465
3558.5000	287.499
3559.0000	287.43
3559.5000	287.421
3560.0000	287.385
3560.5000	287.363
3561.0000	287.431
3561.5000	287.356
3562.0000	287.387
3562.5000	287.383
3563.0000	287.34
3563.5000	287.438
3564.0000	287.43
3564.5000	287.432
3565.0000	287.53
3565.5000	287.38
3566.0000	287.379
3566.5000	287.367
3567.0000	287.287
3567.5000	287.373
3568.0000	287.413
3568.5000	287.407
3569.0000	287.357
3569.5000	287.257
3570.0000	287.159
3570.5000	287.194
3571.0000	287.215
3571.5000	287.268
3572.0000	287.323
3572.5000	287.299
3573.0000	287.269
3573.5000	287.293
3574.0000	287.28
3574.5000	287.227
3575.0000	287.26
3575.5000	287.266
3576.0000	287.312
3576.5000	287.331
3577.0000	287.35
3577.5000	287.396
3578.0000	287.359
3578.5000	287.351
3579.0000	287.34
3579.5000	287.323
3580.0000	287.324
3580.5000	287.358
3581.0000	287.364
3581.5000	287.344
3582.0000	287.32
3582.5000	287.257
3583.0000	287.235
3583.5000	287.213
3584.0000	287.226
3584.5000	287.253
3585.0000	287.264
3585.5000	287.275
3586.0000	287.285
3586.5000	287.343
3587.0000	287.333
3587.5000	287.343
3588.0000	287.287
3588.5000	287.274
3589.0000	287.331
3589.5000	287.314
3590.0000	287.407
3590.5000	287.422
3591.0000	287.346
3591.5000	287.343
3592.0000	287.299
3592.5000	287.237
3593.0000	287.292
3593.5000	287.313
3594.0000	287.313
3594.5000	287.316
3595.0000	287.3
3595.5000	287.288
3596.0000	287.284
3596.5000	287.311
3597.0000	287.282
3597.5000	287.298
3598.0000	287.274
3598.5000	287.243
3599.0000	287.275
3599.5000	287.261
3600.0000	287.243
3600.5000	287.266
3601.0000	287.246
3601.5000	287.208
3602.0000	287.257
3602.5000	287.308
3603.0000	287.319
3603.5000	287.389
3604.0000	287.401
3604.5000	287.301
3605.0000	287.294
3605.5000	287.265
3606.0000	287.271
3606.5000	287.336
3607.0000	287.32
3607.5000	287.295
3608.0000	287.29
3608.5000	287.298
3609.0000	287.271
3609.5000	287.362
3610.0000	287.32
3610.5000	287.286
3611.0000	287.331
3611.5000	287.237
3612.0000	287.219
3612.5000	287.18
3613.0000	287.172
3613.5000	287.214
3614.0000	287.273
3614.5000	287.349
3615.0000	287.39
3615.5000	287.415
3616.0000	287.355
3616.5000	287.259
3617.0000	287.218
3617.5000	287.219
3618.0000	287.227
3618.5000	287.303
3619.0000	287.305
3619.5000	287.286
3620.0000	287.305
3620.5000	287.337
3621.0000	287.332
3621.5000	287.282
3622.0000	287.219
3622.5000	287.189
3623.0000	287.174
3623.5000	287.176
3624.0000	287.266
3624.5000	287.253
3625.0000	287.309
3625.5000	287.295
3626.0000	287.275
3626.5000	287.248
3627.0000	287.177
3627.5000	287.239
3628.0000	287.209
3628.5000	287.269
3629.0000	287.305
3629.5000	287.262
3630.0000	287.258
3630.5000	287.152
3631.0000	287.193
3631.5000	287.206
3632.0000	287.232
3632.5000	287.333
3633.0000	287.287
3633.5000	287.288
3634.0000	287.235
3634.5000	287.194
3635.0000	287.227
3635.5000	287.245
3636.0000	287.302
3636.5000	287.325
3637.0000	287.275
3637.5000	287.235
3638.0000	287.24
3638.5000	287.185
3639.0000	287.173
3639.5000	287.215
3640.0000	287.201
3640.5000	287.23
3641.0000	287.246
3641.5000	287.183
3642.0000	287.189
3642.5000	287.232
3643.0000	287.281
3643.5000	287.311
3644.0000	287.267
3644.5000	287.243
3645.0000	287.13
3645.5000	287.145
3646.0000	287.182
3646.5000	287.179
3647.0000	287.223
3647.5000	287.197
3648.0000	287.198
3648.5000	287.215
3649.0000	287.229
3649.5000	287.198
3650.0000	287.188
3650.5000	287.178
3651.0000	287.192
3651.5000	287.179
3652.0000	287.131
3652.5000	287.076
3653.0000	287.034
3653.5000	287.053
3654.0000	287.137
3654.5000	287.172
3655.0000	287.208
3655.5000	287.234
3656.0000	287.17
3656.5000	287.181
3657.0000	287.151
3657.5000	287.151
3658.0000	287.178
3658.5000	287.144
3659.0000	287.134
3659.5000	287.161
3660.0000	287.181
3660.5000	287.224
3661.0000	287.283
3661.5000	287.234
3662.0000	287.199
3662.5000	287.198
3663.0000	287.134
3663.5000	287.148
3664.0000	287.165
3664.5000	287.152
3665.0000	287.129
3665.5000	287.107
3666.0000	287.144
3666.5000	287.159
3667.0000	287.186
3667.5000	287.204
3668.0000	287.186
3668.5000	287.175
3669.0000	287.238
3669.5000	287.247
3670.0000	287.24
3670.5000	287.202
3671.0000	287.107
3671.5000	287.081
3672.0000	287.065
3672.5000	287.085
3673.0000	287.161
3673.5000	287.19
3674.0000	287.188
3674.5000	287.151
3675.0000	287.15
3675.5000	287.186
3676.0000	287.192
3676.5000	287.258
3677.0000	287.272
3677.5000	287.224
3678.0000	287.216
3678.5000	287.21
3679.0000	287.207
3679.5000	287.196
3680.0000	287.201
3680.5000	287.14
3681.0000	287.125
3681.5000	287.087
3682.0000	287.099
3682.5000	287.095
3683.0000	287.059
3683.5000	287.104
3684.0000	287.069
3684.5000	287.092
3685.0000	287.093
3685.5000	287.123
3686.0000	287.17
3686.5000	287.147
3687.0000	287.181
3687.5000	287.168
3688.0000	287.094
3688.5000	287.108
3689.0000	287.084
3689.5000	287.102
3690.0000	287.154
3690.5000	287.142
3691.0000	287.124
3691.5000	287.064
3692.0000	287.078
3692.5000	287.127
3693.0000	287.108
3693.5000	287.08
3694.0000	287.093
3694.5000	287.062
3695.0000	287.093
3695.5000	287.163
3696.0000	287.066
3696.5000	287.094
3697.0000	287.095
3697.5000	287.057
3698.0000	287.082
3698.5000	287.066
3699.0000	287.026
3699.5000	287.034
3700.0000	287.065
3700.5000	287.072
3701.0000	287.057
3701.5000	287.025
3702.0000	286.991
3702.5000	287.006
3703.0000	287.035
3703.5000	287.049
3704.0000	287.078
3704.5000	287.058
3705.0000	287.11
3705.5000	287.132
3706.0000	287.068
3706.5000	287.058
3707.0000	287.003
3707.5000	287.017
3708.0000	287.035
3708.5000	287.025
3709.0000	286.992
3709.5000	286.936
3710.0000	286.958
3710.5000	286.985
3711.0000	287.013
3711.5000	287.057
3712.0000	287.053
3712.5000	287.052
3713.0000	287.103
3713.5000	287.07
3714.0000	287.063
3714.5000	287.101
3715.0000	287.078
3715.5000	287.084
3716.0000	287.137
3716.5000	287.071
3717.0000	287.043
3717.5000	287.033
3718.0000	286.972
3718.5000	286.99
3719.0000	287.009
3719.5000	287.084
3720.0000	287.139
3720.5000	287.081
3721.0000	287.015
3721.5000	286.929
3722.0000	286.874
3722.5000	286.892
3723.0000	286.973
3723.5000	286.993
3724.0000	286.999
3724.5000	286.999
3725.0000	286.982
3725.5000	286.969
3726.0000	286.976
3726.5000	286.959
3727.0000	286.967
3727.5000	286.988
3728.0000	286.996
3728.5000	287.022
3729.0000	287.051
3729.5000	287.028
3730.0000	286.998
3730.5000	286.985
3731.0000	286.931
3731.5000	286.923
3732.0000	286.97
3732.5000	287.005
3733.0000	286.983
3733.5000	287.041
3734.0000	287.021
3734.5000	287.01
3735.0000	287.044
3735.5000	287.023
3736.0000	287.02
3736.5000	287.047
3737.0000	287.019
3737.5000	287.021
3738.0000	286.99
3738.5000	286.929
3739.0000	286.969
3739.5000	286.957
3740.0000	286.913
3740.5000	286.929
3741.0000	286.889
3741.5000	286.852
3742.0000	286.887
3742.5000	286.885
3743.0000	286.841
3743.5000	286.835
3744.0000	286.834
3744.5000	286.845
3745.0000	286.83
3745.5000	286.821
3746.0000	286.837
3746.5000	286.824
3747.0000	286.901
3747.5000	286.89
3748.0000	286.904
3748.5000	286.901
3749.0000	286.833
3749.5000	286.851
3750.0000	286.819
3750.5000	286.824
3751.0000	286.853
3751.5000	286.92
3752.0000	286.959
3752.5000	286.896
3753.0000	286.907
3753.5000	286.877
3754.0000	286.906
3754.5000	286.942
3755.0000	286.953
3755.5000	286.982
3756.0000	286.97
3756.5000	287.003
3757.0000	287.016
3757.5000	287.007
3758.0000	286.977
3758.5000	286.967
3759.0000	286.945
3759.5000	286.873
3760.0000	286.895
3760.5000	286.924
3761.0000	286.904
3761.5000	286.933
3762.0000	286.929
3762.5000	286.956
3763.0000	286.977
3763.5000	286.963
3764.0000	286.932
3764.5000	286.853
3765.0000	286.865
3765.5000	286.882
3766.0000	286.855
3766.5000	286.833
3767.0000	286.843
3767.5000	286.908
3768.0000	286.935
3768.5000	286.966
3769.0000	286.982
3769.5000	286.92
3770.0000	286.922
3770.5000	286.921
3771.0000	286.908
3771.5000	286.91
3772.0000	286.897
3772.5000	286.873
3773.0000	286.863
3773.5000	286.849
3774.0000	286.829
3774.5000	286.842
3775.0000	286.864
3775.5000	286.825
3776.0000	286.784
3776.5000	286.823
3777.0000	286.846
3777.5000	286.883
3778.0000	286.995
3778.5000	286.949
3779.0000	286.907
3779.5000	286.964
3780.0000	286.953
3780.5000	286.994
3781.0000	287.038
3781.5000	286.993
3782.0000	286.932
3782.5000	286.874
3783.0000	286.798
3783.5000	286.851
3784.0000	286.867
3784.5000	286.916
3785.0000	286.906
3785.5000	286.872
3786.0000	286.846
3786.5000	286.827
3787.0000	286.816
3787.5000	286.773
3788.0000	286.864
3788.5000	286.908
3789.0000	286.916
3789.5000	286.932
3790.0000	286.893
3790.5000	286.874
3791.0000	286.935
3791.5000	286.92
3792.0000	286.911
3792.5000	286.865
3793.0000	286.828
3793.5000	286.851
3794.0000	286.838
3794.5000	286.914
3795.0000	286.959
3795.5000	286.957
3796.0000	286.915
3796.5000	286.874
3797.0000	286.811
3797.5000	286.845
3798.0000	286.906
3798.5000	286.934
3799.0000	286.939
3799.5000	286.915
3800.0000	286.85
3800.5000	286.877
3801.0000	286.869
3801.5000	286.844
3802.0000	286.932
3802.5000	286.868
3803.0000	286.916
3803.5000	286.902
3804.0000	286.85
3804.5000	286.868
3805.0000	286.835
3805.5000	286.852
3806.0000	286.868
3806.5000	286.815
3807.0000	286.862
3807.5000	286.901
3808.0000	286.851
3808.5000	286.89
3809.0000	286.89
3809.5000	286.813
3810.0000	286.821
3810.5000	286.856
3811.0000	286.778
3811.5000	286.835
3812.0000	286.867
3812.5000	286.803
3813.0000	286.877
3813.5000	286.926
3814.0000	286.916
3814.5000	286.915
3815.0000	286.86
3815.5000	286.791
3816.0000	286.82
3816.5000	286.862
3817.0000	286.882
3817.5000	286.875
3818.0000	286.87
3818.5000	286.888
3819.0000	286.851
3819.5000	286.868
3820.0000	286.879
3820.5000	286.84
3821.0000	286.865
3821.5000	286.905
3822.0000	286.89
3822.5000	286.884
3823.0000	286.903
3823.5000	286.882
3824.0000	286.882
3824.5000	286.847
3825.0000	286.852
3825.5000	286.771
3826.0000	286.781
3826.5000	286.802
3827.0000	286.806
3827.5000	286.871
3828.0000	286.878
3828.5000	286.855
3829.0000	286.832
3829.5000	286.815
3830.0000	286.778
3830.5000	286.827
3831.0000	286.813
3831.5000	286.825
3832.0000	286.822
3832.5000	286.771
3833.0000	286.751
3833.5000	286.772
3834.0000	286.81
3834.5000	286.823
3835.0000	286.901
3835.5000	286.863
3836.0000	286.853
3836.5000	286.854
3837.0000	286.812
3837.5000	286.858
3838.0000	286.86
3838.5000	286.881
3839.0000	286.892
3839.5000	286.835
3840.0000	286.819
3840.5000	286.841
3841.0000	286.805
3841.5000	286.854
3842.0000	286.838
3842.5000	286.828
3843.0000	286.856
3843.5000	286.835
3844.0000	286.874
3844.5000	286.904
3845.0000	286.94
3845.5000	286.956
3846.0000	286.879
3846.5000	286.805
3847.0000	286.813
3847.5000	286.755
3848.0000	286.748
3848.5000	286.775
3849.0000	286.668
3849.5000	286.714
3850.0000	286.787
3850.5000	286.815
3851.0000	286.914
3851.5000	286.907
3852.0000	286.942
3852.5000	286.981
3853.0000	286.903
3853.5000	286.938
3854.0000	286.92
3854.5000	286.845
3855.0000	286.898
3855.5000	286.856
3856.0000	286.807
3856.5000	286.882
3857.0000	286.84
3857.5000	286.783
3858.0000	286.742
3858.5000	286.625
3859.0000	286.642
3859.5000	286.745
3860.0000	286.831
3860.5000	286.881
3861.0000	286.854
3861.5000	286.8
3862.0000	286.805
3862.5000	286.81
3863.0000	286.867
3863.5000	286.86
3864.0000	286.776
3864.5000	286.801
3865.0000	286.803
3865.5000	286.825
3866.0000	286.867
3866.5000	286.843
3867.0000	286.826
3867.5000	286.841
3868.0000	286.854
3868.5000	286.866
3869.0000	286.823
3869.5000	286.839
3870.0000	286.805
3870.5000	286.762
3871.0000	286.784
3871.5000	286.738
3872.0000	286.83
3872.5000	286.839
3873.0000	286.881
3873.5000	286.897
3874.0000	286.838
3874.5000	286.843
3875.0000	286.797
3875.5000	286.751
3876.0000	286.748
3876.5000	286.734
3877.0000	286.766
3877.5000	286.767
3878.0000	286.731
3878.5000	286.801
3879.0000	286.765
3879.5000	286.797
3880.0000	286.812
3880.5000	286.744
3881.0000	286.78
3881.5000	286.692
3882.0000	286.695
3882.5000	286.712
3883.0000	286.649
3883.5000	286.718
3884.0000	286.684
3884.5000	286.703
3885.0000	286.714
3885.5000	286.7
3886.0000	286.738
3886.5000	286.689
3887.0000	286.721
3887.5000	286.772
3888.0000	286.78
3888.5000	286.836
3889.0000	286.79
3889.5000	286.736
3890.0000	286.726
3890.5000	286.672
3891.0000	286.69
3891.5000	286.687
3892.0000	286.685
3892.5000	286.645
3893.0000	286.673
3893.5000	286.697
3894.0000	286.707
3894.5000	286.74
3895.0000	286.714
3895.5000	286.728
3896.0000	286.739
3896.5000	286.768
3897.0000	286.75
3897.5000	286.77
3898.0000	286.733
3898.5000	286.746
3899.0000	286.76
3899.5000	286.693
3900.0000	286.666
3900.5000	286.605
3901.0000	286.558
3901.5000	286.619
3902.0000	286.632
3902.5000	286.728
3903.0000	286.758
3903.5000	286.743
3904.0000	286.774
3904.5000	286.698
3905.0000	286.71
3905.5000	286.693
3906.0000	286.673
3906.5000	286.716
3907.0000	286.676
3907.5000	286.691
3908.0000	286.692
3908.5000	286.656
3909.0000	286.695
3909.5000	286.66
3910.0000	286.645
3910.5000	286.642
3911.0000	286.625
3911.5000	286.667
3912.0000	286.674
3912.5000	286.711
3913.0000	286.732
3913.5000	286.695
3914.0000	286.742
3914.5000	286.728
3915.0000	286.708
3915.5000	286.779
3916.0000	286.695
3916.5000	286.645
3917.0000	286.689
3917.5000	286.583
3918.0000	286.623
3918.5000	286.7
3919.0000	286.627
3919.5000	286.652
3920.0000	286.652
3920.5000	286.565
3921.0000	286.601
3921.5000	286.624
3922.0000	286.606
3922.5000	286.674
3923.0000	286.686
3923.5000	286.678
3924.0000	286.712
3924.5000	286.714
3925.0000	286.715
3925.5000	286.65
3926.0000	286.648
3926.5000	286.607
3927.0000	286.629
3927.5000	286.695
3928.0000	286.738
3928.5000	286.762
3929.0000	286.713
3929.5000	286.696
3930.0000	286.617
3930.5000	286.608
3931.0000	286.613
3931.5000	286.611
3932.0000	286.666
3932.5000	286.641
3933.0000	286.617
3933.5000	286.614
3934.0000	286.585
3934.5000	286.604
3935.0000	286.701
3935.5000	286.753
3936.0000	286.726
3936.5000	286.712
3937.0000	286.677
3937.5000	286.66
3938.0000	286.687
3938.5000	286.729
3939.0000	286.709
3939.5000	286.673
3940.0000	286.658
3940.5000	286.635
3941.0000	286.632
3941.5000	286.65
3942.0000	286.656
3942.5000	286.678
3943.0000	286.675
3943.5000	286.716
3944.0000	286.72
3944.5000	286.673
3945.0000	286.625
3945.5000	286.564
3946.0000	286.522
3946.5000	286.581
3947.0000	286.64
3947.5000	286.641
3948.0000	286.688
3948.5000	286.634
3949.0000	286.611
3949.5000	286.592
3950.0000	286.59
3950.5000	286.643
3951.0000	286.686
3951.5000	286.721
3952.0000	286.71
3952.5000	286.656
3953.0000	286.625
3953.5000	286.635
3954.0000	286.667
3954.5000	286.685
3955.0000	286.647
3955.5000	286.639
3956.0000	286.599
3956.5000	286.624
3957.0000	286.677
3957.5000	286.645
3958.0000	286.607
3958.5000	286.599
3959.0000	286.529
3959.5000	286.555
3960.0000	286.575
3960.5000	286.526
3961.0000	286.526
3961.5000	286.53
3962.0000	286.509
3962.5000	286.525
3963.0000	286.53
3963.5000	286.505
3964.0000	286.557
3964.5000	286.528
3965.0000	286.518
3965.5000	286.506
3966.0000	286.502
3966.5000	286.572
3967.0000	286.588
3967.5000	286.617
3968.0000	286.599
3968.5000	286.512
3969.0000	286.478
3969.5000	286.456
3970.0000	286.464
3970.5000	286.512
3971.0000	286.607
3971.5000	286.62
3972.0000	286.612
3972.5000	286.585
3973.0000	286.562
3973.5000	286.58
3974.0000	286.547
3974.5000	286.532
3975.0000	286.503
3975.5000	286.543
3976.0000	286.512
3976.5000	286.549
3977.0000	286.54
3977.5000	286.477
3978.0000	286.575
3978.5000	286.59
3979.0000	286.601
3979.5000	286.606
3980.0000	286.56
3980.5000	286.526
3981.0000	286.488
3981.5000	286.49
3982.0000	286.517
3982.5000	286.523
3983.0000	286.653
3983.5000	286.672
3984.0000	286.682
3984.5000	286.693
3985.0000	286.659
3985.5000	286.595
3986.0000	286.584
3986.5000	286.581
3987.0000	286.509
3987.5000	286.606
3988.0000	286.612
3988.5000	286.625
3989.0000	286.649
3989.5000	286.539
3990.0000	286.576
3990.5000	286.519
3991.0000	286.528
3991.5000	286.564
3992.0000	286.577
3992.5000	286.583
3993.0000	286.571
3993.5000	286.572
3994.0000	286.51
3994.5000	286.538
3995.0000	286.541
3995.5000	286.542
3996.0000	286.565
3996.5000	286.552
3997.0000	286.586
3997.5000	286.609
3998.0000	286.573
3998.5000	286.652
3999.0000	286.66
3999.5000	286.672
4000.0000	286.687
4000.5000	286.629
4001.0000	286.578
4001.5000	286.561
4002.0000	286.536
4002.5000	286.565
4003.0000	286.59
4003.5000	286.579
4004.0000	286.573
4004.5000	286.568
4005.0000	286.602
4005.5000	286.599
4006.0000	286.627
4006.5000	286.652
4007.0000	286.59
4007.5000	286.622
4008.0000	286.629
4008.5000	286.542
4009.0000	286.563
4009.5000	286.586
4010.0000	286.539
4010.5000	286.551
4011.0000	286.562
4011.5000	286.497
4012.0000	286.547
4012.5000	286.564
4013.0000	286.556
4013.5000	286.588
4014.0000	286.595
4014.5000	286.612
4015.0000	286.583
4015.5000	286.587
4016.0000	286.567
4016.5000	286.603
4017.0000	286.617
4017.5000	286.572
4018.0000	286.651
4018.5000	286.609
4019.0000	286.624
4019.5000	286.685
4020.0000	286.585
4020.5000	286.549
4021.0000	286.532
4021.5000	286.517
4022.0000	286.534
4022.5000	286.546
4023.0000	286.555
4023.5000	286.518
4024.0000	286.502
4024.5000	286.538
4025.0000	286.531
4025.5000	286.562
4026.0000	286.57
4026.5000	286.524
4027.0000	286.539
4027.5000	286.517
4028.0000	286.514
4028.5000	286.554
4029.0000	286.494
4029.5000	286.509
4030.0000	286.466
4030.5000	286.454
4031.0000	286.532
4031.5000	286.496
4032.0000	286.582
4032.5000	286.619
4033.0000	286.554
4033.5000	286.579
4034.0000	286.52
4034.5000	286.52
4035.0000	286.584
4035.5000	286.593
4036.0000	286.608
4036.5000	286.536
4037.0000	286.463
4037.5000	286.486
4038.0000	286.441
4038.5000	286.442
4039.0000	286.488
4039.5000	286.472
4040.0000	286.543
4040.5000	286.568
4041.0000	286.566
4041.5000	286.559
4042.0000	286.544
4042.5000	286.549
4043.0000	286.527
4043.5000	286.533
4044.0000	286.532
4044.5000	286.552
4045.0000	286.542
4045.5000	286.498
4046.0000	286.468
4046.5000	286.429
4047.0000	286.486
4047.5000	286.521
4048.0000	286.557
4048.5000	286.548
4049.0000	286.493
4049.5000	286.444
4050.0000	286.406
4050.5000	286.433
4051.0000	286.47
4051.5000	286.5
4052.0000	286.508
4052.5000	286.471
4053.0000	286.416
4053.5000	286.476
4054.0000	286.465
4054.5000	286.523
4055.0000	286.522
4055.5000	286.457
4056.0000	286.454
4056.5000	286.473
4057.0000	286.491
4057.5000	286.517
4058.0000	286.547
4058.5000	286.499
4059.0000	286.508
4059.5000	286.479
4060.0000	286.42
4060.5000	286.414
4061.0000	286.48
4061.5000	286.493
4062.0000	286.548
4062.5000	286.596
4063.0000	286.544
4063.5000	286.512
4064.0000	286.508
4064.5000	286.456
4065.0000	286.445
4065.5000	286.455
4066.0000	286.427
4066.5000	286.468
4067.0000	286.433
4067.5000	286.477
4068.0000	286.505
4068.5000	286.44
4069.0000	286.452
4069.5000	286.457
4070.0000	286.464
4070.5000	286.533
4071.0000	286.566
4071.5000	286.572
4072.0000	286.607
4072.5000	286.604
4073.0000	286.623
4073.5000	286.579
4074.0000	286.558
4074.5000	286.537
4075.0000	286.511
4075.5000	286.502
4076.0000	286.451
4076.5000	286.411
4077.0000	286.435
4077.5000	286.429
4078.0000	286.454
4078.5000	286.447
4079.0000	286.409
4079.5000	286.446
4080.0000	286.42
4080.5000	286.48
4081.0000	286.434
4081.5000	286.434
4082.0000	286.485
4082.5000	286.427
4083.0000	286.476
4083.5000	286.471
4084.0000	286.399
4084.5000	286.41
4085.0000	286.392
4085.5000	286.423
4086.0000	286.508
4086.5000	286.539
4087.0000	286.536
4087.5000	286.471
4088.0000	286.391
4088.5000	286.38
4089.0000	286.4
4089.5000	286.396
4090.0000	286.414
4090.5000	286.411
4091.0000	286.435
4091.5000	286.425
4092.0000	286.451
4092.5000	286.436
4093.0000	286.388
4093.5000	286.405
4094.0000	286.374
4094.5000	286.346
4095.0000	286.392
4095.5000	286.411
4096.0000	286.436
4096.5000	286.511
4097.0000	286.494
4097.5000	286.492
4098.0000	286.471
4098.5000	286.441
4099.0000	286.467
4099.5000	286.454
4100.0000	286.452
4100.5000	286.426
4101.0000	286.352
4101.5000	286.386
4102.0000	286.39
4102.5000	286.421
4103.0000	286.485
4103.5000	286.441
4104.0000	286.438
4104.5000	286.401
4105.0000	286.386
4105.5000	286.419
4106.0000	286.412
4106.5000	286.444
4107.0000	286.434
4107.5000	286.433
4108.0000	286.482
4108.5000	286.446
4109.0000	286.435
4109.5000	286.427
4110.0000	286.417
4110.5000	286.479
4111.0000	286.466
4111.5000	286.453
4112.0000	286.411
4112.5000	286.385
4113.0000	286.451
4113.5000	286.498
4114.0000	286.48
4114.5000	286.483
4115.0000	286.417
4115.5000	286.401
4116.0000	286.433
4116.5000	286.399
4117.0000	286.457
4117.5000	286.472
4118.0000	286.477
4118.5000	286.513
4119.0000	286.46
4119.5000	286.372
4120.0000	286.321
4120.5000	286.258
4121.0000	286.316
4121.5000	286.344
4122.0000	286.364
4122.5000	286.402
4123.0000	286.425
4123.5000	286.428
4124.0000	286.494
4124.5000	286.498
4125.0000	286.409
4125.5000	286.406
4126.0000	286.391
4126.5000	286.406
4127.0000	286.408
4127.5000	286.425
4128.0000	286.408
4128.5000	286.368
4129.0000	286.363
4129.5000	286.397
4130.0000	286.392
4130.5000	286.382
4131.0000	286.423
4131.5000	286.351
4132.0000	286.353
4132.5000	286.397
4133.0000	286.366
4133.5000	286.393
4134.0000	286.406
4134.5000	286.395
4135.0000	286.367
4135.5000	286.345
4136.0000	286.333
4136.5000	286.369
4137.0000	286.37
4137.5000	286.411
4138.0000	286.396
4138.5000	286.372
4139.0000	286.442
4139.5000	286.432
4140.0000	286.418
4140.5000	286.451
4141.0000	286.411
4141.5000	286.392
4142.0000	286.417
4142.5000	286.355
4143.0000	286.371
4143.5000	286.372
4144.0000	286.371
4144.5000	286.364
4145.0000	286.398
4145.5000	286.39
4146.0000	286.395
4146.5000	286.426
4147.0000	286.434
4147.5000	286.468
4148.0000	286.463
4148.5000	286.433
4149.0000	286.351
4149.5000	286.312
4150.0000	286.27
4150.5000	286.337
4151.0000	286.371
4151.5000	286.365
4152.0000	286.369
4152.5000	286.313
4153.0000	286.282
4153.5000	286.315
4154.0000	286.345
4154.5000	286.352
4155.0000	286.437
4155.5000	286.399
4156.0000	286.403
4156.5000	286.382
4157.0000	286.309
4157.5000	286.343
4158.0000	286.288
4158.5000	286.34
4159.0000	286.336
4159.5000	286.298
4160.0000	286.287
4160.5000	286.242
4161.0000	286.26
4161.5000	286.311
4162.0000	286.35
4162.5000	286.393
4163.0000	286.33
4163.5000	286.258
4164.0000	286.277
4164.5000	286.239
4165.0000	286.324
4165.5000	286.387
4166.0000	286.366
4166.5000	286.398
4167.0000	286.364
4167.5000	286.375
4168.0000	286.313
4168.5000	286.273
4169.0000	286.273
4169.5000	286.235
4170.0000	286.329
4170.5000	286.335
4171.0000	286.322
4171.5000	286.335
4172.0000	286.36
4172.5000	286.341
4173.0000	286.383
4173.5000	286.457
4174.0000	286.385
4174.5000	286.428
4175.0000	286.439
4175.5000	286.383
4176.0000	286.39
4176.5000	286.385
4177.0000	286.365
4177.5000	286.317
4178.0000	286.33
4178.5000	286.345
4179.0000	286.317
4179.5000	286.326
4180.0000	286.288
4180.5000	286.235
4181.0000	286.237
4181.5000	286.18
4182.0000	286.251
4182.5000	286.265
4183.0000	286.324
4183.5000	286.382
4184.0000	286.376
4184.5000	286.328
4185.0000	286.285
4185.5000	286.315
4186.0000	286.291
4186.5000	286.313
4187.0000	286.328
4187.5000	286.336
4188.0000	286.349
4188.5000	286.423
4189.0000	286.413
4189.5000	286.423
4190.0000	286.445
4190.5000	286.376
4191.0000	286.354
4191.5000	286.33
4192.0000	286.322
4192.5000	286.347
4193.0000	286.37
4193.5000	286.367
4194.0000	286.371
4194.5000	286.413
4195.0000	286.395
4195.5000	286.401
4196.0000	286.425
4196.5000	286.361
4197.0000	286.371
4197.5000	286.349
4198.0000	286.297
4198.5000	286.302
4199.0000	286.262
4199.5000	286.259
4200.0000	286.276
4200.5000	286.255
4201.0000	286.293
4201.5000	286.334
4202.0000	286.308
4202.5000	286.314
4203.0000	286.366
4203.5000	286.34
4204.0000	286.309
4204.5000	286.341
4205.0000	286.297
4205.5000	286.345
4206.0000	286.431
4206.5000	286.486
4207.0000	286.568
4207.5000	286.521
4208.0000	286.483
4208.5000	286.446
4209.0000	286.361
4209.5000	286.335
4210.0000	286.305
4210.5000	286.268
4211.0000	286.222
4211.5000	286.266
4212.0000	286.283
4212.5000	286.342
4213.0000	286.36
4213.5000	286.339
4214.0000	286.357
4214.5000	286.22
4215.0000	286.245
4215.5000	286.238
4216.0000	286.193
4216.5000	286.313
4217.0000	286.342
4217.5000	286.323
4218.0000	286.402
4218.5000	286.451
4219.0000	286.381
4219.5000	286.388
4220.0000	286.381
4220.5000	286.259
4221.0000	286.294
4221.5000	286.345
4222.0000	286.298
4222.5000	286.372
4223.0000	286.404
4223.5000	286.423
4224.0000	286.434
4224.5000	286.427
4225.0000	286.404
4225.5000	286.309
4226.0000	286.284
4226.5000	286.283
4227.0000	286.281
4227.5000	286.308
4228.0000	286.38
4228.5000	286.371
4229.0000	286.338
4229.5000	286.357
4230.0000	286.351
4230.5000	286.372
4231.0000	286.43
4231.5000	286.477
4232.0000	286.417
4232.5000	286.371
4233.0000	286.294
4233.5000	286.232
4234.0000	286.248
4234.5000	286.279
4235.0000	286.326
4235.5000	286.308
4236.0000	286.351
4236.5000	286.392
4237.0000	286.443
4237.5000	286.426
4238.0000	286.336
4238.5000	286.257
4239.0000	286.213
4239.5000	286.171
4240.0000	286.22
4240.5000	286.236
4241.0000	286.25
4241.5000	286.322
4242.0000	286.359
4242.5000	286.339
4243.0000	286.339
4243.5000	286.286
4244.0000	286.235
4244.5000	286.295
4245.0000	286.25
4245.5000	286.359
4246.0000	286.365
4246.5000	286.332
4247.0000	286.348
4247.5000	286.339
4248.0000	286.289
4248.5000	286.324
4249.0000	286.309
4249.5000	286.299
4250.0000	286.321
4250.5000	286.237
4251.0000	286.212
4251.5000	286.183
4252.0000	286.153
4252.5000	286.226
4253.0000	286.225
4253.5000	286.268
4254.0000	286.315
4254.5000	286.314
4255.0000	286.354
4255.5000	286.385
4256.0000	286.407
4256.5000	286.393
4257.0000	286.376
4257.5000	286.309
4258.0000	286.292
4258.5000	286.242
4259.0000	286.251
4259.5000	286.283
4260.0000	286.229
4260.5000	286.238
4261.0000	286.255
4261.5000	286.214
4262.0000	286.244
4262.5000	286.294
4263.0000	286.288
4263.5000	286.281
4264.0000	286.376
4264.5000	286.376
4265.0000	286.321
4265.5000	286.286
4266.0000	286.169
4266.5000	286.133
4267.0000	286.234
4267.5000	286.285
4268.0000	286.35
4268.5000	286.318
4269.0000	286.26
4269.5000	286.255
4270.0000	286.23
4270.5000	286.256
4271.0000	286.285
4271.5000	286.323
4272.0000	286.341
4272.5000	286.386
4273.0000	286.371
4273.5000	286.374
4274.0000	286.403
4274.5000	286.372
4275.0000	286.401
4275.5000	286.368
4276.0000	286.276
4276.5000	286.276
4277.0000	286.187
4277.5000	286.157
4278.0000	286.108
4278.5000	286.059
4279.0000	286.1
4279.5000	286.076
4280.0000	286.207
4280.5000	286.227
4281.0000	286.298
4281.5000	286.327
4282.0000	286.26
4282.5000	286.315
4283.0000	286.243
4283.5000	286.219
4284.0000	286.23
4284.5000	286.211
4285.0000	286.181
4285.5000	286.215
4286.0000	286.254
4286.5000	286.252
4287.0000	286.248
4287.5000	286.262
4288.0000	286.193
4288.5000	286.159
4289.0000	286.231
4289.5000	286.189
4290.0000	286.191
4290.5000	286.186
4291.0000	286.103
4291.5000	286.145
4292.0000	286.172
4292.5000	286.129
4293.0000	286.17
4293.5000	286.129
4294.0000	286.11
4294.5000	286.172
4295.0000	286.206
4295.5000	286.209
4296.0000	286.188
4296.5000	286.175
4297.0000	286.124
4297.5000	286.121
4298.0000	286.219
4298.5000	286.252
4299.0000	286.263
4299.5000	286.275
4300.0000	286.218
4300.5000	286.167
4301.0000	286.159
4301.5000	286.113
4302.0000	286.146
4302.5000	286.156
4303.0000	286.19
4303.5000	286.212
4304.0000	286.167
4304.5000	286.164
4305.0000	286.194
4305.5000	286.242
4306.0000	286.239
4306.5000	286.266
4307.0000	286.22
4307.5000	286.231
4308.0000	286.289
4308.5000	286.33
4309.0000	286.32
4309.5000	286.241
4310.0000	286.141
4310.5000	286.096
4311.0000	286.076
4311.5000	286.107
4312.0000	286.162
4312.5000	286.128
4313.0000	286.148
4313.5000	286.167
4314.0000	286.207
4314.5000	286.245
4315.0000	286.216
4315.5000	286.254
4316.0000	286.219
4316.5000	286.2
4317.0000	286.216
4317.5000	286.166
4318.0000	286.155
4318.5000	286.128
4319.0000	286.092
4319.5000	286.095
4320.0000	286.047
4320.5000	286.107
4321.0000	286.113
4321.5000	286.067
4322.0000	286.13
4322.5000	286.115
4323.0000	286.129
4323.5000	286.151
4324.0000	286.107
4324.5000	286.09
4325.0000	286.119
4325.5000	286.137
4326.0000	286.146
4326.5000	286.162
4327.0000	286.117
4327.5000	286.084
4328.0000	286.11
4328.5000	286.053
4329.0000	286.041
4329.5000	286.033
4330.0000	286.021
4330.5000	286.057
4331.0000	286.1
4331.5000	286.101
4332.0000	286.07
4332.5000	286.021
4333.0000	286.009
4333.5000	286.029
4334.0000	286.06
4334.5000	286.072
4335.0000	286.013
4335.5000	285.98
4336.0000	285.95
4336.5000	285.944
4337.0000	286.024
4337.5000	286.039
4338.0000	286.007
4338.5000	286.03
4339.0000	286.016
4339.5000	286.046
4340.0000	286.075
4340.5000	286.093
4341.0000	286.091
4341.5000	286.072
4342.0000	286.05
4342.5000	286.063
4343.0000	286.064
4343.5000	286.069
4344.0000	286.129
4344.5000	286.143
4345.0000	286.123
4345.5000	286.099
4346.0000	286.028
4346.5000	285.994
4347.0000	285.969
4347.5000	285.973
4348.0000	286.047
4348.5000	286.029
4349.0000	286.079
4349.5000	286.082
4350.0000	285.999
4350.5000	285.996
4351.0000	285.993
4351.5000	286.004
4352.0000	285.997
4352.5000	285.975
4353.0000	285.94
4353.5000	285.932
4354.0000	285.998
4354.5000	286.036
4355.0000	286.069
4355.5000	286.039
4356.0000	286.072
4356.5000	286.076
4357.0000	286.003
4357.5000	286.031
4358.0000	285.972
4358.5000	285.985
4359.0000	286.04
4359.5000	286.068
4360.0000	286.067
4360.5000	286.044
4361.0000	286.035
4361.5000	286.07
4362.0000	286.035
4362.5000	286.001
4363.0000	286.031
4363.5000	285.942
4364.0000	285.961
4364.5000	286.008
4365.0000	285.97
4365.5000	286.031
4366.0000	286.066
4366.5000	286.031
4367.0000	286.058
4367.5000	285.991
4368.0000	285.932
4368.5000	285.927
4369.0000	285.913
4369.5000	285.958
4370.0000	285.986
4370.5000	286.036
4371.0000	286.04
4371.5000	286.027
4372.0000	286.055
4372.5000	286.015
4373.0000	285.984
4373.5000	285.999
4374.0000	286.047
4374.5000	286.07
4375.0000	286.063
4375.5000	286.061
4376.0000	285.952
4376.5000	285.938
4377.0000	285.977
4377.5000	285.9
4378.0000	285.997
4378.5000	286.019
4379.0000	285.984
4379.5000	286.018
4380.0000	286.013
4380.5000	285.957
4381.0000	285.971
4381.5000	286.03
4382.0000	285.999
4382.5000	286.002
4383.0000	286.009
4383.5000	285.984
4384.0000	285.99
4384.5000	286.02
4385.0000	285.983
4385.5000	286.005
4386.0000	286.015
4386.5000	286.019
4387.0000	286.058
4387.5000	286.05
4388.0000	286.019
4388.5000	285.992
4389.0000	285.998
4389.5000	285.963
4390.0000	286.003
4390.5000	286.037
4391.0000	286.062
4391.5000	286.072
4392.0000	286.006
4392.5000	285.959
4393.0000	285.887
4393.5000	285.939
4394.0000	285.934
4394.5000	285.95
4395.0000	285.97
4395.5000	285.962
4396.0000	285.992
4396.5000	286.003
4397.0000	286.087
4397.5000	286.019
4398.0000	286.025
4398.5000	286.072
4399.0000	286.022
4399.5000	286.074
4400.0000	286.058
4400.5000	286.002
4401.0000	285.962
4401.5000	285.944
4402.0000	286
4402.5000	286.003
4403.0000	286.005
4403.5000	285.945
4404.0000	285.902
4404.5000	285.868
4405.0000	285.854
4405.5000	285.885
4406.0000	285.888
4406.5000	285.961
4407.0000	285.976
4407.5000	285.994
4408.0000	286.01
4408.5000	286.008
4409.0000	286.035
4409.5000	286.015
4410.0000	285.973
4410.5000	285.952
4411.0000	285.94
4411.5000	285.944
4412.0000	285.923
4412.5000	285.931
4413.0000	285.912
4413.5000	285.987
4414.0000	286.038
4414.5000	285.98
4415.0000	286.02
4415.5000	285.909
4416.0000	285.885
4416.5000	285.923
4417.0000	285.884
4417.5000	285.934
4418.0000	286.009
4418.5000	286.017
4419.0000	286.015
4419.5000	286.027
4420.0000	285.95
4420.5000	285.909
4421.0000	285.961
4421.5000	285.97
4422.0000	285.975
4422.5000	285.983
4423.0000	285.99
4423.5000	285.956
4424.0000	285.972
4424.5000	286.033
4425.0000	285.963
4425.5000	285.978
4426.0000	285.984
4426.5000	285.967
4427.0000	286.003
4427.5000	285.999
4428.0000	285.975
4428.5000	285.931
4429.0000	285.907
4429.5000	285.943
4430.0000	285.973
4430.5000	285.952
4431.0000	285.98
4431.5000	286.011
4432.0000	286.014
4432.5000	286.059
4433.0000	286.053
4433.5000	286.002
4434.0000	286.017
4434.5000	286.044
4435.0000	286.029
4435.5000	286.021
4436.0000	286.027
4436.5000	286.002
4437.0000	286.036
4437.5000	286.01
4438.0000	286.009
4438.5000	286.019
4439.0000	285.968
4439.5000	285.969
4440.0000	285.902
4440.5000	285.912
4441.0000	285.947
4441.5000	285.94
4442.0000	285.997
4442.5000	285.966
4443.0000	285.963
4443.5000	285.985
4444.0000	285.967
4444.5000	285.948
4445.0000	285.965
4445.5000	285.99
4446.0000	286.023
4446.5000	286.039
4447.0000	286.061
4447.5000	286.043
4448.0000	285.956
4448.5000	285.936
4449.0000	285.892
4449.5000	285.89
4450.0000	285.961
4450.5000	286.047
4451.0000	286.045
4451.5000	286.022
4452.0000	286.051
4452.5000	285.971
4453.0000	286.001
4453.5000	286.044
4454.0000	285.975
4454.5000	286.021
4455.0000	286.002
4455.5000	285.943
4456.0000	285.939
4456.5000	285.94
4457.0000	285.904
4457.5000	285.968
4458.0000	285.963
4458.5000	285.979
4459.0000	286.003
4459.5000	285.991
4460.0000	285.987
4460.5000	285.922
4461.0000	285.925
4461.5000	285.843
4462.0000	285.873
4462.5000	285.872
4463.0000	285.826
4463.5000	285.854
4464.0000	285.783
4464.5000	285.819
4465.0000	285.898
4465.5000	285.935
4466.0000	285.996
4466.5000	285.982
4467.0000	285.92
4467.5000	285.871
4468.0000	285.859
4468.5000	285.88
4469.0000	285.941
4469.5000	285.954
4470.0000	285.889
4470.5000	285.833
4471.0000	285.782
4471.5000	285.789
4472.0000	285.808
4472.5000	285.833
4473.0000	285.794
4473.5000	285.782
4474.0000	285.843
4474.5000	285.798
4475.0000	285.827
4475.5000	285.833
4476.0000	285.818
4476.5000	285.835
4477.0000	285.805
4477.5000	285.835
4478.0000	285.879
4478.5000	285.896
4479.0000	285.949
4479.5000	285.917
4480.0000	285.832
4480.5000	285.821
4481.0000	285.759
4481.5000	285.791
4482.0000	285.809
4482.5000	285.839
4483.0000	285.888
4483.5000	285.844
4484.0000	285.835
4484.5000	285.803
4485.0000	285.759
4485.5000	285.816
4486.0000	285.804
4486.5000	285.841
4487.0000	285.84
4487.5000	285.753
4488.0000	285.814
4488.5000	285.772
4489.0000	285.813
4489.5000	285.838
4490.0000	285.811
4490.5000	285.834
4491.0000	285.842
4491.5000	285.891
4492.0000	285.885
4492.5000	285.854
4493.0000	285.84
4493.5000	285.77
4494.0000	285.757
4494.5000	285.777
4495.0000	285.772
4495.5000	285.825
4496.0000	285.843
4496.5000	285.794
4497.0000	285.83
4497.5000	285.786
4498.0000	285.786
4498.5000	285.824
4499.0000	285.766
4499.5000	285.739
4500.0000	285.753
4500.5000	285.772
4501.0000	285.785
4501.5000	285.828
4502.0000	285.75
4502.5000	285.719
4503.0000	285.675
4503.5000	285.736
4504.0000	285.757
4504.5000	285.771
4505.0000	285.831
4505.5000	285.731
4506.0000	285.701
4506.5000	285.672
4507.0000	285.665
4507.5000	285.738
4508.0000	285.767
4508.5000	285.781
4509.0000	285.825
4509.5000	285.729
4510.0000	285.755
4510.5000	285.734
4511.0000	285.653
4511.5000	285.705
4512.0000	285.7
4512.5000	285.704
4513.0000	285.708
4513.5000	285.71
4514.0000	285.694
4514.5000	285.75
4515.0000	285.763
4515.5000	285.705
4516.0000	285.634
4516.5000	285.593
4517.0000	285.606
4517.5000	285.635
4518.0000	285.689
4518.5000	285.713
4519.0000	285.679
4519.5000	285.718
4520.0000	285.683
4520.5000	285.672
4521.0000	285.661
4521.5000	285.603
4522.0000	285.61
4522.5000	285.604
4523.0000	285.592
4523.5000	285.638
4524.0000	285.677
4524.5000	285.606
4525.0000	285.595
4525.5000	285.595
4526.0000	285.582
4526.5000	285.596
4527.0000	285.682
4527.5000	285.67
4528.0000	285.696
4528.5000	285.719
4529.0000	285.672
4529.5000	285.676
4530.0000	285.696
4530.5000	285.681
4531.0000	285.643
4531.5000	285.631
4532.0000	285.582
4532.5000	285.595
4533.0000	285.594
4533.5000	285.586
4534.0000	285.592
4534.5000	285.653
4535.0000	285.727
4535.5000	285.753
4536.0000	285.769
4536.5000	285.72
4537.0000	285.667
4537.5000	285.647
4538.0000	285.588
4538.5000	285.572
4539.0000	285.567
4539.5000	285.607
4540.0000	285.666
4540.5000	285.664
4541.0000	285.688
4541.5000	285.673
4542.0000	285.658
4542.5000	285.67
4543.0000	285.578
4543.5000	285.581
4544.0000	285.604
4544.5000	285.587
4545.0000	285.644
4545.5000	285.626
4546.0000	285.605
4546.5000	285.564
4547.0000	285.558
4547.5000	285.573
4548.0000	285.546
4548.5000	285.603
4549.0000	285.584
4549.5000	285.554
4550.0000	285.564
4550.5000	285.514
4551.0000	285.497
4551.5000	285.483
4552.0000	285.482
4552.5000	285.49
4553.0000	285.53
4553.5000	285.518
4554.0000	285.55
4554.5000	285.571
4555.0000	285.578
4555.5000	285.605
4556.0000	285.556
4556.5000	285.534
4557.0000	285.553
4557.5000	285.567
4558.0000	285.59
4558.5000	285.602
4559.0000	285.571
4559.5000	285.54
4560.0000	285.498
4560.5000	285.518
4561.0000	285.51
4561.5000	285.546
4562.0000	285.61
4562.5000	285.589
4563.0000	285.648
4563.5000	285.603
4564.0000	285.537
4564.5000	285.588
4565.0000	285.54
4565.5000	285.56
4566.0000	285.613
4566.5000	285.6
4567.0000	285.59
4567.5000	285.579
4568.0000	285.51
4568.5000	285.431
4569.0000	285.479
4569.5000	285.503
4570.0000	285.521
4570.5000	285.568
4571.0000	285.509
4571.5000	285.495
4572.0000	285.51
4572.5000	285.521
4573.0000	285.505
4573.5000	285.465
4574.0000	285.484
4574.5000	285.423
4575.0000	285.468
4575.5000	285.524
4576.0000	285.522
4576.5000	285.585
4577.0000	285.551
4577.5000	285.486
4578.0000	285.456
4578.5000	285.431
4579.0000	285.479
4579.5000	285.521
4580.0000	285.515
4580.5000	285.552
4581.0000	285.554
4581.5000	285.488
4582.0000	285.525
4582.5000	285.509
4583.0000	285.536
4583.5000	285.592
4584.0000	285.626
4584.5000	285.629
4585.0000	285.593
4585.5000	285.588
4586.0000	285.598
4586.5000	285.56
4587.0000	285.539
4587.5000	285.525
4588.0000	285.533
4588.5000	285.558
4589.0000	285.534
4589.5000	285.549
4590.0000	285.528
4590.5000	285.552
4591.0000	285.596
4591.5000	285.595
4592.0000	285.574
4592.5000	285.61
4593.0000	285.616
4593.5000	285.663
4594.0000	285.69
4594.5000	285.562
4595.0000	285.577
4595.5000	285.541
4596.0000	285.494
4596.5000	285.476
4597.0000	285.453
4597.5000	285.45
4598.0000	285.459
4598.5000	285.555
4599.0000	285.58
4599.5000	285.574
4600.0000	285.563
4600.5000	285.502
4601.0000	285.46
4601.5000	285.503
4602.0000	285.573
4602.5000	285.623
4603.0000	285.583
4603.5000	285.561
4604.0000	285.498
4604.5000	285.48
4605.0000	285.577
4605.5000	285.548
4606.0000	285.545
4606.5000	285.546
4607.0000	285.487
4607.5000	285.538
4608.0000	285.534
4608.5000	285.603
4609.0000	285.621
4609.5000	285.631
4610.0000	285.653
4610.5000	285.647
4611.0000	285.678
4611.5000	285.632
4612.0000	285.625
4612.5000	285.566
4613.0000	285.58
4613.5000	285.557
4614.0000	285.547
4614.5000	285.597
4615.0000	285.571
4615.5000	285.617
4616.0000	285.669
4616.5000	285.659
4617.0000	285.646
4617.5000	285.661
4618.0000	285.59
4618.5000	285.618
4619.0000	285.572
4619.5000	285.477
4620.0000	285.522
4620.5000	285.497
4621.0000	285.491
4621.5000	285.587
4622.0000	285.599
4622.5000	285.563
4623.0000	285.654
4623.5000	285.64
4624.0000	285.586
4624.5000	285.62
4625.0000	285.588
4625.5000	285.606
4626.0000	285.642
4626.5000	285.65
4627.0000	285.616
4627.5000	285.556
4628.0000	285.521
4628.5000	285.566
4629.0000	285.638
4629.5000	285.712
4630.0000	285.727
4630.5000	285.674
4631.0000	285.662
4631.5000	285.631
4632.0000	285.678
4632.5000	285.695
4633.0000	285.649
4633.5000	285.664
4634.0000	285.652
4634.5000	285.637
4635.0000	285.663
4635.5000	285.593
4636.0000	285.567
4636.5000	285.533
4637.0000	285.528
4637.5000	285.613
4638.0000	285.627
4638.5000	285.599
4639.0000	285.588
4639.5000	285.525
4640.0000	285.477
4640.5000	285.503
4641.0000	285.487
4641.5000	285.465
4642.0000	285.474
4642.5000	285.487
4643.0000	285.485
4643.5000	285.539
4644.0000	285.566
4644.5000	285.555
4645.0000	285.535
4645.5000	285.494
4646.0000	285.476
4646.5000	285.491
4647.0000	285.543
4647.5000	285.595
4648.0000	285.625
4648.5000	285.571
4649.0000	285.57
4649.5000	285.517
4650.0000	285.514
4650.5000	285.558
4651.0000	285.585
4651.5000	285.601
4652.0000	285.54
4652.5000	285.544
4653.0000	285.474
4653.5000	285.451
4654.0000	285.462
4654.5000	285.489
4655.0000	285.529
4655.5000	285.578
4656.0000	285.537
4656.5000	285.498
4657.0000	285.513
4657.5000	285.516
4658.0000	285.596
4658.5000	285.6
4659.0000	285.548
4659.5000	285.473
4660.0000	285.405
4660.5000	285.406
4661.0000	285.438
4661.5000	285.445
4662.0000	285.498
4662.5000	285.505
4663.0000	285.513
4663.5000	285.518
4664.0000	285.484
4664.5000	285.435
4665.0000	285.442
4665.5000	285.514
4666.0000	285.527
4666.5000	285.558
4667.0000	285.513
4667.5000	285.46
4668.0000	285.451
4668.5000	285.482
4669.0000	285.544
4669.5000	285.584
4670.0000	285.62
4670.5000	285.544
4671.0000	285.46
4671.5000	285.437
4672.0000	285.451
4672.5000	285.474
4673.0000	285.479
4673.5000	285.454
4674.0000	285.408
4674.5000	285.434
4675.0000	285.444
4675.5000	285.442
4676.0000	285.476
4676.5000	285.482
4677.0000	285.48
4677.5000	285.457
4678.0000	285.392
4678.5000	285.38
4679.0000	285.375
4679.5000	285.363
4680.0000	285.379
4680.5000	285.321
4681.0000	285.292
4681.5000	285.285
4682.0000	285.304
4682.5000	285.359
4683.0000	285.33
4683.5000	285.338
4684.0000	285.311
4684.5000	285.281
4685.0000	285.314
4685.5000	285.357
4686.0000	285.365
4686.5000	285.38
4687.0000	285.457
4687.5000	285.416
4688.0000	285.431
4688.5000	285.432
4689.0000	285.328
4689.5000	285.361
4690.0000	285.317
4690.5000	285.245
4691.0000	285.28
4691.5000	285.275
4692.0000	285.309
4692.5000	285.337
4693.0000	285.33
4693.5000	285.267
4694.0000	285.215
4694.5000	285.24
4695.0000	285.198
4695.5000	285.258
4696.0000	285.311
4696.5000	285.283
4697.0000	285.286
4697.5000	285.252
4698.0000	285.195
4698.5000	285.251
4699.0000	285.221
4699.5000	285.249
4700.0000	285.252
4700.5000	285.219
4701.0000	285.244
4701.5000	285.243
4702.0000	285.257
4702.5000	285.234
4703.0000	285.291
4703.5000	285.24
4704.0000	285.213
4704.5000	285.193
4705.0000	285.163
4705.5000	285.167
4706.0000	285.182
4706.5000	285.197
4707.0000	285.195
4707.5000	285.172
4708.0000	285.205
4708.5000	285.211
4709.0000	285.188
4709.5000	285.19
4710.0000	285.17
4710.5000	285.128
4711.0000	285.089
4711.5000	285.125
4712.0000	285.114
4712.5000	285.165
4713.0000	285.218
4713.5000	285.175
4714.0000	285.139
4714.5000	285.163
4715.0000	285.176
4715.5000	285.145
4716.0000	285.171
4716.5000	285.098
4717.0000	285.081
4717.5000	285.122
4718.0000	285.116
4718.5000	285.123
4719.0000	285.092
4719.5000	285.084
4720.0000	285.114
4720.5000	285.088
4721.0000	285.144
4721.5000	285.167
4722.0000	285.197
4722.5000	285.327
4723.0000	285.297
4723.5000	285.262
4724.0000	285.186
4724.5000	285.1
4725.0000	285.073
4725.5000	285.117
4726.0000	285.093
4726.5000	285.13
4727.0000	285.14
4727.5000	285.066
4728.0000	285.075
4728.5000	285.037
4729.0000	285.03
4729.5000	285.057
4730.0000	285.057
4730.5000	284.993
4731.0000	284.929
4731.5000	284.926
4732.0000	284.946
4732.5000	285.012
4733.0000	285.06
4733.5000	285.053
4734.0000	285.077
4734.5000	285.07
4735.0000	285.071
4735.5000	285.08
4736.0000	285.023
4736.5000	284.972
4737.0000	284.997
4737.5000	284.994
4738.0000	285.035
4738.5000	285.083
4739.0000	285.119
4739.5000	285.121
4740.0000	285.045
4740.5000	285.035
4741.0000	285.003
4741.5000	284.949
4742.0000	284.996
4742.5000	285
4743.0000	285.005
4743.5000	285.057
4744.0000	285.019
4744.5000	285.029
4745.0000	285.02
4745.5000	285.018
4746.0000	285.085
4746.5000	285.098
4747.0000	285.101
4747.5000	285.122
4748.0000	285.08
4748.5000	285.016
4749.0000	285.003
4749.5000	284.96
4750.0000	284.942
4750.5000	284.991
4751.0000	284.956
4751.5000	285.032
4752.0000	285.05
4752.5000	285.006
4753.0000	285.034
4753.5000	285.003
4754.0000	285.019
4754.5000	284.981
4755.0000	284.943
4755.5000	284.885
4756.0000	284.885
4756.5000	284.893
4757.0000	284.915
4757.5000	284.989
4758.0000	284.97
4758.5000	285.023
4759.0000	285.049
4759.5000	285.003
4760.0000	285.046
4760.5000	285.066
4761.0000	285.021
4761.5000	285.013
4762.0000	285.034
4762.5000	285.036
4763.0000	285.067
4763.5000	285.06
4764.0000	285.001
4764.5000	284.945
4765.0000	284.978
4765.5000	285.015
4766.0000	285.05
4766.5000	285.073
4767.0000	285.07
4767.5000	285.034
4768.0000	284.965
4768.5000	284.94
4769.0000	284.919
4769.5000	284.943
4770.0000	284.94
4770.5000	284.969
4771.0000	284.975
4771.5000	284.966
4772.0000	284.981
4772.5000	284.921
4773.0000	284.896
4773.5000	284.94
4774.0000	284.976
4774.5000	284.941
4775.0000	284.975
4775.5000	284.945
4776.0000	284.924
4776.5000	285.008
4777.0000	285.047
4777.5000	285.053
4778.0000	285.024
4778.5000	285.04
4779.0000	285.01
4779.5000	284.986
4780.0000	285.067
4780.5000	285.083
4781.0000	285.048
4781.5000	285.087
4782.0000	285.016
4782.5000	284.977
4783.0000	284.951
4783.5000	284.96
4784.0000	284.989
4784.5000	285.005
4785.0000	285.003
4785.5000	284.972
4786.0000	284.994
4786.5000	284.998
4787.0000	285.021
4787.5000	285
4788.0000	285.043
4788.5000	285.007
4789.0000	285.036
4789.5000	285.059
4790.0000	285.01
4790.5000	285.072
4791.0000	285.069
4791.5000	285.036
4792.0000	285.057
4792.5000	285.044
4793.0000	285.039
4793.5000	285.061
4794.0000	285.048
4794.5000	285.087
4795.0000	285.102
4795.5000	285.134
4796.0000	285.093
4796.5000	285.077
4797.0000	285.126
4797.5000	285.117
4798.0000	285.181
4798.5000	285.183
4799.0000	285.165
4799.5000	285.172
4800.0000	285.156
4800.5000	285.207
4801.0000	285.197
4801.5000	285.234
4802.0000	285.195
4802.5000	285.156
4803.0000	285.143
4803.5000	285.068
4804.0000	285.081
4804.5000	285.042
4805.0000	284.989
4805.5000	285.09
4806.0000	285.111
4806.5000	285.116
4807.0000	285.192
4807.5000	285.147
4808.0000	285.201
4808.5000	285.195
4809.0000	285.152
4809.5000	285.173
4810.0000	285.102
4810.5000	285.134
4811.0000	285.141
4811.5000	285.079
4812.0000	285.137
4812.5000	285.144
4813.0000	285.128
4813.5000	285.261
4814.0000	285.205
4814.5000	285.195
4815.0000	285.271
4815.5000	285.165
4816.0000	285.239
4816.5000	285.192
4817.0000	285.153
4817.5000	285.201
4818.0000	285.169
4818.5000	285.151
4819.0000	285.095
4819.5000	285.059
4820.0000	285.098
4820.5000	285.191
4821.0000	285.235
4821.5000	285.256
4822.0000	285.193
4822.5000	285.177
4823.0000	285.169
4823.5000	285.083
4824.0000	285.186
4824.5000	285.163
4825.0000	285.153
4825.5000	285.183
4826.0000	285.067
4826.5000	285.108
4827.0000	285.203
4827.5000	285.257
4828.0000	285.246
4828.5000	285.212
4829.0000	285.108
4829.5000	285.096
4830.0000	285.085
4830.5000	285.118
4831.0000	285.083
4831.5000	285.086
4832.0000	285.107
4832.5000	285.075
4833.0000	285.075
4833.5000	285.041
4834.0000	285.084
4834.5000	285.06
4835.0000	285.133
4835.5000	285.155
4836.0000	285.114
4836.5000	285.167
4837.0000	285.184
4837.5000	285.248
4838.0000	285.287
4838.5000	285.191
4839.0000	285.156
4839.5000	285.103
4840.0000	285.119
4840.5000	285.21
4841.0000	285.199
4841.5000	285.211
4842.0000	285.202
4842.5000	285.201
4843.0000	285.208
4843.5000	285.2
4844.0000	285.173
4844.5000	285.154
4845.0000	285.183
4845.5000	285.164
4846.0000	285.203
4846.5000	285.184
4847.0000	285.127
4847.5000	285.12
4848.0000	285.068
4848.5000	285.099
4849.0000	285.157
4849.5000	285.141
4850.0000	285.157
4850.5000	285.126
4851.0000	285.055
4851.5000	285.025
4852.0000	285.016
4852.5000	285.05
4853.0000	285.04
4853.5000	285.085
4854.0000	285.09
4854.5000	285.019
4855.0000	285.074
4855.5000	285.06
4856.0000	285.059
4856.5000	285.028
4857.0000	284.959
4857.5000	284.933
4858.0000	284.908
4858.5000	284.958
4859.0000	285.034
4859.5000	284.997
4860.0000	285.004
4860.5000	285.041
4861.0000	285.003
4861.5000	285.027
4862.0000	285.049
4862.5000	285.027
4863.0000	285.016
4863.5000	285.043
4864.0000	284.989
4864.5000	284.98
4865.0000	284.951
4865.5000	284.947
4866.0000	284.982
4866.5000	284.943
4867.0000	284.963
4867.5000	284.947
4868.0000	284.911
4868.5000	284.956
4869.0000	285.009
4869.5000	284.994
4870.0000	285.01
4870.5000	285.045
4871.0000	284.934
4871.5000	284.919
4872.0000	284.912
4872.5000	284.868
4873.0000	284.922
4873.5000	284.943
4874.0000	284.975
4874.5000	284.977
4875.0000	284.964
4875.5000	284.935
4876.0000	284.939
4876.5000	284.906
4877.0000	284.896
4877.5000	284.953
4878.0000	284.967
4878.5000	284.995
4879.0000	285.018
4879.5000	284.993
4880.0000	284.944
4880.5000	284.899
4881.0000	284.953
4881.5000	284.913
4882.0000	284.907
4882.5000	284.875
4883.0000	284.861
4883.5000	284.906
4884.0000	284.929
4884.5000	284.952
4885.0000	284.903
4885.5000	284.827
4886.0000	284.831
4886.5000	284.819
4887.0000	284.785
4887.5000	284.812
4888.0000	284.765
4888.5000	284.735
4889.0000	284.717
4889.5000	284.793
4890.0000	284.808
4890.5000	284.84
4891.0000	284.851
4891.5000	284.87
4892.0000	284.828
4892.5000	284.871
4893.0000	284.923
4893.5000	284.841
4894.0000	284.855
4894.5000	284.81
4895.0000	284.799
4895.5000	284.82
4896.0000	284.827
4896.5000	284.847
4897.0000	284.847
4897.5000	284.814
4898.0000	284.8
4898.5000	284.791
4899.0000	284.773
4899.5000	284.717
4900.0000	284.689
4900.5000	284.661
4901.0000	284.655
4901.5000	284.703
4902.0000	284.725
4902.5000	284.755
4903.0000	284.683
4903.5000	284.658
4904.0000	284.655
4904.5000	284.627
4905.0000	284.706
4905.5000	284.759
4906.0000	284.767
4906.5000	284.775
4907.0000	284.726
4907.5000	284.681
4908.0000	284.672
4908.5000	284.65
4909.0000	284.628
4909.5000	284.649
4910.0000	284.62
4910.5000	284.611
4911.0000	284.687
4911.5000	284.718
4912.0000	284.71
4912.5000	284.769
4913.0000	284.722
4913.5000	284.666
4914.0000	284.674
4914.5000	284.613
4915.0000	284.629
4915.5000	284.608
4916.0000	284.583
4916.5000	284.647
4917.0000	284.634
4917.5000	284.676
4918.0000	284.681
4918.5000	284.617
4919.0000	284.573
4919.5000	284.55
4920.0000	284.549
4920.5000	284.565
4921.0000	284.619
4921.5000	284.599
4922.0000	284.65
4922.5000	284.626
4923.0000	284.628
4923.5000	284.623
4924.0000	284.615
4924.5000	284.604
4925.0000	284.632
4925.5000	284.652
4926.0000	284.622
4926.5000	284.657
4927.0000	284.636
4927.5000	284.652
4928.0000	284.648
4928.5000	284.641
4929.0000	284.655
4929.5000	284.666
4930.0000	284.699
4930.5000	284.667
4931.0000	284.61
4931.5000	284.583
4932.0000	284.552
4932.5000	284.586
4933.0000	284.607
4933.5000	284.495
4934.0000	284.485
4934.5000	284.448
4935.0000	284.425
4935.5000	284.552
4936.0000	284.542
4936.5000	284.583
4937.0000	284.644
4937.5000	284.615
4938.0000	284.653
4938.5000	284.638
4939.0000	284.581
4939.5000	284.57
4940.0000	284.524
4940.5000	284.537
4941.0000	284.545
4941.5000	284.577
4942.0000	284.668
4942.5000	284.619
4943.0000	284.621
4943.5000	284.608
4944.0000	284.513
4944.5000	284.536
4945.0000	284.522
4945.5000	284.493
4946.0000	284.537
4946.5000	284.496
4947.0000	284.527
4947.5000	284.524
4948.0000	284.541
4948.5000	284.602
4949.0000	284.557
4949.5000	284.57
4950.0000	284.537
4950.5000	284.493
4951.0000	284.52
4951.5000	284.546
4952.0000	284.574
4952.5000	284.613
4953.0000	284.629
4953.5000	284.551
4954.0000	284.496
4954.5000	284.463
4955.0000	284.43
4955.5000	284.441
4956.0000	284.472
4956.5000	284.442
4957.0000	284.441
4957.5000	284.471
4958.0000	284.458
4958.5000	284.487
4959.0000	284.525
4959.5000	284.56
4960.0000	284.502
4960.5000	284.497
4961.0000	284.461
4961.5000	284.469
4962.0000	284.57
4962.5000	284.63
4963.0000	284.618
4963.5000	284.614
4964.0000	284.587
4964.5000	284.549
4965.0000	284.568
4965.5000	284.585
4966.0000	284.575
4966.5000	284.593
4967.0000	284.545
4967.5000	284.526
4968.0000	284.561
4968.5000	284.539
4969.0000	284.572
4969.5000	284.542
4970.0000	284.523
4970.5000	284.545
4971.0000	284.512
4971.5000	284.543
4972.0000	284.508
4972.5000	284.514
4973.0000	284.553
4973.5000	284.508
4974.0000	284.58
4974.5000	284.541
4975.0000	284.509
4975.5000	284.513
4976.0000	284.458
4976.5000	284.457
4977.0000	284.478
4977.5000	284.522
4978.0000	284.541
4978.5000	284.562
4979.0000	284.546
4979.5000	284.548
4980.0000	284.543
4980.5000	284.526
4981.0000	284.552
4981.5000	284.486
4982.0000	284.497
4982.5000	284.494
4983.0000	284.491
4983.5000	284.567
4984.0000	284.529
4984.5000	284.578
4985.0000	284.571
4985.5000	284.545
4986.0000	284.577
4986.5000	284.561
4987.0000	284.59
4987.5000	284.575
4988.0000	284.553
4988.5000	284.542
4989.0000	284.51
4989.5000	284.51
4990.0000	284.532
4990.5000	284.523
4991.0000	284.545
4991.5000	284.56
4992.0000	284.562
4992.5000	284.523
4993.0000	284.529
4993.5000	284.554
4994.0000	284.585
4994.5000	284.646
4995.0000	284.611
4995.5000	284.585
4996.0000	284.544
4996.5000	284.529
4997.0000	284.542
4997.5000	284.52
4998.0000	284.569
4998.5000	284.595
4999.0000	284.62
4999.5000	284.623
5000.0000	284.587
