TITLE	
DATA TYPE	
ORIGIN	JASCO
OWNER	
DATE	22/08/25
TIME	14:23:47
SPECTROMETER/DATA SYSTEM	
RESOLUTION	
DELTAX	0.5
XUNITS	SEC
YUNITS	INTENSITY
FIRSTX	0.0000
LASTX	1645.0000
NPOINTS	3291
FIRSTY	503.21786
MAXY	534.12012
MINY	-54.44354
XYDATA
0.0000	503.218
0.5000	503.263
1.0000	503.265
1.5000	503.154
2.0000	503.1
2.5000	502.937
3.0000	502.929
3.5000	503.01
4.0000	503.023
4.5000	502.977
5.0000	502.915
5.5000	502.765
6.0000	502.702
6.5000	502.711
7.0000	502.685
7.5000	502.747
8.0000	502.719
8.5000	502.801
9.0000	502.706
9.5000	502.584
10.0000	502.581
10.5000	502.54
11.0000	502.61
11.5000	502.662
12.0000	502.674
12.5000	502.563
13.0000	502.533
13.5000	502.487
14.0000	502.369
14.5000	502.392
15.0000	502.351
15.5000	502.311
16.0000	502.303
16.5000	502.057
17.0000	491.623
17.5000	473.141
18.0000	425.475
18.5000	-39.4785
19.0000	-54.4435
19.5000	-36.5913
20.0000	-32.3729
20.5000	-30.6715
21.0000	-29.6737
21.5000	-29.0706
22.0000	-28.6447
22.5000	-28.164
23.0000	-27.7054
23.5000	-27.3833
24.0000	-26.9955
24.5000	-26.9508
25.0000	-26.8417
25.5000	106.739
26.0000	279.506
26.5000	273.676
27.0000	271.333
27.5000	263.927
28.0000	252.495
28.5000	252.514
29.0000	252.73
29.5000	253.035
30.0000	253.375
30.5000	253.691
31.0000	254.085
31.5000	254.46
32.0000	254.831
32.5000	255.301
33.0000	255.707
33.5000	256.1
34.0000	256.52
34.5000	256.879
35.0000	257.211
35.5000	257.603
36.0000	257.995
36.5000	258.376
37.0000	258.834
37.5000	259.247
38.0000	259.65
38.5000	260.042
39.0000	260.428
39.5000	260.77
40.0000	261.179
40.5000	261.574
41.0000	261.978
41.5000	262.43
42.0000	262.831
42.5000	263.269
43.0000	263.62
43.5000	263.995
44.0000	264.374
44.5000	264.728
45.0000	265.106
45.5000	265.474
46.0000	265.817
46.5000	266.175
47.0000	266.596
47.5000	266.993
48.0000	267.385
48.5000	267.791
49.0000	268.15
49.5000	268.539
50.0000	268.913
50.5000	269.296
51.0000	269.687
51.5000	270.032
52.0000	270.425
52.5000	270.8
53.0000	271.123
53.5000	271.532
54.0000	271.901
54.5000	272.277
55.0000	272.728
55.5000	273.093
56.0000	273.5
56.5000	273.924
57.0000	274.248
57.5000	274.651
58.0000	275
58.5000	275.333
59.0000	275.757
59.5000	276.127
60.0000	276.548
60.5000	276.933
61.0000	277.307
61.5000	277.67
62.0000	278.01
62.5000	278.376
63.0000	278.757
63.5000	279.158
64.0000	279.506
64.5000	279.864
65.0000	280.222
65.5000	280.546
66.0000	280.905
66.5000	281.3
67.0000	281.635
67.5000	281.989
68.0000	282.38
68.5000	282.799
69.0000	283.231
69.5000	283.634
70.0000	283.996
70.5000	284.263
71.0000	284.572
71.5000	284.928
72.0000	285.306
72.5000	285.721
73.0000	286.079
73.5000	286.45
74.0000	286.857
74.5000	287.17
75.0000	287.588
75.5000	287.965
76.0000	288.294
76.5000	288.673
77.0000	288.979
77.5000	289.286
78.0000	289.643
78.5000	290.011
79.0000	290.378
79.5000	290.765
80.0000	291.143
80.5000	291.524
81.0000	291.924
81.5000	292.269
82.0000	292.625
82.5000	292.978
83.0000	293.291
83.5000	293.667
84.0000	294.038
84.5000	294.405
85.0000	294.767
85.5000	295.086
86.0000	295.396
86.5000	295.711
87.0000	296.054
87.5000	296.463
88.0000	296.792
88.5000	297.159
89.0000	297.52
89.5000	297.811
90.0000	298.138
90.5000	298.484
91.0000	298.795
91.5000	299.143
92.0000	299.552
92.5000	299.882
93.0000	300.232
93.5000	300.604
94.0000	300.928
94.5000	301.322
95.0000	301.709
95.5000	302.045
96.0000	302.343
96.5000	302.672
97.0000	303.033
97.5000	303.366
98.0000	303.753
98.5000	304.08
99.0000	304.364
99.5000	304.735
100.0000	305.079
100.5000	305.448
101.0000	305.83
101.5000	306.138
102.0000	306.481
102.5000	306.747
103.0000	307.028
103.5000	307.396
104.0000	307.717
104.5000	308.095
105.0000	308.446
105.5000	308.76
106.0000	309.092
106.5000	309.431
107.0000	309.779
107.5000	310.126
108.0000	310.47
108.5000	310.751
109.0000	311.079
109.5000	311.415
110.0000	311.728
110.5000	312.064
111.0000	312.386
111.5000	312.647
112.0000	312.969
112.5000	313.343
113.0000	313.651
113.5000	314.019
114.0000	314.385
114.5000	314.662
115.0000	314.989
115.5000	315.311
116.0000	315.586
116.5000	315.933
117.0000	316.258
117.5000	316.593
118.0000	316.915
118.5000	317.206
119.0000	317.555
119.5000	317.883
120.0000	318.187
120.5000	318.48
121.0000	318.76
121.5000	318.995
122.0000	319.316
122.5000	319.658
123.0000	319.97
123.5000	320.326
124.0000	320.645
124.5000	320.973
125.0000	321.329
125.5000	321.622
126.0000	321.933
126.5000	322.259
127.0000	322.554
127.5000	322.924
128.0000	323.251
128.5000	323.531
129.0000	323.811
129.5000	324.133
130.0000	324.427
130.5000	324.728
131.0000	325.065
131.5000	325.327
132.0000	325.632
132.5000	325.968
133.0000	326.28
133.5000	326.623
134.0000	326.914
134.5000	327.194
135.0000	327.481
135.5000	327.724
136.0000	328.022
136.5000	328.363
137.0000	328.617
137.5000	328.923
138.0000	329.232
138.5000	329.489
139.0000	329.845
139.5000	330.184
140.0000	330.513
140.5000	330.828
141.0000	331.102
141.5000	331.36
142.0000	331.64
142.5000	331.928
143.0000	332.182
143.5000	332.487
144.0000	332.776
144.5000	333.099
145.0000	333.444
145.5000	333.701
146.0000	334.002
146.5000	334.234
147.0000	334.527
147.5000	334.81
148.0000	335.066
148.5000	335.38
149.0000	335.644
149.5000	335.976
150.0000	336.297
150.5000	336.577
151.0000	336.852
151.5000	337.112
152.0000	337.353
152.5000	337.605
153.0000	337.946
153.5000	338.199
154.0000	338.529
154.5000	338.823
155.0000	339.063
155.5000	339.341
156.0000	339.585
156.5000	339.863
157.0000	340.165
157.5000	340.518
158.0000	340.841
158.5000	341.125
159.0000	341.397
159.5000	341.655
160.0000	341.853
160.5000	342.15
161.0000	342.465
161.5000	342.719
162.0000	343.086
162.5000	343.338
163.0000	343.563
163.5000	343.852
164.0000	344.091
164.5000	344.418
165.0000	344.721
165.5000	345.051
166.0000	345.375
166.5000	345.652
167.0000	345.932
167.5000	346.139
168.0000	346.344
168.5000	346.591
169.0000	346.837
169.5000	347.138
170.0000	347.463
170.5000	347.674
171.0000	347.903
171.5000	348.139
172.0000	348.362
172.5000	348.706
173.0000	349.038
173.5000	349.311
174.0000	349.571
174.5000	349.746
175.0000	349.946
175.5000	350.211
176.0000	350.473
176.5000	350.848
177.0000	351.118
177.5000	351.358
178.0000	351.584
178.5000	351.775
179.0000	352.023
179.5000	352.302
180.0000	352.623
180.5000	352.909
181.0000	353.195
181.5000	353.452
182.0000	353.673
182.5000	353.936
183.0000	354.182
183.5000	354.459
184.0000	354.719
184.5000	354.951
185.0000	355.274
185.5000	355.508
186.0000	355.787
186.5000	356.014
187.0000	356.203
187.5000	356.459
188.0000	356.73
188.5000	357.027
189.0000	357.279
189.5000	357.504
190.0000	357.737
190.5000	357.979
191.0000	358.237
191.5000	358.574
192.0000	358.783
192.5000	359.012
193.0000	359.297
193.5000	359.49
194.0000	359.773
194.5000	360.029
195.0000	360.18
195.5000	360.406
196.0000	360.656
196.5000	360.935
197.0000	361.234
197.5000	361.455
198.0000	361.68
198.5000	361.864
199.0000	362.11
199.5000	362.358
200.0000	362.586
200.5000	362.906
201.0000	363.192
201.5000	363.468
202.0000	363.748
202.5000	363.907
203.0000	364.084
203.5000	364.329
204.0000	364.539
204.5000	364.826
205.0000	365.107
205.5000	365.321
206.0000	365.551
206.5000	365.777
207.0000	365.995
207.5000	366.278
208.0000	366.542
208.5000	366.775
209.0000	366.998
209.5000	367.198
210.0000	367.449
210.5000	367.719
211.0000	367.971
211.5000	368.197
212.0000	368.425
212.5000	368.608
213.0000	368.849
213.5000	369.085
214.0000	369.333
214.5000	369.601
215.0000	369.807
215.5000	370.039
216.0000	370.224
216.5000	370.455
217.0000	370.715
217.5000	370.968
218.0000	371.201
218.5000	371.451
219.0000	371.619
219.5000	371.816
220.0000	372.11
220.5000	372.242
221.0000	372.523
221.5000	372.764
222.0000	372.921
222.5000	373.229
223.0000	373.446
223.5000	373.683
224.0000	373.913
224.5000	374.11
225.0000	374.363
225.5000	374.585
226.0000	374.84
226.5000	375.036
227.0000	375.205
227.5000	375.43
228.0000	375.595
228.5000	375.868
229.0000	376.169
229.5000	376.365
230.0000	376.641
230.5000	376.838
231.0000	377.054
231.5000	377.284
232.0000	377.537
232.5000	377.74
233.0000	377.913
233.5000	378.123
234.0000	378.273
234.5000	378.514
235.0000	378.781
235.5000	379.028
236.0000	379.193
236.5000	379.383
237.0000	379.546
237.5000	379.78
238.0000	380.094
238.5000	380.317
239.0000	380.485
239.5000	380.66
240.0000	380.797
240.5000	380.961
241.0000	381.229
241.5000	381.459
242.0000	381.714
242.5000	381.975
243.0000	382.149
243.5000	382.326
244.0000	382.518
244.5000	382.718
245.0000	382.963
245.5000	383.215
246.0000	383.443
246.5000	383.616
247.0000	383.85
247.5000	384.027
248.0000	384.209
248.5000	384.503
249.0000	384.681
249.5000	384.894
250.0000	385.121
250.5000	385.288
251.0000	385.525
251.5000	385.794
252.0000	386.005
252.5000	386.217
253.0000	386.38
253.5000	386.513
254.0000	386.69
254.5000	386.856
255.0000	387.062
255.5000	387.323
256.0000	387.544
256.5000	387.814
257.0000	388.083
257.5000	388.265
258.0000	388.451
258.5000	388.657
259.0000	388.826
259.5000	388.93
260.0000	389.127
260.5000	389.345
261.0000	389.521
261.5000	389.792
262.0000	390.007
262.5000	390.157
263.0000	390.424
263.5000	390.65
264.0000	390.869
264.5000	391.11
265.0000	391.218
265.5000	391.425
266.0000	391.625
266.5000	391.799
267.0000	391.989
267.5000	392.189
268.0000	392.394
268.5000	392.538
269.0000	392.71
269.5000	392.862
270.0000	393.025
270.5000	393.242
271.0000	393.448
271.5000	393.626
272.0000	393.855
272.5000	394.057
273.0000	394.277
273.5000	394.504
274.0000	394.674
274.5000	394.869
275.0000	395.067
275.5000	395.264
276.0000	395.481
276.5000	395.666
277.0000	395.886
277.5000	396.076
278.0000	396.244
278.5000	396.465
279.0000	396.703
279.5000	396.873
280.0000	397.053
280.5000	397.243
281.0000	397.404
281.5000	397.583
282.0000	397.784
282.5000	397.975
283.0000	398.197
283.5000	398.427
284.0000	398.568
284.5000	398.774
285.0000	398.966
285.5000	399.182
286.0000	399.476
286.5000	399.652
287.0000	399.76
287.5000	399.875
288.0000	400.052
288.5000	400.237
289.0000	400.465
289.5000	400.679
290.0000	400.791
290.5000	400.966
291.0000	401.172
291.5000	401.418
292.0000	401.565
292.5000	401.744
293.0000	401.921
293.5000	402.036
294.0000	402.283
294.5000	402.469
295.0000	402.654
295.5000	402.883
296.0000	403.021
296.5000	403.232
297.0000	403.345
297.5000	403.521
298.0000	403.772
298.5000	403.924
299.0000	404.141
299.5000	404.275
300.0000	404.486
300.5000	404.707
301.0000	404.921
301.5000	405.08
302.0000	405.23
302.5000	405.354
303.0000	405.525
303.5000	405.775
304.0000	405.941
304.5000	406.162
305.0000	406.292
305.5000	406.475
306.0000	406.614
306.5000	406.746
307.0000	406.975
307.5000	407.13
308.0000	407.342
308.5000	407.55
309.0000	407.712
309.5000	407.905
310.0000	408.113
310.5000	408.266
311.0000	408.418
311.5000	408.583
312.0000	408.705
312.5000	408.901
313.0000	409.068
313.5000	409.222
314.0000	409.448
314.5000	409.621
315.0000	409.784
315.5000	409.976
316.0000	410.148
316.5000	410.39
317.0000	410.571
317.5000	410.713
318.0000	410.922
318.5000	410.951
319.0000	411.089
319.5000	411.322
320.0000	411.386
320.5000	411.606
321.0000	411.786
321.5000	411.896
322.0000	412.12
322.5000	412.279
323.0000	412.495
323.5000	412.737
324.0000	412.928
324.5000	413.147
325.0000	413.307
325.5000	413.422
326.0000	413.535
326.5000	413.71
327.0000	413.851
327.5000	414.071
328.0000	414.28
328.5000	414.38
329.0000	414.563
329.5000	414.684
330.0000	414.885
330.5000	415.135
331.0000	415.277
331.5000	415.411
332.0000	415.464
332.5000	415.649
333.0000	415.855
333.5000	416.09
334.0000	416.298
334.5000	416.392
335.0000	416.55
335.5000	416.644
336.0000	416.835
336.5000	416.988
337.0000	417.201
337.5000	417.437
338.0000	417.532
338.5000	417.719
339.0000	417.832
339.5000	417.952
340.0000	418.198
340.5000	418.351
341.0000	418.501
341.5000	418.636
342.0000	418.755
342.5000	418.949
343.0000	419.155
343.5000	419.342
344.0000	419.498
344.5000	419.648
345.0000	419.776
345.5000	419.835
346.0000	419.974
346.5000	420.139
347.0000	420.24
347.5000	420.526
348.0000	420.803
348.5000	420.93
349.0000	421.153
349.5000	421.29
350.0000	421.377
350.5000	421.57
351.0000	421.699
351.5000	421.885
352.0000	422.014
352.5000	422.136
353.0000	422.343
353.5000	422.501
354.0000	422.642
354.5000	422.749
355.0000	422.886
355.5000	423.037
356.0000	423.197
356.5000	423.408
357.0000	423.537
357.5000	423.642
358.0000	423.832
358.5000	423.945
359.0000	424.056
359.5000	424.254
360.0000	424.397
360.5000	424.573
361.0000	424.794
361.5000	424.875
362.0000	425.006
362.5000	425.211
363.0000	425.332
363.5000	425.504
364.0000	425.645
364.5000	425.697
365.0000	425.904
365.5000	426.003
366.0000	426.165
366.5000	426.279
367.0000	426.389
367.5000	426.577
368.0000	426.751
368.5000	426.955
369.0000	427.127
369.5000	427.264
370.0000	427.348
370.5000	427.558
371.0000	427.668
371.5000	427.872
372.0000	428.082
372.5000	428.181
373.0000	428.371
373.5000	428.559
374.0000	428.682
374.5000	428.853
375.0000	428.935
375.5000	429.028
376.0000	429.143
376.5000	429.297
377.0000	429.529
377.5000	429.656
378.0000	429.788
378.5000	429.888
379.0000	429.963
379.5000	430.105
380.0000	430.322
380.5000	430.445
381.0000	430.537
381.5000	430.726
382.0000	430.861
382.5000	431.047
383.0000	431.254
383.5000	431.365
384.0000	431.528
384.5000	431.637
385.0000	431.778
385.5000	431.917
386.0000	432.027
386.5000	432.257
387.0000	432.391
387.5000	432.49
388.0000	432.597
388.5000	432.677
389.0000	432.761
389.5000	432.863
390.0000	432.979
390.5000	433.058
391.0000	433.241
391.5000	433.38
392.0000	433.502
392.5000	433.631
393.0000	433.84
393.5000	433.98
394.0000	434.178
394.5000	434.359
395.0000	434.43
395.5000	434.573
396.0000	434.738
396.5000	434.884
397.0000	435.009
397.5000	435.175
398.0000	435.295
398.5000	435.432
399.0000	435.59
399.5000	435.718
400.0000	435.854
400.5000	435.955
401.0000	436.073
401.5000	436.24
402.0000	436.343
402.5000	436.515
403.0000	436.637
403.5000	436.809
404.0000	436.988
404.5000	437.121
405.0000	437.281
405.5000	437.43
406.0000	437.492
406.5000	437.551
407.0000	437.628
407.5000	437.699
408.0000	437.78
408.5000	437.97
409.0000	438.135
409.5000	438.328
410.0000	438.56
410.5000	438.77
411.0000	438.943
411.5000	438.994
412.0000	439.132
412.5000	439.199
413.0000	439.247
413.5000	439.381
414.0000	439.538
414.5000	439.58
415.0000	439.757
415.5000	439.913
416.0000	440.015
416.5000	440.255
417.0000	440.387
417.5000	440.507
418.0000	440.6
418.5000	440.787
419.0000	440.924
419.5000	441.051
420.0000	441.23
420.5000	441.279
421.0000	441.396
421.5000	441.469
422.0000	441.598
422.5000	441.755
423.0000	441.87
423.5000	442.043
424.0000	442.138
424.5000	442.254
425.0000	442.382
425.5000	442.517
426.0000	442.618
426.5000	442.743
427.0000	442.909
427.5000	443.058
428.0000	443.209
428.5000	443.349
429.0000	443.479
429.5000	443.588
430.0000	443.665
430.5000	443.752
431.0000	443.925
431.5000	444.016
432.0000	444.222
432.5000	444.418
433.0000	444.449
433.5000	444.631
434.0000	444.81
434.5000	444.757
435.0000	444.882
435.5000	444.976
436.0000	444.994
436.5000	445.23
437.0000	445.41
437.5000	445.558
438.0000	445.672
438.5000	445.738
439.0000	445.872
439.5000	445.992
440.0000	446.161
440.5000	446.344
441.0000	446.431
441.5000	446.519
442.0000	446.601
442.5000	446.743
443.0000	446.82
443.5000	446.94
444.0000	447.087
444.5000	447.19
445.0000	447.326
445.5000	447.44
446.0000	447.535
446.5000	447.683
447.0000	447.858
447.5000	447.947
448.0000	448.161
448.5000	448.257
449.0000	448.327
449.5000	448.538
450.0000	448.56
450.5000	448.706
451.0000	448.849
451.5000	448.914
452.0000	449.128
452.5000	449.199
453.0000	449.294
453.5000	449.392
454.0000	449.384
454.5000	449.465
455.0000	449.574
455.5000	449.692
456.0000	449.859
456.5000	449.989
457.0000	450.098
457.5000	450.249
458.0000	450.331
458.5000	450.455
459.0000	450.598
459.5000	450.667
460.0000	450.884
460.5000	450.978
461.0000	451.067
461.5000	451.185
462.0000	451.244
462.5000	451.428
463.0000	451.585
463.5000	451.716
464.0000	451.819
464.5000	451.902
465.0000	452.028
465.5000	452.193
466.0000	452.293
466.5000	452.374
467.0000	452.475
467.5000	452.577
468.0000	452.696
468.5000	452.844
469.0000	453
469.5000	453.038
470.0000	453.107
470.5000	453.189
471.0000	453.267
471.5000	453.495
472.0000	453.611
472.5000	453.672
473.0000	453.78
473.5000	453.764
474.0000	453.891
474.5000	454.075
475.0000	454.155
475.5000	454.286
476.0000	454.409
476.5000	454.493
477.0000	454.522
477.5000	454.569
478.0000	454.666
478.5000	454.781
479.0000	454.977
479.5000	455.225
480.0000	455.361
480.5000	455.437
481.0000	455.52
481.5000	455.58
482.0000	455.698
482.5000	455.81
483.0000	455.921
483.5000	455.965
484.0000	456.066
484.5000	456.213
485.0000	456.333
485.5000	456.458
486.0000	456.477
486.5000	456.552
487.0000	456.659
487.5000	456.675
488.0000	456.825
488.5000	456.99
489.0000	457.075
489.5000	457.321
490.0000	457.48
490.5000	457.534
491.0000	457.627
491.5000	457.674
492.0000	457.707
492.5000	457.802
493.0000	457.893
493.5000	458.042
494.0000	458.121
494.5000	458.172
495.0000	458.237
495.5000	458.274
496.0000	458.392
496.5000	458.537
497.0000	458.693
497.5000	458.874
498.0000	458.924
498.5000	458.992
499.0000	459.098
499.5000	459.164
500.0000	459.347
500.5000	459.453
501.0000	459.518
501.5000	459.628
502.0000	459.7
502.5000	459.85
503.0000	459.921
503.5000	460.019
504.0000	460.139
504.5000	460.23
505.0000	460.425
505.5000	460.547
506.0000	460.596
506.5000	460.664
507.0000	460.736
507.5000	460.799
508.0000	460.935
508.5000	461.1
509.0000	461.2
509.5000	461.304
510.0000	461.431
510.5000	461.423
511.0000	461.533
511.5000	461.666
512.0000	461.732
512.5000	461.862
513.0000	461.937
513.5000	461.963
514.0000	462.099
514.5000	462.215
515.0000	462.298
515.5000	462.421
516.0000	462.507
516.5000	462.615
517.0000	462.683
517.5000	462.766
518.0000	462.816
518.5000	462.932
519.0000	463.064
519.5000	463.209
520.0000	463.36
520.5000	463.461
521.0000	463.606
521.5000	463.675
522.0000	463.736
522.5000	463.763
523.0000	463.79
523.5000	463.911
524.0000	464.058
524.5000	464.207
525.0000	464.317
525.5000	464.392
526.0000	464.487
526.5000	464.569
527.0000	464.646
527.5000	464.764
528.0000	464.835
528.5000	464.921
529.0000	465.023
529.5000	465.084
530.0000	465.138
530.5000	465.225
531.0000	465.38
531.5000	465.526
532.0000	465.664
532.5000	465.804
533.0000	465.815
533.5000	465.906
534.0000	466.03
534.5000	466.112
535.0000	466.231
535.5000	466.328
536.0000	466.365
536.5000	466.433
537.0000	466.503
537.5000	466.513
538.0000	466.631
538.5000	466.763
539.0000	466.861
539.5000	466.988
540.0000	467.147
540.5000	467.255
541.0000	467.396
541.5000	467.486
542.0000	467.464
542.5000	467.572
543.0000	467.718
543.5000	467.828
544.0000	467.948
544.5000	467.983
545.0000	468.006
545.5000	468.09
546.0000	468.164
546.5000	468.271
547.0000	468.407
547.5000	468.484
548.0000	468.594
548.5000	468.696
549.0000	468.785
549.5000	468.906
550.0000	468.932
550.5000	468.936
551.0000	468.982
551.5000	469.001
552.0000	469.215
552.5000	469.418
553.0000	469.591
553.5000	469.709
554.0000	469.769
554.5000	469.854
555.0000	469.889
555.5000	469.962
556.0000	470.023
556.5000	470.045
557.0000	470.099
557.5000	470.272
558.0000	470.335
558.5000	470.464
559.0000	470.516
559.5000	470.558
560.0000	470.653
560.5000	470.708
561.0000	470.894
561.5000	470.951
562.0000	471.053
562.5000	471.15
563.0000	471.175
563.5000	471.255
564.0000	471.329
564.5000	471.412
565.0000	471.441
565.5000	471.592
566.0000	471.659
566.5000	471.754
567.0000	471.838
567.5000	471.832
568.0000	471.936
568.5000	472.021
569.0000	472.161
569.5000	472.314
570.0000	472.442
570.5000	472.498
571.0000	472.544
571.5000	472.585
572.0000	472.557
572.5000	472.688
573.0000	472.79
573.5000	472.961
574.0000	473.105
574.5000	473.162
575.0000	473.241
575.5000	473.271
576.0000	473.409
576.5000	473.438
577.0000	473.508
577.5000	473.525
578.0000	473.529
578.5000	473.645
579.0000	473.786
579.5000	473.926
580.0000	474.071
580.5000	474.148
581.0000	474.155
581.5000	474.225
582.0000	474.269
582.5000	474.353
583.0000	474.423
583.5000	474.518
584.0000	474.63
584.5000	474.644
585.0000	474.784
585.5000	474.876
586.0000	474.93
586.5000	475.042
587.0000	475.166
587.5000	475.184
588.0000	475.214
588.5000	475.265
589.0000	475.267
589.5000	475.392
590.0000	475.482
590.5000	475.596
591.0000	475.707
591.5000	475.755
592.0000	475.934
592.5000	476.043
593.0000	476.059
593.5000	476.213
594.0000	476.178
594.5000	476.271
595.0000	476.342
595.5000	476.377
596.0000	476.525
596.5000	476.52
597.0000	476.658
597.5000	476.716
598.0000	476.76
598.5000	476.855
599.0000	476.874
599.5000	476.929
600.0000	477.034
600.5000	477.126
601.0000	477.219
601.5000	477.327
602.0000	477.334
602.5000	477.394
603.0000	477.477
603.5000	477.517
604.0000	477.655
604.5000	477.845
605.0000	477.91
605.5000	477.948
606.0000	478.056
606.5000	478.028
607.0000	478.121
607.5000	478.281
608.0000	478.305
608.5000	478.42
609.0000	478.529
609.5000	478.619
610.0000	478.678
610.5000	478.757
611.0000	478.773
611.5000	478.787
612.0000	478.909
612.5000	478.942
613.0000	479.034
613.5000	479.199
614.0000	479.283
614.5000	479.378
615.0000	479.488
615.5000	479.493
616.0000	479.517
616.5000	479.619
617.0000	479.67
617.5000	479.662
618.0000	479.741
618.5000	479.807
619.0000	479.835
619.5000	479.981
620.0000	480.045
620.5000	480.07
621.0000	480.285
621.5000	480.371
622.0000	480.429
622.5000	480.529
623.0000	480.546
623.5000	480.562
624.0000	480.684
624.5000	480.769
625.0000	480.834
625.5000	480.893
626.0000	480.911
626.5000	481.009
627.0000	481.087
627.5000	481.177
628.0000	481.297
628.5000	481.397
629.0000	481.451
629.5000	481.585
630.0000	481.678
630.5000	481.65
631.0000	481.693
631.5000	481.77
632.0000	481.726
632.5000	481.881
633.0000	482.037
633.5000	482.097
634.0000	482.192
634.5000	482.173
635.0000	482.224
635.5000	482.272
636.0000	482.36
636.5000	482.484
637.0000	482.522
637.5000	482.611
638.0000	482.744
638.5000	482.748
639.0000	482.719
639.5000	482.697
640.0000	482.713
640.5000	482.835
641.0000	482.909
641.5000	483.059
642.0000	483.189
642.5000	483.239
643.0000	483.422
643.5000	483.593
644.0000	483.612
644.5000	483.744
645.0000	483.744
645.5000	483.723
646.0000	483.757
646.5000	483.804
647.0000	483.922
647.5000	483.874
648.0000	484.023
648.5000	484.03
649.0000	484.132
649.5000	484.329
650.0000	484.415
650.5000	484.394
651.0000	484.34
651.5000	484.471
652.0000	484.554
652.5000	484.79
653.0000	484.933
653.5000	484.967
654.0000	484.938
654.5000	484.957
655.0000	484.997
655.5000	485.077
656.0000	485.162
656.5000	485.218
657.0000	485.39
657.5000	485.38
658.0000	485.464
658.5000	485.526
659.0000	485.513
659.5000	485.56
660.0000	485.599
660.5000	485.684
661.0000	485.759
661.5000	485.815
662.0000	485.901
662.5000	485.931
663.0000	485.984
663.5000	486.049
664.0000	486.09
664.5000	486.223
665.0000	486.305
665.5000	486.416
666.0000	486.512
666.5000	486.547
667.0000	486.525
667.5000	486.621
668.0000	486.661
668.5000	486.743
669.0000	486.827
669.5000	486.818
670.0000	486.889
670.5000	486.948
671.0000	487.026
671.5000	487.113
672.0000	487.2
672.5000	487.277
673.0000	487.383
673.5000	487.439
674.0000	487.461
674.5000	487.509
675.0000	487.526
675.5000	487.621
676.0000	487.677
676.5000	487.746
677.0000	487.875
677.5000	487.894
678.0000	487.99
678.5000	488.011
679.0000	488.047
679.5000	488.171
680.0000	488.312
680.5000	488.379
681.0000	488.427
681.5000	488.48
682.0000	488.575
682.5000	488.634
683.0000	488.757
683.5000	488.831
684.0000	488.823
684.5000	488.943
685.0000	489.035
685.5000	489.04
686.0000	489.128
686.5000	489.191
687.0000	489.197
687.5000	489.274
688.0000	489.288
688.5000	489.33
689.0000	489.435
689.5000	489.537
690.0000	489.584
690.5000	489.62
691.0000	489.653
691.5000	489.741
692.0000	489.782
692.5000	489.843
693.0000	489.876
693.5000	489.916
694.0000	490.019
694.5000	490.087
695.0000	490.205
695.5000	490.252
696.0000	490.297
696.5000	490.381
697.0000	490.438
697.5000	490.541
698.0000	490.606
698.5000	490.706
699.0000	490.682
699.5000	490.69
700.0000	490.799
700.5000	490.874
701.0000	490.935
701.5000	490.947
702.0000	490.98
702.5000	491.014
703.0000	491.138
703.5000	491.258
704.0000	491.248
704.5000	491.238
705.0000	491.26
705.5000	491.317
706.0000	491.47
706.5000	491.557
707.0000	491.595
707.5000	491.642
708.0000	491.65
708.5000	491.729
709.0000	491.736
709.5000	491.824
710.0000	491.894
710.5000	491.941
711.0000	492.108
711.5000	492.175
712.0000	492.201
712.5000	492.205
713.0000	492.22
713.5000	492.241
714.0000	492.269
714.5000	492.29
715.0000	492.415
715.5000	492.463
716.0000	492.572
716.5000	492.691
717.0000	492.727
717.5000	492.791
718.0000	492.808
718.5000	492.906
719.0000	492.917
719.5000	492.964
720.0000	493.036
720.5000	493.047
721.0000	493.12
721.5000	493.216
722.0000	493.308
722.5000	493.337
723.0000	493.352
723.5000	493.364
724.0000	493.474
724.5000	493.623
725.0000	493.678
725.5000	493.735
726.0000	493.697
726.5000	493.679
727.0000	493.79
727.5000	493.856
728.0000	493.985
728.5000	494.128
729.0000	494.158
729.5000	494.21
730.0000	494.135
730.5000	494.145
731.0000	494.126
731.5000	494.242
732.0000	494.397
732.5000	494.412
733.0000	494.538
733.5000	494.575
734.0000	494.609
734.5000	494.737
735.0000	494.793
735.5000	494.803
736.0000	494.925
736.5000	494.967
737.0000	495.018
737.5000	494.997
738.0000	495.009
738.5000	494.973
739.0000	495.072
739.5000	495.24
740.0000	495.238
740.5000	495.41
741.0000	495.454
741.5000	495.442
742.0000	495.455
742.5000	495.461
743.0000	495.489
743.5000	495.558
744.0000	495.724
744.5000	495.765
745.0000	495.812
745.5000	495.959
746.0000	496.011
746.5000	496.077
747.0000	496.121
747.5000	496.071
748.0000	496.101
748.5000	496.244
749.0000	496.316
749.5000	496.422
750.0000	496.453
750.5000	496.398
751.0000	496.414
751.5000	496.351
752.0000	496.417
752.5000	496.475
753.0000	496.637
753.5000	496.784
754.0000	496.818
754.5000	496.874
755.0000	496.889
755.5000	497.04
756.0000	497.152
756.5000	497.181
757.0000	497.144
757.5000	497.097
758.0000	497.099
758.5000	497.188
759.0000	497.274
759.5000	497.316
760.0000	497.36
760.5000	497.413
761.0000	497.484
761.5000	497.514
762.0000	497.615
762.5000	497.635
763.0000	497.72
763.5000	497.773
764.0000	497.763
764.5000	497.873
765.0000	497.905
765.5000	498.021
766.0000	498.109
766.5000	498.128
767.0000	498.178
767.5000	498.198
768.0000	498.243
768.5000	498.28
769.0000	498.322
769.5000	498.339
770.0000	498.478
770.5000	498.533
771.0000	498.547
771.5000	498.617
772.0000	498.593
772.5000	498.665
773.0000	498.778
773.5000	498.825
774.0000	498.937
774.5000	498.996
775.0000	499.086
775.5000	499.218
776.0000	499.189
776.5000	499.247
777.0000	499.255
777.5000	499.25
778.0000	499.333
778.5000	499.332
779.0000	499.441
779.5000	499.521
780.0000	499.497
780.5000	499.586
781.0000	499.621
781.5000	499.65
782.0000	499.703
782.5000	499.802
783.0000	499.765
783.5000	499.824
784.0000	499.881
784.5000	499.819
785.0000	499.927
785.5000	499.867
786.0000	499.982
786.5000	500.085
787.0000	500.103
787.5000	500.241
788.0000	500.321
788.5000	500.389
789.0000	500.485
789.5000	500.507
790.0000	500.57
790.5000	500.631
791.0000	500.61
791.5000	500.767
792.0000	500.745
792.5000	500.845
793.0000	500.91
793.5000	500.953
794.0000	501.048
794.5000	501.071
795.0000	501.124
795.5000	501.127
796.0000	501.124
796.5000	501.146
797.0000	501.236
797.5000	501.351
798.0000	501.329
798.5000	501.344
799.0000	501.426
799.5000	501.441
800.0000	501.538
800.5000	501.656
801.0000	501.716
801.5000	501.725
802.0000	501.819
802.5000	501.83
803.0000	501.854
803.5000	501.873
804.0000	501.962
804.5000	501.973
805.0000	501.948
805.5000	502.04
806.0000	502.058
806.5000	502.137
807.0000	502.268
807.5000	502.286
808.0000	502.383
808.5000	502.443
809.0000	502.444
809.5000	502.529
810.0000	502.518
810.5000	502.576
811.0000	502.561
811.5000	502.615
812.0000	502.747
812.5000	502.752
813.0000	502.904
813.5000	502.973
814.0000	502.944
814.5000	503.066
815.0000	503.148
815.5000	503.156
816.0000	503.23
816.5000	503.267
817.0000	503.276
817.5000	503.382
818.0000	503.412
818.5000	503.406
819.0000	503.446
819.5000	503.425
820.0000	503.493
820.5000	503.597
821.0000	503.651
821.5000	503.734
822.0000	503.81
822.5000	503.802
823.0000	503.847
823.5000	503.892
824.0000	503.877
824.5000	503.944
825.0000	503.987
825.5000	504.017
826.0000	504.077
826.5000	504.091
827.0000	504.14
827.5000	504.194
828.0000	504.284
828.5000	504.338
829.0000	504.422
829.5000	504.519
830.0000	504.538
830.5000	504.611
831.0000	504.603
831.5000	504.583
832.0000	504.656
832.5000	504.66
833.0000	504.668
833.5000	504.689
834.0000	504.718
834.5000	504.842
835.0000	504.907
835.5000	505.022
836.0000	505.06
836.5000	505.019
837.0000	505.061
837.5000	505.061
838.0000	505.064
838.5000	505.182
839.0000	505.251
839.5000	505.297
840.0000	505.356
840.5000	505.386
841.0000	505.464
841.5000	505.524
842.0000	505.631
842.5000	505.615
843.0000	505.592
843.5000	505.652
844.0000	505.654
844.5000	505.769
845.0000	505.828
845.5000	505.864
846.0000	505.944
846.5000	505.959
847.0000	505.983
847.5000	505.935
848.0000	505.936
848.5000	506.041
849.0000	506.107
849.5000	506.148
850.0000	506.194
850.5000	506.233
851.0000	506.314
851.5000	506.53
852.0000	506.533
852.5000	506.511
853.0000	506.521
853.5000	506.417
854.0000	506.46
854.5000	506.503
855.0000	506.494
855.5000	506.584
856.0000	506.684
856.5000	506.719
857.0000	506.823
857.5000	506.844
858.0000	506.854
858.5000	506.894
859.0000	506.867
859.5000	506.876
860.0000	506.881
860.5000	506.924
861.0000	507.005
861.5000	507.063
862.0000	507.099
862.5000	507.146
863.0000	507.158
863.5000	507.247
864.0000	507.357
864.5000	507.363
865.0000	507.392
865.5000	507.35
866.0000	507.345
866.5000	507.417
867.0000	507.523
867.5000	507.582
868.0000	507.643
868.5000	507.648
869.0000	507.64
869.5000	507.724
870.0000	507.676
870.5000	507.756
871.0000	507.837
871.5000	507.858
872.0000	507.992
872.5000	508.013
873.0000	508.045
873.5000	508.079
874.0000	508.068
874.5000	508.081
875.0000	508.138
875.5000	508.207
876.0000	508.226
876.5000	508.264
877.0000	508.252
877.5000	508.292
878.0000	508.352
878.5000	508.366
879.0000	508.387
879.5000	508.374
880.0000	508.451
880.5000	508.604
881.0000	508.641
881.5000	508.766
882.0000	508.775
882.5000	508.732
883.0000	508.843
883.5000	508.861
884.0000	508.907
884.5000	508.977
885.0000	508.917
885.5000	508.917
886.0000	508.931
886.5000	508.928
887.0000	509.012
887.5000	509.062
888.0000	509.088
888.5000	509.132
889.0000	509.109
889.5000	509.137
890.0000	509.196
890.5000	509.22
891.0000	509.299
891.5000	509.316
892.0000	509.282
892.5000	509.336
893.0000	509.404
893.5000	509.471
894.0000	509.647
894.5000	509.678
895.0000	509.735
895.5000	509.803
896.0000	509.824
896.5000	509.831
897.0000	509.842
897.5000	509.806
898.0000	509.825
898.5000	509.871
899.0000	509.844
899.5000	509.902
900.0000	509.932
900.5000	509.923
901.0000	510.042
901.5000	510.045
902.0000	510.093
902.5000	510.261
903.0000	510.256
903.5000	510.338
904.0000	510.357
904.5000	510.316
905.0000	510.376
905.5000	510.383
906.0000	510.353
906.5000	510.412
907.0000	510.548
907.5000	510.632
908.0000	510.743
908.5000	510.716
909.0000	510.676
909.5000	510.683
910.0000	510.709
910.5000	510.825
911.0000	510.843
911.5000	510.941
912.0000	510.994
912.5000	511.008
913.0000	511.048
913.5000	511.046
914.0000	511.112
914.5000	511.141
915.0000	511.197
915.5000	511.242
916.0000	511.242
916.5000	511.307
917.0000	511.341
917.5000	511.319
918.0000	511.342
918.5000	511.351
919.0000	511.34
919.5000	511.441
920.0000	511.504
920.5000	511.558
921.0000	511.653
921.5000	511.692
922.0000	511.706
922.5000	511.69
923.0000	511.743
923.5000	511.728
924.0000	511.77
924.5000	511.861
925.0000	511.843
925.5000	511.908
926.0000	511.935
926.5000	511.936
927.0000	511.955
927.5000	511.94
928.0000	511.925
928.5000	512.05
929.0000	512.181
929.5000	512.234
930.0000	512.327
930.5000	512.333
931.0000	512.282
931.5000	512.29
932.0000	512.379
932.5000	512.465
933.0000	512.547
933.5000	512.629
934.0000	512.604
934.5000	512.635
935.0000	512.682
935.5000	512.735
936.0000	512.787
936.5000	512.707
937.0000	512.712
937.5000	512.704
938.0000	512.691
938.5000	512.796
939.0000	512.901
939.5000	512.945
940.0000	513.021
940.5000	513.09
941.0000	513.102
941.5000	513.183
942.0000	513.22
942.5000	513.228
943.0000	513.246
943.5000	513.223
944.0000	513.26
944.5000	513.315
945.0000	513.346
945.5000	513.449
946.0000	513.488
946.5000	513.408
947.0000	513.46
947.5000	513.486
948.0000	513.46
948.5000	513.503
949.0000	513.391
949.5000	513.287
950.0000	513.368
950.5000	513.482
951.0000	513.67
951.5000	513.807
952.0000	513.851
952.5000	513.867
953.0000	513.863
953.5000	513.935
954.0000	513.93
954.5000	513.979
955.0000	513.988
955.5000	513.972
956.0000	514.097
956.5000	514.174
957.0000	514.137
957.5000	514.174
958.0000	514.126
958.5000	514.132
959.0000	514.261
959.5000	514.33
960.0000	514.353
960.5000	514.343
961.0000	514.374
961.5000	514.409
962.0000	514.581
962.5000	514.567
963.0000	514.6
963.5000	514.69
964.0000	514.627
964.5000	514.722
965.0000	514.698
965.5000	514.723
966.0000	514.778
966.5000	514.839
967.0000	514.946
967.5000	514.932
968.0000	514.925
968.5000	514.956
969.0000	514.947
969.5000	514.989
970.0000	514.991
970.5000	515.054
971.0000	515.122
971.5000	515.122
972.0000	515.116
972.5000	515.146
973.0000	515.274
973.5000	515.401
974.0000	515.543
974.5000	515.508
975.0000	515.411
975.5000	515.338
976.0000	515.443
976.5000	515.584
977.0000	515.629
977.5000	515.72
978.0000	515.679
978.5000	515.754
979.0000	515.804
979.5000	515.823
980.0000	515.906
980.5000	515.84
981.0000	515.882
981.5000	515.914
982.0000	515.848
982.5000	515.824
983.0000	515.817
983.5000	515.813
984.0000	515.898
984.5000	515.983
985.0000	516.136
985.5000	516.221
986.0000	516.222
986.5000	516.239
987.0000	516.127
987.5000	516.146
988.0000	516.191
988.5000	516.221
989.0000	516.361
989.5000	516.394
990.0000	516.346
990.5000	516.408
991.0000	516.441
991.5000	516.418
992.0000	516.515
992.5000	516.536
993.0000	516.495
993.5000	516.534
994.0000	516.543
994.5000	516.602
995.0000	516.613
995.5000	516.726
996.0000	516.791
996.5000	516.779
997.0000	516.832
997.5000	516.849
998.0000	516.954
998.5000	516.981
999.0000	517.098
999.5000	517.066
1000.0000	517.018
1000.5000	517.074
1001.0000	517.066
1001.5000	517.063
1002.0000	517.14
1002.5000	517.263
1003.0000	517.288
1003.5000	517.437
1004.0000	517.446
1004.5000	517.425
1005.0000	517.376
1005.5000	517.327
1006.0000	517.387
1006.5000	517.423
1007.0000	517.566
1007.5000	517.656
1008.0000	517.692
1008.5000	517.69
1009.0000	517.663
1009.5000	517.691
1010.0000	517.69
1010.5000	517.782
1011.0000	517.941
1011.5000	518.009
1012.0000	518.061
1012.5000	518.045
1013.0000	517.985
1013.5000	517.939
1014.0000	517.933
1014.5000	517.989
1015.0000	518.035
1015.5000	518.101
1016.0000	518.178
1016.5000	518.152
1017.0000	518.121
1017.5000	518.181
1018.0000	518.233
1018.5000	518.264
1019.0000	518.325
1019.5000	518.32
1020.0000	518.303
1020.5000	518.326
1021.0000	518.381
1021.5000	518.382
1022.0000	518.401
1022.5000	518.385
1023.0000	518.432
1023.5000	518.511
1024.0000	518.55
1024.5000	518.649
1025.0000	518.641
1025.5000	518.713
1026.0000	518.749
1026.5000	518.765
1027.0000	518.846
1027.5000	518.858
1028.0000	518.845
1028.5000	518.877
1029.0000	518.875
1029.5000	518.839
1030.0000	518.978
1030.5000	519.06
1031.0000	519.088
1031.5000	519.155
1032.0000	519.153
1032.5000	519.119
1033.0000	519.177
1033.5000	519.168
1034.0000	519.188
1034.5000	519.238
1035.0000	519.257
1035.5000	519.306
1036.0000	519.283
1036.5000	519.297
1037.0000	519.351
1037.5000	519.386
1038.0000	519.38
1038.5000	519.415
1039.0000	519.405
1039.5000	519.427
1040.0000	519.536
1040.5000	519.584
1041.0000	519.553
1041.5000	519.586
1042.0000	519.562
1042.5000	519.53
1043.0000	519.527
1043.5000	519.631
1044.0000	519.747
1044.5000	519.823
1045.0000	519.896
1045.5000	519.827
1046.0000	519.895
1046.5000	519.985
1047.0000	520.146
1047.5000	520.239
1048.0000	520.173
1048.5000	520.209
1049.0000	520.092
1049.5000	520.112
1050.0000	520.189
1050.5000	520.247
1051.0000	520.386
1051.5000	520.374
1052.0000	520.381
1052.5000	520.267
1053.0000	520.292
1053.5000	520.319
1054.0000	520.333
1054.5000	520.451
1055.0000	520.475
1055.5000	520.575
1056.0000	520.695
1056.5000	520.749
1057.0000	520.74
1057.5000	520.712
1058.0000	520.679
1058.5000	520.657
1059.0000	520.766
1059.5000	520.877
1060.0000	520.867
1060.5000	520.872
1061.0000	520.908
1061.5000	520.879
1062.0000	520.968
1062.5000	521.057
1063.0000	521.011
1063.5000	521.083
1064.0000	521.142
1064.5000	521.164
1065.0000	521.291
1065.5000	521.3
1066.0000	521.344
1066.5000	521.378
1067.0000	521.282
1067.5000	521.345
1068.0000	521.39
1068.5000	521.461
1069.0000	521.557
1069.5000	521.635
1070.0000	521.612
1070.5000	521.617
1071.0000	521.655
1071.5000	521.645
1072.0000	521.639
1072.5000	521.722
1073.0000	521.834
1073.5000	521.855
1074.0000	521.901
1074.5000	521.917
1075.0000	521.915
1075.5000	521.93
1076.0000	522.027
1076.5000	522.043
1077.0000	522.058
1077.5000	522.115
1078.0000	522.108
1078.5000	522.049
1079.0000	522.05
1079.5000	522.048
1080.0000	522.068
1080.5000	522.131
1081.0000	522.166
1081.5000	522.187
1082.0000	522.344
1082.5000	522.4
1083.0000	522.469
1083.5000	522.632
1084.0000	522.56
1084.5000	522.619
1085.0000	522.635
1085.5000	522.649
1086.0000	522.741
1086.5000	522.62
1087.0000	522.612
1087.5000	522.559
1088.0000	522.529
1088.5000	522.665
1089.0000	522.785
1089.5000	522.83
1090.0000	522.9
1090.5000	522.925
1091.0000	522.812
1091.5000	522.865
1092.0000	522.805
1092.5000	522.817
1093.0000	522.898
1093.5000	522.87
1094.0000	522.934
1094.5000	522.998
1095.0000	523.013
1095.5000	523.107
1096.0000	523.09
1096.5000	523.126
1097.0000	523.174
1097.5000	523.193
1098.0000	523.255
1098.5000	523.286
1099.0000	523.341
1099.5000	523.27
1100.0000	523.252
1100.5000	523.274
1101.0000	523.288
1101.5000	523.39
1102.0000	523.552
1102.5000	523.55
1103.0000	523.595
1103.5000	523.609
1104.0000	523.578
1104.5000	523.575
1105.0000	523.571
1105.5000	523.563
1106.0000	523.564
1106.5000	523.672
1107.0000	523.635
1107.5000	523.657
1108.0000	523.69
1108.5000	523.677
1109.0000	523.715
1109.5000	523.741
1110.0000	523.716
1110.5000	523.821
1111.0000	523.969
1111.5000	524.039
1112.0000	524.13
1112.5000	524.072
1113.0000	524.037
1113.5000	524.028
1114.0000	523.991
1114.5000	524.04
1115.0000	524.057
1115.5000	524.158
1116.0000	524.19
1116.5000	524.171
1117.0000	524.162
1117.5000	524.128
1118.0000	524.135
1118.5000	524.277
1119.0000	524.35
1119.5000	524.32
1120.0000	524.442
1120.5000	524.398
1121.0000	524.394
1121.5000	524.461
1122.0000	524.4
1122.5000	524.39
1123.0000	524.507
1123.5000	524.616
1124.0000	524.652
1124.5000	524.743
1125.0000	524.671
1125.5000	524.659
1126.0000	524.729
1126.5000	524.769
1127.0000	524.839
1127.5000	524.792
1128.0000	524.833
1128.5000	524.808
1129.0000	524.765
1129.5000	524.845
1130.0000	524.877
1130.5000	524.908
1131.0000	525.031
1131.5000	525.062
1132.0000	525.164
1132.5000	525.223
1133.0000	525.143
1133.5000	525.052
1134.0000	525.012
1134.5000	525.008
1135.0000	524.997
1135.5000	525.139
1136.0000	525.196
1136.5000	525.288
1137.0000	525.372
1137.5000	525.336
1138.0000	525.278
1138.5000	525.29
1139.0000	525.328
1139.5000	525.388
1140.0000	525.411
1140.5000	525.413
1141.0000	525.378
1141.5000	525.417
1142.0000	525.476
1142.5000	525.502
1143.0000	525.645
1143.5000	525.615
1144.0000	525.639
1144.5000	525.636
1145.0000	525.611
1145.5000	525.71
1146.0000	525.708
1146.5000	525.755
1147.0000	525.767
1147.5000	525.751
1148.0000	525.807
1148.5000	525.748
1149.0000	525.891
1149.5000	525.874
1150.0000	525.871
1150.5000	525.997
1151.0000	525.973
1151.5000	526.035
1152.0000	526.094
1152.5000	526.065
1153.0000	526.015
1153.5000	526.115
1154.0000	526.198
1154.5000	526.248
1155.0000	526.309
1155.5000	526.349
1156.0000	526.276
1156.5000	526.301
1157.0000	526.299
1157.5000	526.31
1158.0000	526.29
1158.5000	526.351
1159.0000	526.409
1159.5000	526.432
1160.0000	526.536
1160.5000	526.571
1161.0000	526.68
1161.5000	526.78
1162.0000	526.752
1162.5000	526.729
1163.0000	526.688
1163.5000	526.7
1164.0000	526.797
1164.5000	526.808
1165.0000	526.772
1165.5000	526.738
1166.0000	526.771
1166.5000	526.828
1167.0000	526.887
1167.5000	526.887
1168.0000	526.893
1168.5000	526.825
1169.0000	526.731
1169.5000	526.71
1170.0000	526.698
1170.5000	526.827
1171.0000	526.965
1171.5000	527.082
1172.0000	527.109
1172.5000	527.125
1173.0000	527.134
1173.5000	527.138
1174.0000	527.223
1174.5000	527.172
1175.0000	527.247
1175.5000	527.327
1176.0000	527.319
1176.5000	527.336
1177.0000	527.411
1177.5000	527.299
1178.0000	527.284
1178.5000	527.352
1179.0000	527.269
1179.5000	527.352
1180.0000	527.428
1180.5000	527.466
1181.0000	527.494
1181.5000	527.486
1182.0000	527.469
1182.5000	527.556
1183.0000	527.638
1183.5000	527.649
1184.0000	527.764
1184.5000	527.78
1185.0000	527.825
1185.5000	527.839
1186.0000	527.854
1186.5000	527.886
1187.0000	527.825
1187.5000	527.913
1188.0000	527.851
1188.5000	527.821
1189.0000	527.958
1189.5000	527.971
1190.0000	528.015
1190.5000	528.008
1191.0000	527.982
1191.5000	528.001
1192.0000	527.934
1192.5000	528.029
1193.0000	528.084
1193.5000	528.061
1194.0000	528.219
1194.5000	528.209
1195.0000	528.121
1195.5000	528.166
1196.0000	528.123
1196.5000	528.097
1197.0000	528.161
1197.5000	528.234
1198.0000	528.219
1198.5000	528.257
1199.0000	528.293
1199.5000	528.356
1200.0000	528.465
1200.5000	528.434
1201.0000	528.474
1201.5000	528.48
1202.0000	528.487
1202.5000	528.655
1203.0000	528.677
1203.5000	528.676
1204.0000	528.739
1204.5000	528.697
1205.0000	528.692
1205.5000	528.675
1206.0000	528.6
1206.5000	528.59
1207.0000	528.604
1207.5000	528.603
1208.0000	528.724
1208.5000	528.76
1209.0000	528.755
1209.5000	528.779
1210.0000	528.796
1210.5000	528.858
1211.0000	528.932
1211.5000	529.053
1212.0000	529.092
1212.5000	528.993
1213.0000	528.964
1213.5000	528.916
1214.0000	528.892
1214.5000	529.038
1215.0000	529.122
1215.5000	529.156
1216.0000	529.222
1216.5000	529.189
1217.0000	529.207
1217.5000	529.204
1218.0000	529.222
1218.5000	529.33
1219.0000	529.395
1219.5000	529.315
1220.0000	529.342
1220.5000	529.339
1221.0000	529.278
1221.5000	529.455
1222.0000	529.493
1222.5000	529.551
1223.0000	529.604
1223.5000	529.538
1224.0000	529.507
1224.5000	529.501
1225.0000	529.526
1225.5000	529.608
1226.0000	529.562
1226.5000	529.432
1227.0000	529.503
1227.5000	529.577
1228.0000	529.663
1228.5000	529.831
1229.0000	529.915
1229.5000	529.874
1230.0000	529.825
1230.5000	529.832
1231.0000	529.744
1231.5000	529.81
1232.0000	529.913
1232.5000	529.976
1233.0000	530.01
1233.5000	529.93
1234.0000	529.854
1234.5000	529.765
1235.0000	529.796
1235.5000	529.849
1236.0000	529.965
1236.5000	530.026
1237.0000	530.007
1237.5000	530.062
1238.0000	530.091
1238.5000	530.138
1239.0000	530.168
1239.5000	530.198
1240.0000	530.183
1240.5000	530.109
1241.0000	530.161
1241.5000	530.121
1242.0000	530.081
1242.5000	530.204
1243.0000	530.217
1243.5000	530.277
1244.0000	530.348
1244.5000	530.415
1245.0000	530.422
1245.5000	530.382
1246.0000	530.375
1246.5000	530.308
1247.0000	530.324
1247.5000	530.391
1248.0000	530.488
1248.5000	530.515
1249.0000	530.513
1249.5000	530.535
1250.0000	530.479
1250.5000	530.544
1251.0000	530.602
1251.5000	530.612
1252.0000	530.696
1252.5000	530.667
1253.0000	530.741
1253.5000	530.814
1254.0000	530.769
1254.5000	530.789
1255.0000	530.792
1255.5000	530.723
1256.0000	530.663
1256.5000	530.673
1257.0000	530.61
1257.5000	530.64
1258.0000	530.754
1258.5000	530.838
1259.0000	530.843
1259.5000	530.927
1260.0000	530.958
1260.5000	530.944
1261.0000	530.976
1261.5000	530.896
1262.0000	530.919
1262.5000	530.889
1263.0000	530.87
1263.5000	530.906
1264.0000	530.917
1264.5000	530.981
1265.0000	531.057
1265.5000	531.134
1266.0000	531.139
1266.5000	531.116
1267.0000	531.164
1267.5000	531.18
1268.0000	531.152
1268.5000	531.194
1269.0000	531.208
1269.5000	531.236
1270.0000	531.263
1270.5000	531.282
1271.0000	531.244
1271.5000	531.207
1272.0000	531.312
1272.5000	531.208
1273.0000	531.261
1273.5000	531.284
1274.0000	531.192
1274.5000	531.317
1275.0000	531.227
1275.5000	531.266
1276.0000	531.325
1276.5000	531.328
1277.0000	531.369
1277.5000	531.387
1278.0000	531.407
1278.5000	531.385
1279.0000	531.418
1279.5000	531.45
1280.0000	531.451
1280.5000	531.465
1281.0000	531.514
1281.5000	531.458
1282.0000	531.454
1282.5000	531.578
1283.0000	531.546
1283.5000	531.585
1284.0000	531.653
1284.5000	531.514
1285.0000	531.531
1285.5000	531.578
1286.0000	531.506
1286.5000	531.598
1287.0000	531.603
1287.5000	531.543
1288.0000	531.552
1288.5000	531.597
1289.0000	531.605
1289.5000	531.715
1290.0000	531.819
1290.5000	531.821
1291.0000	531.811
1291.5000	531.696
1292.0000	531.766
1292.5000	531.707
1293.0000	531.785
1293.5000	531.823
1294.0000	531.7
1294.5000	531.764
1295.0000	531.751
1295.5000	531.81
1296.0000	531.888
1296.5000	531.799
1297.0000	531.843
1297.5000	531.869
1298.0000	531.82
1298.5000	531.922
1299.0000	531.926
1299.5000	531.954
1300.0000	531.91
1300.5000	531.945
1301.0000	531.955
1301.5000	531.895
1302.0000	531.995
1302.5000	531.941
1303.0000	531.92
1303.5000	531.95
1304.0000	531.938
1304.5000	531.989
1305.0000	532.072
1305.5000	532.032
1306.0000	532.009
1306.5000	532.003
1307.0000	531.92
1307.5000	532.027
1308.0000	532.073
1308.5000	532.117
1309.0000	532.142
1309.5000	532.092
1310.0000	532.132
1310.5000	532.128
1311.0000	532.079
1311.5000	532.084
1312.0000	532.172
1312.5000	532.125
1313.0000	532.175
1313.5000	532.234
1314.0000	532.189
1314.5000	532.228
1315.0000	532.252
1315.5000	532.214
1316.0000	532.125
1316.5000	532.054
1317.0000	532.043
1317.5000	531.956
1318.0000	531.999
1318.5000	532.103
1319.0000	532.124
1319.5000	532.232
1320.0000	532.261
1320.5000	532.255
1321.0000	532.301
1321.5000	532.315
1322.0000	532.213
1322.5000	532.196
1323.0000	532.17
1323.5000	532.202
1324.0000	532.221
1324.5000	532.224
1325.0000	532.254
1325.5000	532.161
1326.0000	532.209
1326.5000	532.178
1327.0000	532.162
1327.5000	532.223
1328.0000	532.229
1328.5000	532.186
1329.0000	532.134
1329.5000	532.095
1330.0000	532.117
1330.5000	532.208
1331.0000	532.185
1331.5000	532.156
1332.0000	532.162
1332.5000	532.125
1333.0000	532.12
1333.5000	532.155
1334.0000	532.027
1334.5000	532.019
1335.0000	532.109
1335.5000	532.113
1336.0000	532.155
1336.5000	532.115
1337.0000	532.063
1337.5000	532.101
1338.0000	532.18
1338.5000	532.356
1339.0000	532.402
1339.5000	532.345
1340.0000	532.302
1340.5000	532.206
1341.0000	532.096
1341.5000	532.079
1342.0000	532.062
1342.5000	532.09
1343.0000	532.192
1343.5000	532.296
1344.0000	532.322
1344.5000	532.289
1345.0000	532.256
1345.5000	532.226
1346.0000	532.29
1346.5000	532.32
1347.0000	532.431
1347.5000	532.422
1348.0000	532.363
1348.5000	532.332
1349.0000	532.21
1349.5000	532.193
1350.0000	532.192
1350.5000	532.213
1351.0000	532.272
1351.5000	532.253
1352.0000	532.271
1352.5000	532.169
1353.0000	532.168
1353.5000	532.153
1354.0000	532.172
1354.5000	532.274
1355.0000	532.219
1355.5000	532.271
1356.0000	532.381
1356.5000	532.288
1357.0000	532.313
1357.5000	532.285
1358.0000	532.201
1358.5000	532.243
1359.0000	532.198
1359.5000	532.245
1360.0000	532.218
1360.5000	532.32
1361.0000	532.424
1361.5000	532.331
1362.0000	532.338
1362.5000	532.25
1363.0000	532.155
1363.5000	532.182
1364.0000	532.198
1364.5000	532.244
1365.0000	532.213
1365.5000	532.265
1366.0000	532.273
1366.5000	532.243
1367.0000	532.347
1367.5000	532.35
1368.0000	532.312
1368.5000	532.337
1369.0000	532.374
1369.5000	532.338
1370.0000	532.379
1370.5000	532.428
1371.0000	532.303
1371.5000	532.384
1372.0000	532.397
1372.5000	532.31
1373.0000	532.455
1373.5000	532.466
1374.0000	532.488
1374.5000	532.571
1375.0000	532.535
1375.5000	532.509
1376.0000	532.485
1376.5000	532.471
1377.0000	532.532
1377.5000	532.462
1378.0000	532.437
1378.5000	532.381
1379.0000	532.41
1379.5000	532.482
1380.0000	532.533
1380.5000	532.54
1381.0000	532.542
1381.5000	532.56
1382.0000	532.547
1382.5000	532.581
1383.0000	532.449
1383.5000	532.456
1384.0000	532.405
1384.5000	532.373
1385.0000	532.407
1385.5000	532.446
1386.0000	532.564
1386.5000	532.669
1387.0000	532.712
1387.5000	532.632
1388.0000	532.607
1388.5000	532.595
1389.0000	532.614
1389.5000	532.698
1390.0000	532.652
1390.5000	532.585
1391.0000	532.617
1391.5000	532.579
1392.0000	532.564
1392.5000	532.614
1393.0000	532.552
1393.5000	532.553
1394.0000	532.62
1394.5000	532.701
1395.0000	532.656
1395.5000	532.616
1396.0000	532.616
1396.5000	532.486
1397.0000	532.546
1397.5000	532.618
1398.0000	532.62
1398.5000	532.67
1399.0000	532.671
1399.5000	532.596
1400.0000	532.543
1400.5000	532.557
1401.0000	532.631
1401.5000	532.742
1402.0000	532.805
1402.5000	532.829
1403.0000	532.791
1403.5000	532.8
1404.0000	532.789
1404.5000	532.757
1405.0000	532.725
1405.5000	532.622
1406.0000	532.565
1406.5000	532.582
1407.0000	532.678
1407.5000	532.697
1408.0000	532.75
1408.5000	532.764
1409.0000	532.688
1409.5000	532.711
1410.0000	532.693
1410.5000	532.716
1411.0000	532.633
1411.5000	532.658
1412.0000	532.65
1412.5000	532.614
1413.0000	532.676
1413.5000	532.666
1414.0000	532.7
1414.5000	532.762
1415.0000	532.804
1415.5000	532.752
1416.0000	532.747
1416.5000	532.643
1417.0000	532.634
1417.5000	532.685
1418.0000	532.667
1418.5000	532.683
1419.0000	532.633
1419.5000	532.699
1420.0000	532.688
1420.5000	532.723
1421.0000	532.804
1421.5000	532.78
1422.0000	532.85
1422.5000	532.933
1423.0000	532.878
1423.5000	532.837
1424.0000	532.771
1424.5000	532.689
1425.0000	532.693
1425.5000	532.633
1426.0000	532.654
1426.5000	532.672
1427.0000	532.695
1427.5000	532.746
1428.0000	532.8
1428.5000	532.782
1429.0000	532.767
1429.5000	532.82
1430.0000	532.789
1430.5000	532.768
1431.0000	532.789
1431.5000	532.824
1432.0000	532.832
1432.5000	532.817
1433.0000	532.78
1433.5000	532.771
1434.0000	532.735
1434.5000	532.74
1435.0000	532.809
1435.5000	532.816
1436.0000	532.861
1436.5000	532.885
1437.0000	532.858
1437.5000	532.855
1438.0000	532.847
1438.5000	532.883
1439.0000	532.91
1439.5000	532.838
1440.0000	532.81
1440.5000	532.816
1441.0000	532.824
1441.5000	532.844
1442.0000	532.897
1442.5000	532.899
1443.0000	532.985
1443.5000	533.083
1444.0000	533.114
1444.5000	533.125
1445.0000	533.043
1445.5000	532.946
1446.0000	532.907
1446.5000	532.854
1447.0000	532.884
1447.5000	532.941
1448.0000	532.941
1448.5000	532.979
1449.0000	533.023
1449.5000	532.962
1450.0000	533.037
1450.5000	533.049
1451.0000	532.957
1451.5000	532.955
1452.0000	532.924
1452.5000	532.949
1453.0000	532.955
1453.5000	533.009
1454.0000	533.019
1454.5000	533.003
1455.0000	533.044
1455.5000	533.022
1456.0000	532.97
1456.5000	533.057
1457.0000	533.064
1457.5000	533.036
1458.0000	533.036
1458.5000	532.959
1459.0000	532.928
1459.5000	532.967
1460.0000	532.968
1460.5000	533.011
1461.0000	533.027
1461.5000	533.075
1462.0000	533.143
1462.5000	533.167
1463.0000	533.274
1463.5000	533.272
1464.0000	533.279
1464.5000	533.274
1465.0000	533.188
1465.5000	533.153
1466.0000	533.179
1466.5000	533.238
1467.0000	533.219
1467.5000	533.261
1468.0000	533.311
1468.5000	533.253
1469.0000	533.273
1469.5000	533.293
1470.0000	533.262
1470.5000	533.218
1471.0000	533.273
1471.5000	533.242
1472.0000	533.214
1472.5000	533.233
1473.0000	533.219
1473.5000	533.226
1474.0000	533.269
1474.5000	533.287
1475.0000	533.225
1475.5000	533.258
1476.0000	533.324
1476.5000	533.348
1477.0000	533.42
1477.5000	533.506
1478.0000	533.389
1478.5000	533.34
1479.0000	533.372
1479.5000	533.359
1480.0000	533.401
1480.5000	533.384
1481.0000	533.321
1481.5000	533.358
1482.0000	533.408
1482.5000	533.521
1483.0000	533.599
1483.5000	533.485
1484.0000	533.454
1484.5000	533.424
1485.0000	533.352
1485.5000	533.432
1486.0000	533.371
1486.5000	533.427
1487.0000	533.512
1487.5000	533.52
1488.0000	533.655
1488.5000	533.605
1489.0000	533.589
1489.5000	533.614
1490.0000	533.519
1490.5000	533.571
1491.0000	533.543
1491.5000	533.543
1492.0000	533.584
1492.5000	533.592
1493.0000	533.686
1493.5000	533.688
1494.0000	533.658
1494.5000	533.712
1495.0000	533.771
1495.5000	533.806
1496.0000	533.78
1496.5000	533.788
1497.0000	533.673
1497.5000	533.654
1498.0000	533.757
1498.5000	533.714
1499.0000	533.802
1499.5000	533.799
1500.0000	533.827
1500.5000	533.863
1501.0000	533.794
1501.5000	533.839
1502.0000	533.823
1502.5000	533.807
1503.0000	533.774
1503.5000	533.671
1504.0000	533.759
1504.5000	533.725
1505.0000	533.745
1505.5000	533.842
1506.0000	533.732
1506.5000	533.704
1507.0000	533.771
1507.5000	533.703
1508.0000	533.729
1508.5000	533.839
1509.0000	533.835
1509.5000	533.864
1510.0000	533.816
1510.5000	533.788
1511.0000	533.786
1511.5000	533.789
1512.0000	533.743
1512.5000	533.793
1513.0000	533.837
1513.5000	533.851
1514.0000	533.956
1514.5000	533.982
1515.0000	533.903
1515.5000	533.839
1516.0000	533.888
1516.5000	533.747
1517.0000	533.744
1517.5000	533.771
1518.0000	533.752
1518.5000	533.849
1519.0000	533.891
1519.5000	533.866
1520.0000	533.845
1520.5000	533.806
1521.0000	533.808
1521.5000	533.892
1522.0000	533.844
1522.5000	533.826
1523.0000	533.825
1523.5000	533.869
1524.0000	533.856
1524.5000	533.791
1525.0000	533.876
1525.5000	533.835
1526.0000	533.897
1526.5000	533.996
1527.0000	533.92
1527.5000	533.922
1528.0000	533.922
1528.5000	533.831
1529.0000	533.867
1529.5000	533.874
1530.0000	533.958
1530.5000	534.113
1531.0000	534.053
1531.5000	534.045
1532.0000	533.947
1532.5000	533.859
1533.0000	533.939
1533.5000	534.067
1534.0000	534.073
1534.5000	534.12
1535.0000	534.073
1535.5000	533.908
1536.0000	533.949
1536.5000	533.881
1537.0000	533.898
1537.5000	533.977
1538.0000	533.96
1538.5000	534.059
1539.0000	534.04
1539.5000	533.979
1540.0000	534.072
1540.5000	534.028
1541.0000	533.966
1541.5000	534.004
1542.0000	533.948
1542.5000	533.978
1543.0000	533.974
1543.5000	533.996
1544.0000	533.962
1544.5000	533.933
1545.0000	533.991
1545.5000	533.954
1546.0000	533.891
1546.5000	533.908
1547.0000	533.892
1547.5000	533.975
1548.0000	534.02
1548.5000	533.94
1549.0000	533.923
1549.5000	533.823
1550.0000	533.832
1550.5000	533.914
1551.0000	533.969
1551.5000	533.961
1552.0000	533.91
1552.5000	533.857
1553.0000	533.826
1553.5000	533.85
1554.0000	533.904
1554.5000	533.897
1555.0000	533.924
1555.5000	533.963
1556.0000	534.007
1556.5000	534.017
1557.0000	533.96
1557.5000	533.94
1558.0000	533.845
1558.5000	533.929
1559.0000	533.963
1559.5000	533.93
1560.0000	533.959
1560.5000	533.879
1561.0000	533.859
1561.5000	533.885
1562.0000	533.888
1562.5000	533.971
1563.0000	533.974
1563.5000	533.965
1564.0000	533.988
1564.5000	533.874
1565.0000	533.882
1565.5000	533.839
1566.0000	533.847
1566.5000	533.937
1567.0000	533.899
1567.5000	533.907
1568.0000	533.84
1568.5000	533.809
1569.0000	533.893
1569.5000	533.866
1570.0000	533.844
1570.5000	533.779
1571.0000	533.76
1571.5000	533.783
1572.0000	533.855
1572.5000	533.858
1573.0000	533.81
1573.5000	533.847
1574.0000	533.817
1574.5000	533.817
1575.0000	533.85
1575.5000	533.816
1576.0000	533.81
1576.5000	533.795
1577.0000	533.769
1577.5000	533.787
1578.0000	533.76
1578.5000	533.745
1579.0000	533.686
1579.5000	533.661
1580.0000	533.708
1580.5000	533.758
1581.0000	533.83
1581.5000	533.8
1582.0000	533.846
1582.5000	533.942
1583.0000	533.962
1583.5000	533.99
1584.0000	533.891
1584.5000	533.754
1585.0000	533.723
1585.5000	533.751
1586.0000	533.827
1586.5000	533.827
1587.0000	533.827
1587.5000	533.883
1588.0000	533.913
1588.5000	533.952
1589.0000	534.108
1589.5000	534.059
1590.0000	534.048
1590.5000	534.024
1591.0000	533.834
1591.5000	533.804
1592.0000	533.742
1592.5000	533.786
1593.0000	533.847
1593.5000	533.822
1594.0000	533.82
1594.5000	533.854
1595.0000	533.852
1595.5000	533.879
1596.0000	533.888
1596.5000	533.849
1597.0000	533.799
1597.5000	533.835
1598.0000	533.761
1598.5000	533.742
1599.0000	533.798
1599.5000	533.787
1600.0000	533.836
1600.5000	533.84
1601.0000	533.865
1601.5000	533.789
1602.0000	533.84
1602.5000	533.882
1603.0000	533.858
1603.5000	533.867
1604.0000	533.832
1604.5000	533.685
1605.0000	533.661
1605.5000	533.762
1606.0000	533.75
1606.5000	533.853
1607.0000	533.918
1607.5000	533.9
1608.0000	533.934
1608.5000	533.913
1609.0000	533.84
1609.5000	533.852
1610.0000	533.868
1610.5000	533.913
1611.0000	533.806
1611.5000	533.713
1612.0000	533.682
1612.5000	533.67
1613.0000	533.685
1613.5000	533.732
1614.0000	533.8
1614.5000	533.728
1615.0000	533.758
1615.5000	533.77
1616.0000	533.634
1616.5000	533.684
1617.0000	533.764
1617.5000	533.821
1618.0000	533.938
1618.5000	533.967
1619.0000	533.99
1619.5000	533.917
1620.0000	533.784
1620.5000	533.776
1621.0000	533.672
1621.5000	533.673
1622.0000	533.815
1622.5000	533.855
1623.0000	533.916
1623.5000	533.899
1624.0000	533.859
1624.5000	533.779
1625.0000	533.808
1625.5000	533.874
1626.0000	533.883
1626.5000	533.827
1627.0000	533.752
1627.5000	533.672
1628.0000	533.685
1628.5000	533.671
1629.0000	533.688
1629.5000	533.714
1630.0000	533.691
1630.5000	533.754
1631.0000	533.79
1631.5000	533.749
1632.0000	533.758
1632.5000	533.736
1633.0000	533.705
1633.5000	533.693
1634.0000	533.621
1634.5000	533.662
1635.0000	533.753
1635.5000	533.756
1636.0000	533.787
1636.5000	533.763
1637.0000	533.719
1637.5000	533.699
1638.0000	533.599
1638.5000	533.619
1639.0000	533.567
1639.5000	533.653
1640.0000	533.678
1640.5000	533.658
1641.0000	533.656
1641.5000	533.699
1642.0000	533.791
1642.5000	533.824
1643.0000	533.806
1643.5000	533.618
1644.0000	533.493
1644.5000	533.416
1645.0000	533.458
