TITLE	
DATA TYPE	
ORIGIN	JASCO
OWNER	
DATE	22/08/24
TIME	16:49:53
SPECTROMETER/DATA SYSTEM	
RESOLUTION	
DELTAX	0.5
XUNITS	SEC
YUNITS	INTENSITY
FIRSTX	0.0000
LASTX	1567.5000
NPOINTS	3136
FIRSTY	380.31851
MAXY	672.27258
MINY	-69.70165
XYDATA
0.0000	380.319
0.5000	380.28
1.0000	380.25
1.5000	380.173
2.0000	380.126
2.5000	380.117
3.0000	380.138
3.5000	380.138
4.0000	380.106
4.5000	380.034
5.0000	379.928
5.5000	379.934
6.0000	379.939
6.5000	379.935
7.0000	379.96
7.5000	379.912
8.0000	379.861
8.5000	379.88
9.0000	379.848
9.5000	379.872
10.0000	379.807
10.5000	379.738
11.0000	379.71
11.5000	379.671
12.0000	379.682
12.5000	379.734
13.0000	379.684
13.5000	379.675
14.0000	379.634
14.5000	379.57
15.0000	379.59
15.5000	379.551
16.0000	379.594
16.5000	379.635
17.0000	379.588
17.5000	379.598
18.0000	379.555
18.5000	379.486
19.0000	379.507
19.5000	379.471
20.0000	379.459
20.5000	379.519
21.0000	379.601
21.5000	379.637
22.0000	379.701
22.5000	379.62
23.0000	379.54
23.5000	379.543
24.0000	379.482
24.5000	379.475
25.0000	379.493
25.5000	379.478
26.0000	379.493
26.5000	379.503
27.0000	379.49
27.5000	379.481
28.0000	379.499
28.5000	379.531
29.0000	379.523
29.5000	379.473
30.0000	379.365
30.5000	379.292
31.0000	379.258
31.5000	379.286
32.0000	379.351
32.5000	379.329
33.0000	379.307
33.5000	379.201
34.0000	379.205
34.5000	375.825
35.0000	365.05
35.5000	343.549
36.0000	253.562
36.5000	-69.7017
37.0000	-39.8522
37.5000	-33.9315
38.0000	-32.0776
38.5000	-31.0832
39.0000	-30.4613
39.5000	-29.9432
40.0000	-29.5537
40.5000	-29.2722
41.0000	-29.1432
41.5000	-29.03
42.0000	-29.0163
42.5000	-28.9146
43.0000	-28.7096
43.5000	345.026
44.0000	341.162
44.5000	340.512
45.0000	340.162
45.5000	321.924
46.0000	322.238
46.5000	322.423
47.0000	322.742
47.5000	323.175
48.0000	323.652
48.5000	324.13
49.0000	324.582
49.5000	325.107
50.0000	325.558
50.5000	325.989
51.0000	326.46
51.5000	326.835
52.0000	327.345
52.5000	327.815
53.0000	328.271
53.5000	328.733
54.0000	329.159
54.5000	329.649
55.0000	330.132
55.5000	330.564
56.0000	331.039
56.5000	331.528
57.0000	332.015
57.5000	332.524
58.0000	332.994
58.5000	333.403
59.0000	333.815
59.5000	334.274
60.0000	334.777
60.5000	335.297
61.0000	335.833
61.5000	336.354
62.0000	336.818
62.5000	337.267
63.0000	337.7
63.5000	338.132
64.0000	338.524
64.5000	339.004
65.0000	339.507
65.5000	339.97
66.0000	340.489
66.5000	340.913
67.0000	341.328
67.5000	341.789
68.0000	342.238
68.5000	342.683
69.0000	343.162
69.5000	343.702
70.0000	344.188
70.5000	344.67
71.0000	345.157
71.5000	345.56
72.0000	345.991
72.5000	346.5
73.0000	346.969
73.5000	347.406
74.0000	347.88
74.5000	348.298
75.0000	348.716
75.5000	349.177
76.0000	349.63
76.5000	350.112
77.0000	350.553
77.5000	351.048
78.0000	351.493
78.5000	351.943
79.0000	352.443
79.5000	352.898
80.0000	353.304
80.5000	353.779
81.0000	354.199
81.5000	354.589
82.0000	355.084
82.5000	355.524
83.0000	355.984
83.5000	356.46
84.0000	356.92
84.5000	357.362
85.0000	357.811
85.5000	358.275
86.0000	358.726
86.5000	359.157
87.0000	359.568
87.5000	359.994
88.0000	360.442
88.5000	360.948
89.0000	361.38
89.5000	361.817
90.0000	362.293
90.5000	362.606
91.0000	363.086
91.5000	363.53
92.0000	363.933
92.5000	364.463
93.0000	364.899
93.5000	365.379
94.0000	365.839
94.5000	366.235
95.0000	366.687
95.5000	367.062
96.0000	367.523
96.5000	367.998
97.0000	368.397
97.5000	368.9
98.0000	369.295
98.5000	369.744
99.0000	370.22
99.5000	370.646
100.0000	371.056
100.5000	371.457
101.0000	371.901
101.5000	372.32
102.0000	372.825
102.5000	373.268
103.0000	373.666
103.5000	374.117
104.0000	374.504
104.5000	374.935
105.0000	375.407
105.5000	375.824
106.0000	376.223
106.5000	376.602
107.0000	376.997
107.5000	377.422
108.0000	377.868
108.5000	378.349
109.0000	378.782
109.5000	379.197
110.0000	379.577
110.5000	379.979
111.0000	380.407
111.5000	380.861
112.0000	381.343
112.5000	381.754
113.0000	382.141
113.5000	382.481
114.0000	382.894
114.5000	383.314
115.0000	383.754
115.5000	384.226
116.0000	384.616
116.5000	385.013
117.0000	385.418
117.5000	385.792
118.0000	386.161
118.5000	386.556
119.0000	386.956
119.5000	387.345
120.0000	387.756
120.5000	388.202
121.0000	388.555
121.5000	388.908
122.0000	389.295
122.5000	389.667
123.0000	390.118
123.5000	390.485
124.0000	390.813
124.5000	391.156
125.0000	391.454
125.5000	391.902
126.0000	392.389
126.5000	392.771
127.0000	393.178
127.5000	393.575
128.0000	393.879
128.5000	394.255
129.0000	394.672
129.5000	395.037
130.0000	395.451
130.5000	395.916
131.0000	396.336
131.5000	396.79
132.0000	397.272
132.5000	397.649
133.0000	398.043
133.5000	398.433
134.0000	398.757
134.5000	399.178
135.0000	399.581
135.5000	399.951
136.0000	400.378
136.5000	400.791
137.0000	401.253
137.5000	401.739
138.0000	402.156
138.5000	402.487
139.0000	402.881
139.5000	403.279
140.0000	403.703
140.5000	404.132
141.0000	404.465
141.5000	404.792
142.0000	405.166
142.5000	405.581
143.0000	405.934
143.5000	406.336
144.0000	406.721
144.5000	407.116
145.0000	407.558
145.5000	407.932
146.0000	408.332
146.5000	408.738
147.0000	409.105
147.5000	409.522
148.0000	409.913
148.5000	410.283
149.0000	410.65
149.5000	411.012
150.0000	411.406
150.5000	411.783
151.0000	412.185
151.5000	412.545
152.0000	412.861
152.5000	413.243
153.0000	413.621
153.5000	413.992
154.0000	414.348
154.5000	414.668
155.0000	415.012
155.5000	415.356
156.0000	415.75
156.5000	416.177
157.0000	416.566
157.5000	416.968
158.0000	417.307
158.5000	417.61
159.0000	418.003
159.5000	418.376
160.0000	418.74
160.5000	419.153
161.0000	419.439
161.5000	419.735
162.0000	420.161
162.5000	420.49
163.0000	420.856
163.5000	421.313
164.0000	421.629
164.5000	421.948
165.0000	422.337
165.5000	422.62
166.0000	422.981
166.5000	423.327
167.0000	423.702
167.5000	424.084
168.0000	424.446
168.5000	424.821
169.0000	425.14
169.5000	425.506
170.0000	425.849
170.5000	426.189
171.0000	426.516
171.5000	426.781
172.0000	427.132
172.5000	427.524
173.0000	427.925
173.5000	428.33
174.0000	428.668
174.5000	428.965
175.0000	429.285
175.5000	429.682
176.0000	430.089
176.5000	430.483
177.0000	430.843
177.5000	431.18
178.0000	431.481
178.5000	431.797
179.0000	432.128
179.5000	432.436
180.0000	432.742
180.5000	433.099
181.0000	433.496
181.5000	433.821
182.0000	434.198
182.5000	434.538
183.0000	434.824
183.5000	435.149
184.0000	435.486
184.5000	435.807
185.0000	436.102
185.5000	436.421
186.0000	436.704
186.5000	437.026
187.0000	437.312
187.5000	437.637
188.0000	437.927
188.5000	438.237
189.0000	438.64
189.5000	439.005
190.0000	439.418
190.5000	439.703
191.0000	440.024
191.5000	440.337
192.0000	440.651
192.5000	441.033
193.0000	441.398
193.5000	441.71
194.0000	441.998
194.5000	442.351
195.0000	442.631
195.5000	442.998
196.0000	443.304
196.5000	443.631
197.0000	443.975
197.5000	444.212
198.0000	444.56
198.5000	444.864
199.0000	445.114
199.5000	445.532
200.0000	445.877
200.5000	446.175
201.0000	446.525
201.5000	446.802
202.0000	447.081
202.5000	447.382
203.0000	447.662
203.5000	447.994
204.0000	448.308
204.5000	448.583
205.0000	448.869
205.5000	449.169
206.0000	449.429
206.5000	449.763
207.0000	450.116
207.5000	450.374
208.0000	450.746
208.5000	451.048
209.0000	451.347
209.5000	451.705
210.0000	452.018
210.5000	452.318
211.0000	452.592
211.5000	452.883
212.0000	453.205
212.5000	453.525
213.0000	453.822
213.5000	454.126
214.0000	454.348
214.5000	454.575
215.0000	454.911
215.5000	455.146
216.0000	455.459
216.5000	455.833
217.0000	456.203
217.5000	456.522
218.0000	456.862
218.5000	457.183
219.0000	457.415
219.5000	457.715
220.0000	457.964
220.5000	458.186
221.0000	458.47
221.5000	458.767
222.0000	459.033
222.5000	459.396
223.0000	459.632
223.5000	459.932
224.0000	460.236
224.5000	460.418
225.0000	460.684
225.5000	460.957
226.0000	461.29
226.5000	461.618
227.0000	461.987
227.5000	462.311
228.0000	462.564
228.5000	462.911
229.0000	463.204
229.5000	463.376
230.0000	463.628
230.5000	463.866
231.0000	464.045
231.5000	464.371
232.0000	464.646
232.5000	464.902
233.0000	465.266
233.5000	465.598
234.0000	465.891
234.5000	466.15
235.0000	466.461
235.5000	466.659
236.0000	466.911
236.5000	467.269
237.0000	467.489
237.5000	467.775
238.0000	468.071
238.5000	468.26
239.0000	468.539
239.5000	468.828
240.0000	469.124
240.5000	469.384
241.0000	469.613
241.5000	469.888
242.0000	470.093
242.5000	470.367
243.0000	470.663
243.5000	470.901
244.0000	471.176
244.5000	471.465
245.0000	471.7
245.5000	471.978
246.0000	472.174
246.5000	472.446
247.0000	472.78
247.5000	473.005
248.0000	473.356
248.5000	473.605
249.0000	473.788
249.5000	474.045
250.0000	474.292
250.5000	474.59
251.0000	474.856
251.5000	475.183
252.0000	475.452
252.5000	475.624
253.0000	475.951
253.5000	476.19
254.0000	476.466
254.5000	476.786
255.0000	476.967
255.5000	477.177
256.0000	477.421
256.5000	477.603
257.0000	477.825
257.5000	478.085
258.0000	478.274
258.5000	478.577
259.0000	478.882
259.5000	479.174
260.0000	479.454
260.5000	479.665
261.0000	479.945
261.5000	480.189
262.0000	480.439
262.5000	480.774
263.0000	481.012
263.5000	481.232
264.0000	481.53
264.5000	481.724
265.0000	481.917
265.5000	482.131
266.0000	482.389
266.5000	482.653
267.0000	482.896
267.5000	483.193
268.0000	483.445
268.5000	483.676
269.0000	483.962
269.5000	484.12
270.0000	484.343
270.5000	484.584
271.0000	484.808
271.5000	485.134
272.0000	485.328
272.5000	485.5
273.0000	485.729
273.5000	486.016
274.0000	486.225
274.5000	486.533
275.0000	486.803
275.5000	486.951
276.0000	487.246
276.5000	487.48
277.0000	487.741
277.5000	488.032
278.0000	488.313
278.5000	488.566
279.0000	488.783
279.5000	489.02
280.0000	489.202
280.5000	489.473
281.0000	489.674
281.5000	489.841
282.0000	490.112
282.5000	490.31
283.0000	490.542
283.5000	490.787
284.0000	490.974
284.5000	491.147
285.0000	491.379
285.5000	491.639
286.0000	491.835
286.5000	492.204
287.0000	492.473
287.5000	492.673
288.0000	492.913
288.5000	492.996
289.0000	493.149
289.5000	493.373
290.0000	493.614
290.5000	493.899
291.0000	494.147
291.5000	494.337
292.0000	494.586
292.5000	494.808
293.0000	495.029
293.5000	495.349
294.0000	495.6
294.5000	495.834
295.0000	496.002
295.5000	496.214
296.0000	496.441
296.5000	496.643
297.0000	496.915
297.5000	497.114
298.0000	497.211
298.5000	497.459
299.0000	497.706
299.5000	497.974
300.0000	498.275
300.5000	498.501
301.0000	498.695
301.5000	498.891
302.0000	499.153
302.5000	499.327
303.0000	499.578
303.5000	499.737
304.0000	499.914
304.5000	500.119
305.0000	500.336
305.5000	500.591
306.0000	500.795
306.5000	500.951
307.0000	501.151
307.5000	501.322
308.0000	501.529
308.5000	501.74
309.0000	501.944
309.5000	502.167
310.0000	502.422
310.5000	502.649
311.0000	502.887
311.5000	503.124
312.0000	503.245
312.5000	503.517
313.0000	503.726
313.5000	503.937
314.0000	504.254
314.5000	504.417
315.0000	504.653
315.5000	504.859
316.0000	505.001
316.5000	505.244
317.0000	505.361
317.5000	505.526
318.0000	505.752
318.5000	505.968
319.0000	506.238
319.5000	506.46
320.0000	506.69
320.5000	506.914
321.0000	507.058
321.5000	507.248
322.0000	507.466
322.5000	507.661
323.0000	507.859
323.5000	508.13
324.0000	508.32
324.5000	508.497
325.0000	508.848
325.5000	508.999
326.0000	509.177
326.5000	509.451
327.0000	509.639
327.5000	509.871
328.0000	510.056
328.5000	510.15
329.0000	510.341
329.5000	510.502
330.0000	510.695
330.5000	510.979
331.0000	511.138
331.5000	511.361
332.0000	511.573
332.5000	511.702
333.0000	511.868
333.5000	512.133
334.0000	512.346
334.5000	512.648
335.0000	512.886
335.5000	513.007
336.0000	513.238
336.5000	513.419
337.0000	513.596
337.5000	513.805
338.0000	513.973
338.5000	514.149
339.0000	514.333
339.5000	514.494
340.0000	514.684
340.5000	514.906
341.0000	515.143
341.5000	515.332
342.0000	515.505
342.5000	515.691
343.0000	515.86
343.5000	516.035
344.0000	516.288
344.5000	516.475
345.0000	516.588
345.5000	516.891
346.0000	517.053
346.5000	517.172
347.0000	517.458
347.5000	517.627
348.0000	517.881
348.5000	518.072
349.0000	518.192
349.5000	518.336
350.0000	518.464
350.5000	518.725
351.0000	518.951
351.5000	519.154
352.0000	519.321
352.5000	519.5
353.0000	519.61
353.5000	519.705
354.0000	519.834
354.5000	519.993
355.0000	520.215
355.5000	520.457
356.0000	520.712
356.5000	520.875
357.0000	521.042
357.5000	521.221
358.0000	521.372
358.5000	521.595
359.0000	521.808
359.5000	522.017
360.0000	522.138
360.5000	522.198
361.0000	522.434
361.5000	522.622
362.0000	522.917
362.5000	523.133
363.0000	523.286
363.5000	523.476
364.0000	523.632
364.5000	523.846
365.0000	524.065
365.5000	524.236
366.0000	524.404
366.5000	524.614
367.0000	524.737
367.5000	524.861
368.0000	525.056
368.5000	525.172
369.0000	525.273
369.5000	525.49
370.0000	525.579
370.5000	525.843
371.0000	526.116
371.5000	526.231
372.0000	526.389
372.5000	526.506
373.0000	526.64
373.5000	526.862
374.0000	527.151
374.5000	527.367
375.0000	527.507
375.5000	527.722
376.0000	527.908
376.5000	527.947
377.0000	528.159
377.5000	528.3
378.0000	528.456
378.5000	528.747
379.0000	528.983
379.5000	529.177
380.0000	529.314
380.5000	529.486
381.0000	529.585
381.5000	529.697
382.0000	529.847
382.5000	530.025
383.0000	530.254
383.5000	530.481
384.0000	530.686
384.5000	530.862
385.0000	531.003
385.5000	531.211
386.0000	531.372
386.5000	531.541
387.0000	531.707
387.5000	531.867
388.0000	532.037
388.5000	532.148
389.0000	532.344
389.5000	532.536
390.0000	532.716
390.5000	532.885
391.0000	533.004
391.5000	533.103
392.0000	533.275
392.5000	533.437
393.0000	533.543
393.5000	533.746
394.0000	533.898
394.5000	534.087
395.0000	534.35
395.5000	534.473
396.0000	534.647
396.5000	534.793
397.0000	534.931
397.5000	535.122
398.0000	535.251
398.5000	535.477
399.0000	535.742
399.5000	535.91
400.0000	536.198
400.5000	536.278
401.0000	536.331
401.5000	536.453
402.0000	536.49
402.5000	536.776
403.0000	536.986
403.5000	537.201
404.0000	537.407
404.5000	537.55
405.0000	537.639
405.5000	537.767
406.0000	537.925
406.5000	538.071
407.0000	538.293
407.5000	538.444
408.0000	538.616
408.5000	538.737
409.0000	538.917
409.5000	539.097
410.0000	539.213
410.5000	539.335
411.0000	539.396
411.5000	539.558
412.0000	539.77
412.5000	539.884
413.0000	540.115
413.5000	540.288
414.0000	540.386
414.5000	540.628
415.0000	540.753
415.5000	540.861
416.0000	541.016
416.5000	541.142
417.0000	541.254
417.5000	541.441
418.0000	541.65
418.5000	541.789
419.0000	542.013
419.5000	542.093
420.0000	542.215
420.5000	542.325
421.0000	542.38
421.5000	542.585
422.0000	542.7
422.5000	542.884
423.0000	543.049
423.5000	543.184
424.0000	543.369
424.5000	543.472
425.0000	543.648
425.5000	543.762
426.0000	543.904
426.5000	544.118
427.0000	544.316
427.5000	544.56
428.0000	544.704
428.5000	544.893
429.0000	545.024
429.5000	545.037
430.0000	545.121
430.5000	545.237
431.0000	545.374
431.5000	545.572
432.0000	545.793
432.5000	545.882
433.0000	546.027
433.5000	546.149
434.0000	546.308
434.5000	546.508
435.0000	546.759
435.5000	546.904
436.0000	547.048
436.5000	547.209
437.0000	547.264
437.5000	547.44
438.0000	547.492
438.5000	547.553
439.0000	547.716
439.5000	547.861
440.0000	548.108
440.5000	548.305
441.0000	548.419
441.5000	548.552
442.0000	548.67
442.5000	548.791
443.0000	548.952
443.5000	549.041
444.0000	549.232
444.5000	549.395
445.0000	549.539
445.5000	549.701
446.0000	549.661
446.5000	549.785
447.0000	549.908
447.5000	550.125
448.0000	550.31
448.5000	550.484
449.0000	550.651
449.5000	550.766
450.0000	550.956
450.5000	551.081
451.0000	551.245
451.5000	551.356
452.0000	551.472
452.5000	551.646
453.0000	551.72
453.5000	551.905
454.0000	552.071
454.5000	552.188
455.0000	552.319
455.5000	552.479
456.0000	552.587
456.5000	552.78
457.0000	552.917
457.5000	552.985
458.0000	553.147
458.5000	553.255
459.0000	553.427
459.5000	553.571
460.0000	553.683
460.5000	553.73
461.0000	553.799
461.5000	553.924
462.0000	554.131
462.5000	554.273
463.0000	554.366
463.5000	554.456
464.0000	554.556
464.5000	554.78
465.0000	555.013
465.5000	555.209
466.0000	555.352
466.5000	555.408
467.0000	555.476
467.5000	555.554
468.0000	555.645
468.5000	555.768
469.0000	555.876
469.5000	556.054
470.0000	556.206
470.5000	556.357
471.0000	556.547
471.5000	556.58
472.0000	556.779
472.5000	556.887
473.0000	556.99
473.5000	557.212
474.0000	557.238
474.5000	557.465
475.0000	557.624
475.5000	557.721
476.0000	557.869
476.5000	557.932
477.0000	558.039
477.5000	558.179
478.0000	558.337
478.5000	558.465
479.0000	558.598
479.5000	558.777
480.0000	558.765
480.5000	558.9
481.0000	559.149
481.5000	559.224
482.0000	559.451
482.5000	559.588
483.0000	559.658
483.5000	559.795
484.0000	559.985
484.5000	560.093
485.0000	560.165
485.5000	560.362
486.0000	560.459
486.5000	560.638
487.0000	560.865
487.5000	560.958
488.0000	561.104
488.5000	561.126
489.0000	561.208
489.5000	561.315
490.0000	561.376
490.5000	561.573
491.0000	561.615
491.5000	561.707
492.0000	561.882
492.5000	561.916
493.0000	562.081
493.5000	562.26
494.0000	562.375
494.5000	562.525
495.0000	562.658
495.5000	562.758
496.0000	562.883
496.5000	563.068
497.0000	563.238
497.5000	563.318
498.0000	563.409
498.5000	563.57
499.0000	563.592
499.5000	563.716
500.0000	563.879
500.5000	563.898
501.0000	564.094
501.5000	564.232
502.0000	564.353
502.5000	564.606
503.0000	564.56
503.5000	564.674
504.0000	564.753
504.5000	564.725
505.0000	564.975
505.5000	565.152
506.0000	565.265
506.5000	565.402
507.0000	565.546
507.5000	565.633
508.0000	565.688
508.5000	565.891
509.0000	565.946
509.5000	566.006
510.0000	566.169
510.5000	566.201
511.0000	566.289
511.5000	566.489
512.0000	566.577
512.5000	566.803
513.0000	566.986
513.5000	567.062
514.0000	567.292
514.5000	567.315
515.0000	567.442
515.5000	567.575
516.0000	567.617
516.5000	567.707
517.0000	567.773
517.5000	567.906
518.0000	568.062
518.5000	568.148
519.0000	568.244
519.5000	568.388
520.0000	568.5
520.5000	568.727
521.0000	568.861
521.5000	568.883
522.0000	568.922
522.5000	568.982
523.0000	569.056
523.5000	569.217
524.0000	569.376
524.5000	569.452
525.0000	569.685
525.5000	569.763
526.0000	569.873
526.5000	570.076
527.0000	570.074
527.5000	570.195
528.0000	570.363
528.5000	570.4
529.0000	570.558
529.5000	570.737
530.0000	570.788
530.5000	570.872
531.0000	570.995
531.5000	571.088
532.0000	571.21
532.5000	571.412
533.0000	571.523
533.5000	571.536
534.0000	571.622
534.5000	571.725
535.0000	571.81
535.5000	571.914
536.0000	572.048
536.5000	572.079
537.0000	572.196
537.5000	572.373
538.0000	572.561
538.5000	572.744
539.0000	572.818
539.5000	572.886
540.0000	572.922
540.5000	573.011
541.0000	573.153
541.5000	573.326
542.0000	573.489
542.5000	573.6
543.0000	573.696
543.5000	573.786
544.0000	573.837
544.5000	573.947
545.0000	573.978
545.5000	574.023
546.0000	574.158
546.5000	574.181
547.0000	574.351
547.5000	574.467
548.0000	574.564
548.5000	574.758
549.0000	574.825
549.5000	574.961
550.0000	575.063
550.5000	575.177
551.0000	575.355
551.5000	575.523
552.0000	575.624
552.5000	575.71
553.0000	575.831
553.5000	575.861
554.0000	575.99
554.5000	576.086
555.0000	576.247
555.5000	576.356
556.0000	576.424
556.5000	576.531
557.0000	576.529
557.5000	576.654
558.0000	576.817
558.5000	576.921
559.0000	577.069
559.5000	577.275
560.0000	577.312
560.5000	577.416
561.0000	577.511
561.5000	577.495
562.0000	577.555
562.5000	577.711
563.0000	577.772
563.5000	577.878
564.0000	578.019
564.5000	578.021
565.0000	578.18
565.5000	578.332
566.0000	578.401
566.5000	578.531
567.0000	578.684
567.5000	578.745
568.0000	578.954
568.5000	579.006
569.0000	579.066
569.5000	579.095
570.0000	579.202
570.5000	579.4
571.0000	579.509
571.5000	579.636
572.0000	579.681
572.5000	579.8
573.0000	579.803
573.5000	579.953
574.0000	580.129
574.5000	580.155
575.0000	580.315
575.5000	580.393
576.0000	580.387
576.5000	580.532
577.0000	580.7
577.5000	580.792
578.0000	580.892
578.5000	580.891
579.0000	580.969
579.5000	581.107
580.0000	581.277
580.5000	581.481
581.0000	581.572
581.5000	581.662
582.0000	581.633
582.5000	581.691
583.0000	581.754
583.5000	581.871
584.0000	582.009
584.5000	582.11
585.0000	582.224
585.5000	582.287
586.0000	582.37
586.5000	582.439
587.0000	582.457
587.5000	582.546
588.0000	582.669
588.5000	582.835
589.0000	582.917
589.5000	583.001
590.0000	583.115
590.5000	583.171
591.0000	583.31
591.5000	583.42
592.0000	583.429
592.5000	583.634
593.0000	583.756
593.5000	583.853
594.0000	584.051
594.5000	584.103
595.0000	584.154
595.5000	584.177
596.0000	584.244
596.5000	584.246
597.0000	584.46
597.5000	584.617
598.0000	584.755
598.5000	584.901
599.0000	584.945
599.5000	585.086
600.0000	585.094
600.5000	585.135
601.0000	585.266
601.5000	585.376
602.0000	585.541
602.5000	585.676
603.0000	585.771
603.5000	585.867
604.0000	585.954
604.5000	585.995
605.0000	586.063
605.5000	586.073
606.0000	586.162
606.5000	586.325
607.0000	586.321
607.5000	586.504
608.0000	586.599
608.5000	586.63
609.0000	586.814
609.5000	586.875
610.0000	586.956
610.5000	587.102
611.0000	587.167
611.5000	587.171
612.0000	587.295
612.5000	587.438
613.0000	587.573
613.5000	587.7
614.0000	587.778
614.5000	587.811
615.0000	587.806
615.5000	587.971
616.0000	588.108
616.5000	588.152
617.0000	588.258
617.5000	588.3
618.0000	588.366
618.5000	588.61
619.0000	588.723
619.5000	588.757
620.0000	588.802
620.5000	588.789
621.0000	588.875
621.5000	589.012
622.0000	589.212
622.5000	589.218
623.0000	589.292
623.5000	589.354
624.0000	589.29
624.5000	589.454
625.0000	589.538
625.5000	589.623
626.0000	589.768
626.5000	589.841
627.0000	589.884
627.5000	590.026
628.0000	590.122
628.5000	590.249
629.0000	590.346
629.5000	590.415
630.0000	590.467
630.5000	590.476
631.0000	590.604
631.5000	590.752
632.0000	590.885
632.5000	591.079
633.0000	591.224
633.5000	591.162
634.0000	591.202
634.5000	591.225
635.0000	591.306
635.5000	591.64
636.0000	591.743
636.5000	591.869
637.0000	591.965
637.5000	591.913
638.0000	592.001
638.5000	592.13
639.0000	592.276
639.5000	592.327
640.0000	592.535
640.5000	592.619
641.0000	592.727
641.5000	592.809
642.0000	592.777
642.5000	592.793
643.0000	592.809
643.5000	593.014
644.0000	593.033
644.5000	593.097
645.0000	593.088
645.5000	593.137
646.0000	593.318
646.5000	593.4
647.0000	593.554
647.5000	593.609
648.0000	593.705
648.5000	593.775
649.0000	593.87
649.5000	593.947
650.0000	594.077
650.5000	594.272
651.0000	594.397
651.5000	594.516
652.0000	594.572
652.5000	594.603
653.0000	594.663
653.5000	594.739
654.0000	594.794
654.5000	594.9
655.0000	595.008
655.5000	595.084
656.0000	595.172
656.5000	595.251
657.0000	595.283
657.5000	595.337
658.0000	595.439
658.5000	595.559
659.0000	595.659
659.5000	595.838
660.0000	595.915
660.5000	596.002
661.0000	596.011
661.5000	596.04
662.0000	596.108
662.5000	596.213
663.0000	596.396
663.5000	596.526
664.0000	596.564
664.5000	596.587
665.0000	596.666
665.5000	596.742
666.0000	596.812
666.5000	596.995
667.0000	597.123
667.5000	597.226
668.0000	597.329
668.5000	597.273
669.0000	597.353
669.5000	597.407
670.0000	597.673
670.5000	597.792
671.0000	597.861
671.5000	597.979
672.0000	597.966
672.5000	598.075
673.0000	598.149
673.5000	598.235
674.0000	598.322
674.5000	598.449
675.0000	598.642
675.5000	598.686
676.0000	598.752
676.5000	598.9
677.0000	598.968
677.5000	599.063
678.0000	599.224
678.5000	599.286
679.0000	599.283
679.5000	599.396
680.0000	599.361
680.5000	599.349
681.0000	599.482
681.5000	599.55
682.0000	599.688
682.5000	599.903
683.0000	599.951
683.5000	599.996
684.0000	600.139
684.5000	600.187
685.0000	600.311
685.5000	600.433
686.0000	600.526
686.5000	600.583
687.0000	600.61
687.5000	600.606
688.0000	600.638
688.5000	600.733
689.0000	600.875
689.5000	601.09
690.0000	601.222
690.5000	601.344
691.0000	601.383
691.5000	601.403
692.0000	601.457
692.5000	601.361
693.0000	601.474
693.5000	601.572
694.0000	601.628
694.5000	601.806
695.0000	601.962
695.5000	602.095
696.0000	602.218
696.5000	602.488
697.0000	602.469
697.5000	602.481
698.0000	602.555
698.5000	602.562
699.0000	602.695
699.5000	602.874
700.0000	602.954
700.5000	602.935
701.0000	603.123
701.5000	603.096
702.0000	603.237
702.5000	603.398
703.0000	603.386
703.5000	603.549
704.0000	603.657
704.5000	603.687
705.0000	603.774
705.5000	603.854
706.0000	603.891
706.5000	603.986
707.0000	603.9
707.5000	603.968
708.0000	604.075
708.5000	604.211
709.0000	604.318
709.5000	604.402
710.0000	604.521
710.5000	604.56
711.0000	604.702
711.5000	604.848
712.0000	604.848
712.5000	604.938
713.0000	605.043
713.5000	605.063
714.0000	605.178
714.5000	605.294
715.0000	605.475
715.5000	605.584
716.0000	605.741
716.5000	605.853
717.0000	605.914
717.5000	606.077
718.0000	606.084
718.5000	606.096
719.0000	606.185
719.5000	606.194
720.0000	606.335
720.5000	606.476
721.0000	606.578
721.5000	606.569
722.0000	606.585
722.5000	606.727
723.0000	606.811
723.5000	607.012
724.0000	607.149
724.5000	607.183
725.0000	607.262
725.5000	607.354
726.0000	607.412
726.5000	607.396
727.0000	607.422
727.5000	607.572
728.0000	607.679
728.5000	607.865
729.0000	607.945
729.5000	607.946
730.0000	608.007
730.5000	608.075
731.0000	608.224
731.5000	608.355
732.0000	608.411
732.5000	608.479
733.0000	608.579
733.5000	608.526
734.0000	608.66
734.5000	608.742
735.0000	608.796
735.5000	608.979
736.0000	609.068
736.5000	609.139
737.0000	609.206
737.5000	609.211
738.0000	609.313
738.5000	609.432
739.0000	609.63
739.5000	609.846
740.0000	609.815
740.5000	609.895
741.0000	609.926
741.5000	609.947
742.0000	610.072
742.5000	610.162
743.0000	610.1
743.5000	610.119
744.0000	610.271
744.5000	610.256
745.0000	610.436
745.5000	610.6
746.0000	610.579
746.5000	610.636
747.0000	610.701
747.5000	610.695
748.0000	610.72
748.5000	610.858
749.0000	610.994
749.5000	611.209
750.0000	611.385
750.5000	611.532
751.0000	611.604
751.5000	611.667
752.0000	611.654
752.5000	611.658
753.0000	611.769
753.5000	611.881
754.0000	612.066
754.5000	612.201
755.0000	612.214
755.5000	612.302
756.0000	612.452
756.5000	612.573
757.0000	612.659
757.5000	612.734
758.0000	612.812
758.5000	612.924
759.0000	613.093
759.5000	613.254
760.0000	613.219
760.5000	613.177
761.0000	613.057
761.5000	613.004
762.0000	613.194
762.5000	613.399
763.0000	613.58
763.5000	613.631
764.0000	613.642
764.5000	613.631
765.0000	613.767
765.5000	613.887
766.0000	614.087
766.5000	614.176
767.0000	614.248
767.5000	614.382
768.0000	614.412
768.5000	614.456
769.0000	614.489
769.5000	614.539
770.0000	614.551
770.5000	614.699
771.0000	614.81
771.5000	614.84
772.0000	614.891
772.5000	614.976
773.0000	615.052
773.5000	615.18
774.0000	615.397
774.5000	615.532
775.0000	615.613
775.5000	615.666
776.0000	615.621
776.5000	615.673
777.0000	615.763
777.5000	615.977
778.0000	616.068
778.5000	616.029
779.0000	616.209
779.5000	616.147
780.0000	616.264
780.5000	616.326
781.0000	616.283
781.5000	616.345
782.0000	616.364
782.5000	616.517
783.0000	616.625
783.5000	616.761
784.0000	616.917
784.5000	616.975
785.0000	617.093
785.5000	617.19
786.0000	617.245
786.5000	617.357
787.0000	617.408
787.5000	617.47
788.0000	617.565
788.5000	617.639
789.0000	617.734
789.5000	617.769
790.0000	617.858
790.5000	617.931
791.0000	617.977
791.5000	618.094
792.0000	618.277
792.5000	618.34
793.0000	618.333
793.5000	618.421
794.0000	618.388
794.5000	618.42
795.0000	618.534
795.5000	618.62
796.0000	618.686
796.5000	618.892
797.0000	619.009
797.5000	619.092
798.0000	619.233
798.5000	619.32
799.0000	619.452
799.5000	619.556
800.0000	619.619
800.5000	619.771
801.0000	619.897
801.5000	619.951
802.0000	620.092
802.5000	620.139
803.0000	620.197
803.5000	620.292
804.0000	620.296
804.5000	620.33
805.0000	620.421
805.5000	620.53
806.0000	620.598
806.5000	620.801
807.0000	620.801
807.5000	620.808
808.0000	620.892
808.5000	620.874
809.0000	621.056
809.5000	621.107
810.0000	621.252
810.5000	621.341
811.0000	621.375
811.5000	621.473
812.0000	621.546
812.5000	621.733
813.0000	621.831
813.5000	622.061
814.0000	622.109
814.5000	622.06
815.0000	622.094
815.5000	622.036
816.0000	622.138
816.5000	622.319
817.0000	622.456
817.5000	622.568
818.0000	622.66
818.5000	622.655
819.0000	622.758
819.5000	622.911
820.0000	623.036
820.5000	623.142
821.0000	623.273
821.5000	623.343
822.0000	623.396
822.5000	623.405
823.0000	623.532
823.5000	623.617
824.0000	623.732
824.5000	623.93
825.0000	623.982
825.5000	624.147
826.0000	624.163
826.5000	624.27
827.0000	624.39
827.5000	624.346
828.0000	624.414
828.5000	624.413
829.0000	624.366
829.5000	624.5
830.0000	624.629
830.5000	624.754
831.0000	624.816
831.5000	624.865
832.0000	624.945
832.5000	625.055
833.0000	625.198
833.5000	625.28
834.0000	625.47
834.5000	625.53
835.0000	625.577
835.5000	625.619
836.0000	625.543
836.5000	625.642
837.0000	625.691
837.5000	625.819
838.0000	625.942
838.5000	626.069
839.0000	626.207
839.5000	626.332
840.0000	626.443
840.5000	626.41
841.0000	626.488
841.5000	626.57
842.0000	626.585
842.5000	626.659
843.0000	626.716
843.5000	626.762
844.0000	626.958
844.5000	627.079
845.0000	627.179
845.5000	627.336
846.0000	627.408
846.5000	627.537
847.0000	627.655
847.5000	627.615
848.0000	627.742
848.5000	627.703
849.0000	627.818
849.5000	627.999
850.0000	627.993
850.5000	628.128
851.0000	628.253
851.5000	628.359
852.0000	628.427
852.5000	628.504
853.0000	628.559
853.5000	628.601
854.0000	628.785
854.5000	628.957
855.0000	629.01
855.5000	629.11
856.0000	629.179
856.5000	629.307
857.0000	629.481
857.5000	629.531
858.0000	629.581
858.5000	629.723
859.0000	629.788
859.5000	629.974
860.0000	630.025
860.5000	630.031
861.0000	630.004
861.5000	630.041
862.0000	630.219
862.5000	630.268
863.0000	630.386
863.5000	630.514
864.0000	630.59
864.5000	630.711
865.0000	630.815
865.5000	630.822
866.0000	630.878
866.5000	630.935
867.0000	630.986
867.5000	631.135
868.0000	631.217
868.5000	631.331
869.0000	631.492
869.5000	631.597
870.0000	631.657
870.5000	631.663
871.0000	631.727
871.5000	631.767
872.0000	631.939
872.5000	632.1
873.0000	632.19
873.5000	632.383
874.0000	632.465
874.5000	632.566
875.0000	632.652
875.5000	632.555
876.0000	632.655
876.5000	632.704
877.0000	632.806
877.5000	632.988
878.0000	632.969
878.5000	633.054
879.0000	633.24
879.5000	633.315
880.0000	633.484
880.5000	633.562
881.0000	633.476
881.5000	633.59
882.0000	633.675
882.5000	633.815
883.0000	633.975
883.5000	634
884.0000	634.038
884.5000	634.041
885.0000	634.058
885.5000	634.214
886.0000	634.396
886.5000	634.518
887.0000	634.609
887.5000	634.691
888.0000	634.74
888.5000	634.806
889.0000	634.881
889.5000	634.963
890.0000	634.959
890.5000	635.156
891.0000	635.304
891.5000	635.373
892.0000	635.435
892.5000	635.481
893.0000	635.573
893.5000	635.573
894.0000	635.75
894.5000	635.783
895.0000	635.922
895.5000	636.05
896.0000	636.1
896.5000	636.198
897.0000	636.128
897.5000	636.279
898.0000	636.357
898.5000	636.419
899.0000	636.608
899.5000	636.662
900.0000	636.663
900.5000	636.742
901.0000	636.814
901.5000	636.961
902.0000	637.108
902.5000	637.231
903.0000	637.331
903.5000	637.301
904.0000	637.394
904.5000	637.45
905.0000	637.373
905.5000	637.465
906.0000	637.549
906.5000	637.586
907.0000	637.813
907.5000	637.949
908.0000	638.002
908.5000	638.073
909.0000	638.097
909.5000	638.046
910.0000	638.176
910.5000	638.415
911.0000	638.587
911.5000	638.719
912.0000	638.853
912.5000	638.798
913.0000	638.79
913.5000	638.88
914.0000	638.985
914.5000	639.045
915.0000	639.147
915.5000	639.22
916.0000	639.221
916.5000	639.276
917.0000	639.337
917.5000	639.541
918.0000	639.574
918.5000	639.661
919.0000	639.767
919.5000	639.716
920.0000	639.857
920.5000	639.95
921.0000	640.095
921.5000	640.289
922.0000	640.33
922.5000	640.505
923.0000	640.616
923.5000	640.644
924.0000	640.708
924.5000	640.746
925.0000	640.739
925.5000	640.717
926.0000	640.856
926.5000	640.938
927.0000	641.008
927.5000	641.116
928.0000	641.136
928.5000	641.266
929.0000	641.414
929.5000	641.575
930.0000	641.715
930.5000	641.739
931.0000	641.708
931.5000	641.688
932.0000	641.77
932.5000	641.859
933.0000	642.005
933.5000	642.185
934.0000	642.184
934.5000	642.211
935.0000	642.318
935.5000	642.393
936.0000	642.514
936.5000	642.623
937.0000	642.589
937.5000	642.621
938.0000	642.692
938.5000	642.781
939.0000	642.858
939.5000	642.902
940.0000	642.924
940.5000	643.018
941.0000	643.15
941.5000	643.277
942.0000	643.48
942.5000	643.53
943.0000	643.557
943.5000	643.655
944.0000	643.748
944.5000	643.773
945.0000	643.86
945.5000	643.916
946.0000	643.88
946.5000	643.987
947.0000	644
947.5000	644.102
948.0000	644.126
948.5000	644.203
949.0000	644.38
949.5000	644.386
950.0000	644.563
950.5000	644.761
951.0000	644.829
951.5000	644.962
952.0000	645.01
952.5000	644.947
953.0000	644.99
953.5000	645.025
954.0000	645.084
954.5000	645.187
955.0000	645.355
955.5000	645.413
956.0000	645.519
956.5000	645.555
957.0000	645.605
957.5000	645.697
958.0000	645.711
958.5000	645.895
959.0000	645.96
959.5000	646.039
960.0000	646.059
960.5000	646.102
961.0000	646.283
961.5000	646.413
962.0000	646.628
962.5000	646.706
963.0000	646.629
963.5000	646.643
964.0000	646.736
964.5000	646.713
965.0000	646.815
965.5000	646.997
966.0000	646.974
966.5000	647.165
967.0000	647.328
967.5000	647.259
968.0000	647.313
968.5000	647.401
969.0000	647.359
969.5000	647.368
970.0000	647.528
970.5000	647.548
971.0000	647.646
971.5000	647.782
972.0000	647.839
972.5000	647.859
973.0000	647.919
973.5000	648.024
974.0000	648.051
974.5000	648.212
975.0000	648.237
975.5000	648.302
976.0000	648.374
976.5000	648.419
977.0000	648.566
977.5000	648.649
978.0000	648.722
978.5000	648.794
979.0000	648.869
979.5000	648.912
980.0000	648.882
980.5000	648.926
981.0000	648.978
981.5000	648.98
982.0000	649.251
982.5000	649.169
983.0000	649.12
983.5000	649.252
984.0000	649.265
984.5000	649.445
985.0000	649.608
985.5000	649.636
986.0000	649.68
986.5000	649.659
987.0000	649.731
987.5000	649.85
988.0000	649.876
988.5000	650.04
989.0000	650.07
989.5000	650.133
990.0000	650.101
990.5000	650.177
991.0000	650.216
991.5000	650.369
992.0000	650.63
992.5000	650.603
993.0000	650.679
993.5000	650.696
994.0000	650.603
994.5000	650.681
995.0000	650.775
995.5000	650.753
996.0000	650.811
996.5000	650.874
997.0000	650.896
997.5000	651.044
998.0000	651.225
998.5000	651.301
999.0000	651.34
999.5000	651.326
1000.0000	651.341
1000.5000	651.393
1001.0000	651.383
1001.5000	651.333
1002.0000	651.365
1002.5000	651.459
1003.0000	651.757
1003.5000	651.893
1004.0000	651.965
1004.5000	652.092
1005.0000	652
1005.5000	652.078
1006.0000	652.136
1006.5000	652.153
1007.0000	652.25
1007.5000	652.318
1008.0000	652.317
1008.5000	652.324
1009.0000	652.36
1009.5000	652.484
1010.0000	652.587
1010.5000	652.686
1011.0000	652.684
1011.5000	652.598
1012.0000	652.712
1012.5000	652.789
1013.0000	652.824
1013.5000	652.932
1014.0000	652.913
1014.5000	652.959
1015.0000	653.067
1015.5000	653.019
1016.0000	653.009
1016.5000	653.048
1017.0000	653.097
1017.5000	653.219
1018.0000	653.282
1018.5000	653.287
1019.0000	653.45
1019.5000	653.588
1020.0000	653.645
1020.5000	653.743
1021.0000	653.728
1021.5000	653.763
1022.0000	653.809
1022.5000	653.795
1023.0000	653.881
1023.5000	653.912
1024.0000	654.074
1024.5000	654.159
1025.0000	654.116
1025.5000	654.232
1026.0000	654.251
1026.5000	654.344
1027.0000	654.331
1027.5000	654.282
1028.0000	654.37
1028.5000	654.291
1029.0000	654.418
1029.5000	654.473
1030.0000	654.404
1030.5000	654.576
1031.0000	654.675
1031.5000	654.782
1032.0000	654.891
1032.5000	654.934
1033.0000	655.041
1033.5000	655.035
1034.0000	655.135
1034.5000	655.049
1035.0000	655.064
1035.5000	655.184
1036.0000	655.16
1036.5000	655.266
1037.0000	655.309
1037.5000	655.356
1038.0000	655.335
1038.5000	655.422
1039.0000	655.345
1039.5000	655.378
1040.0000	655.581
1040.5000	655.574
1041.0000	655.669
1041.5000	655.567
1042.0000	655.569
1042.5000	655.709
1043.0000	655.738
1043.5000	655.88
1044.0000	655.888
1044.5000	655.84
1045.0000	655.921
1045.5000	655.988
1046.0000	656.03
1046.5000	656.07
1047.0000	656.076
1047.5000	656.023
1048.0000	656.085
1048.5000	656.225
1049.0000	656.287
1049.5000	656.457
1050.0000	656.474
1050.5000	656.432
1051.0000	656.469
1051.5000	656.459
1052.0000	656.518
1052.5000	656.552
1053.0000	656.556
1053.5000	656.634
1054.0000	656.644
1054.5000	656.673
1055.0000	656.74
1055.5000	656.668
1056.0000	656.685
1056.5000	656.745
1057.0000	656.773
1057.5000	656.943
1058.0000	657.133
1058.5000	657.171
1059.0000	657.249
1059.5000	657.202
1060.0000	657.093
1060.5000	657.096
1061.0000	657.195
1061.5000	657.349
1062.0000	657.345
1062.5000	657.41
1063.0000	657.291
1063.5000	657.206
1064.0000	657.298
1064.5000	657.449
1065.0000	657.652
1065.5000	657.627
1066.0000	657.703
1066.5000	657.7
1067.0000	657.695
1067.5000	657.827
1068.0000	657.804
1068.5000	657.732
1069.0000	657.7
1069.5000	657.834
1070.0000	657.895
1070.5000	658.001
1071.0000	658.123
1071.5000	658.024
1072.0000	658.11
1072.5000	658.166
1073.0000	658.178
1073.5000	658.258
1074.0000	658.276
1074.5000	658.291
1075.0000	658.225
1075.5000	658.235
1076.0000	658.333
1076.5000	658.352
1077.0000	658.544
1077.5000	658.627
1078.0000	658.603
1078.5000	658.673
1079.0000	658.604
1079.5000	658.583
1080.0000	658.564
1080.5000	658.582
1081.0000	658.666
1081.5000	658.733
1082.0000	658.861
1082.5000	658.954
1083.0000	659.038
1083.5000	659.057
1084.0000	659.071
1084.5000	658.989
1085.0000	658.969
1085.5000	659.062
1086.0000	659.097
1086.5000	659.178
1087.0000	659.192
1087.5000	659.147
1088.0000	659.137
1088.5000	659.171
1089.0000	659.227
1089.5000	659.231
1090.0000	659.332
1090.5000	659.405
1091.0000	659.427
1091.5000	659.52
1092.0000	659.507
1092.5000	659.449
1093.0000	659.438
1093.5000	659.515
1094.0000	659.585
1094.5000	659.76
1095.0000	659.852
1095.5000	659.793
1096.0000	659.733
1096.5000	659.627
1097.0000	659.718
1097.5000	659.775
1098.0000	659.835
1098.5000	660.006
1099.0000	659.932
1099.5000	660.008
1100.0000	660.168
1100.5000	660.071
1101.0000	660.085
1101.5000	660.203
1102.0000	660.219
1102.5000	660.248
1103.0000	660.264
1103.5000	660.174
1104.0000	660.121
1104.5000	660.256
1105.0000	660.405
1105.5000	660.61
1106.0000	660.573
1106.5000	660.608
1107.0000	660.637
1107.5000	660.475
1108.0000	660.488
1108.5000	660.457
1109.0000	660.39
1109.5000	660.511
1110.0000	660.672
1110.5000	660.735
1111.0000	660.796
1111.5000	660.809
1112.0000	660.749
1112.5000	660.672
1113.0000	660.692
1113.5000	660.701
1114.0000	660.788
1114.5000	660.923
1115.0000	660.96
1115.5000	660.962
1116.0000	661.006
1116.5000	660.971
1117.0000	660.976
1117.5000	661.004
1118.0000	660.983
1118.5000	660.974
1119.0000	661.041
1119.5000	661
1120.0000	661.082
1120.5000	661.141
1121.0000	661.16
1121.5000	661.294
1122.0000	661.244
1122.5000	661.312
1123.0000	661.204
1123.5000	661.151
1124.0000	661.255
1124.5000	661.241
1125.0000	661.392
1125.5000	661.427
1126.0000	661.348
1126.5000	661.443
1127.0000	661.445
1127.5000	661.469
1128.0000	661.604
1128.5000	661.595
1129.0000	661.636
1129.5000	661.69
1130.0000	661.709
1130.5000	661.743
1131.0000	661.728
1131.5000	661.786
1132.0000	661.756
1132.5000	661.833
1133.0000	661.871
1133.5000	661.824
1134.0000	661.883
1134.5000	661.813
1135.0000	661.889
1135.5000	661.914
1136.0000	661.755
1136.5000	661.778
1137.0000	661.822
1137.5000	661.976
1138.0000	662.166
1138.5000	662.255
1139.0000	662.259
1139.5000	662.217
1140.0000	662.264
1140.5000	662.325
1141.0000	662.288
1141.5000	662.248
1142.0000	662.244
1142.5000	662.1
1143.0000	662.05
1143.5000	662.071
1144.0000	661.999
1144.5000	662.149
1145.0000	662.294
1145.5000	662.286
1146.0000	662.361
1146.5000	662.364
1147.0000	662.377
1147.5000	662.484
1148.0000	662.494
1148.5000	662.548
1149.0000	662.585
1149.5000	662.539
1150.0000	662.607
1150.5000	662.583
1151.0000	662.642
1151.5000	662.712
1152.0000	662.767
1152.5000	662.782
1153.0000	662.805
1153.5000	662.74
1154.0000	662.669
1154.5000	662.762
1155.0000	662.737
1155.5000	662.801
1156.0000	662.861
1156.5000	662.868
1157.0000	662.835
1157.5000	662.835
1158.0000	662.926
1158.5000	662.86
1159.0000	662.922
1159.5000	662.965
1160.0000	662.973
1160.5000	663.058
1161.0000	662.979
1161.5000	663.033
1162.0000	663.002
1162.5000	662.953
1163.0000	663.084
1163.5000	663.133
1164.0000	663.128
1164.5000	663.167
1165.0000	663.189
1165.5000	663.154
1166.0000	663.201
1166.5000	663.25
1167.0000	663.179
1167.5000	663.245
1168.0000	663.127
1168.5000	663.152
1169.0000	663.295
1169.5000	663.282
1170.0000	663.461
1170.5000	663.534
1171.0000	663.417
1171.5000	663.467
1172.0000	663.393
1172.5000	663.293
1173.0000	663.445
1173.5000	663.449
1174.0000	663.537
1174.5000	663.62
1175.0000	663.632
1175.5000	663.604
1176.0000	663.598
1176.5000	663.629
1177.0000	663.641
1177.5000	663.673
1178.0000	663.62
1178.5000	663.55
1179.0000	663.568
1179.5000	663.674
1180.0000	663.836
1180.5000	663.857
1181.0000	663.773
1181.5000	663.789
1182.0000	663.701
1182.5000	663.785
1183.0000	663.857
1183.5000	663.944
1184.0000	664.026
1184.5000	663.91
1185.0000	663.987
1185.5000	663.904
1186.0000	663.972
1186.5000	664.127
1187.0000	664.027
1187.5000	663.998
1188.0000	663.921
1188.5000	664.006
1189.0000	664.077
1189.5000	664.175
1190.0000	664.279
1190.5000	664.182
1191.0000	664.162
1191.5000	664.301
1192.0000	664.273
1192.5000	664.425
1193.0000	664.496
1193.5000	664.415
1194.0000	664.433
1194.5000	664.406
1195.0000	664.526
1195.5000	664.475
1196.0000	664.473
1196.5000	664.473
1197.0000	664.437
1197.5000	664.431
1198.0000	664.519
1198.5000	664.582
1199.0000	664.604
1199.5000	664.704
1200.0000	664.689
1200.5000	664.701
1201.0000	664.808
1201.5000	664.815
1202.0000	664.918
1202.5000	664.914
1203.0000	664.785
1203.5000	664.75
1204.0000	664.694
1204.5000	664.695
1205.0000	664.701
1205.5000	664.781
1206.0000	664.808
1206.5000	664.866
1207.0000	664.966
1207.5000	664.937
1208.0000	664.956
1208.5000	664.984
1209.0000	665.047
1209.5000	665.156
1210.0000	665.223
1210.5000	665.229
1211.0000	665.156
1211.5000	665.101
1212.0000	665.153
1212.5000	665.215
1213.0000	665.368
1213.5000	665.383
1214.0000	665.398
1214.5000	665.455
1215.0000	665.306
1215.5000	665.362
1216.0000	665.265
1216.5000	665.315
1217.0000	665.397
1217.5000	665.427
1218.0000	665.509
1218.5000	665.403
1219.0000	665.421
1219.5000	665.496
1220.0000	665.516
1220.5000	665.442
1221.0000	665.49
1221.5000	665.496
1222.0000	665.503
1222.5000	665.613
1223.0000	665.736
1223.5000	665.772
1224.0000	665.759
1224.5000	665.732
1225.0000	665.65
1225.5000	665.647
1226.0000	665.75
1226.5000	665.813
1227.0000	665.8
1227.5000	665.684
1228.0000	665.654
1228.5000	665.719
1229.0000	665.71
1229.5000	665.813
1230.0000	665.827
1230.5000	665.884
1231.0000	665.986
1231.5000	666.01
1232.0000	666.126
1232.5000	666.021
1233.0000	665.983
1233.5000	666.002
1234.0000	665.851
1234.5000	665.973
1235.0000	666.101
1235.5000	666.121
1236.0000	666.208
1236.5000	666.198
1237.0000	666.144
1237.5000	666.042
1238.0000	666.077
1238.5000	666.135
1239.0000	666.178
1239.5000	666.25
1240.0000	666.202
1240.5000	666.187
1241.0000	666.134
1241.5000	666.22
1242.0000	666.344
1242.5000	666.242
1243.0000	666.268
1243.5000	666.296
1244.0000	666.143
1244.5000	666.143
1245.0000	666.161
1245.5000	666.194
1246.0000	666.392
1246.5000	666.472
1247.0000	666.536
1247.5000	666.489
1248.0000	666.348
1248.5000	666.385
1249.0000	666.38
1249.5000	666.353
1250.0000	666.47
1250.5000	666.459
1251.0000	666.392
1251.5000	666.298
1252.0000	666.32
1252.5000	666.36
1253.0000	666.412
1253.5000	666.549
1254.0000	666.523
1254.5000	666.505
1255.0000	666.603
1255.5000	666.732
1256.0000	666.768
1256.5000	666.874
1257.0000	666.833
1257.5000	666.786
1258.0000	666.903
1258.5000	666.896
1259.0000	666.874
1259.5000	666.893
1260.0000	666.773
1260.5000	666.738
1261.0000	666.81
1261.5000	666.867
1262.0000	666.952
1262.5000	666.961
1263.0000	666.961
1263.5000	666.936
1264.0000	667.009
1264.5000	667.021
1265.0000	667.079
1265.5000	667.098
1266.0000	667.04
1266.5000	667.077
1267.0000	667.008
1267.5000	666.999
1268.0000	667.074
1268.5000	667.092
1269.0000	667.157
1269.5000	667.107
1270.0000	666.927
1270.5000	666.918
1271.0000	666.897
1271.5000	666.937
1272.0000	667.097
1272.5000	667.131
1273.0000	667.213
1273.5000	667.33
1274.0000	667.266
1274.5000	667.221
1275.0000	667.184
1275.5000	667.101
1276.0000	667.189
1276.5000	667.216
1277.0000	667.169
1277.5000	667.29
1278.0000	667.19
1278.5000	667.252
1279.0000	667.314
1279.5000	667.266
1280.0000	667.35
1280.5000	667.238
1281.0000	667.243
1281.5000	667.223
1282.0000	667.24
1282.5000	667.367
1283.0000	667.42
1283.5000	667.471
1284.0000	667.446
1284.5000	667.509
1285.0000	667.544
1285.5000	667.533
1286.0000	667.589
1286.5000	667.626
1287.0000	667.586
1287.5000	667.705
1288.0000	667.775
1288.5000	667.734
1289.0000	667.731
1289.5000	667.662
1290.0000	667.675
1290.5000	667.641
1291.0000	667.666
1291.5000	667.678
1292.0000	667.665
1292.5000	667.742
1293.0000	667.727
1293.5000	667.734
1294.0000	667.759
1294.5000	667.738
1295.0000	667.843
1295.5000	667.795
1296.0000	667.829
1296.5000	667.956
1297.0000	667.908
1297.5000	668.009
1298.0000	667.965
1298.5000	667.899
1299.0000	667.882
1299.5000	667.899
1300.0000	667.95
1300.5000	667.9
1301.0000	668.051
1301.5000	668.046
1302.0000	668.068
1302.5000	668.102
1303.0000	668.041
1303.5000	668.097
1304.0000	668.103
1304.5000	668.156
1305.0000	668.23
1305.5000	668.173
1306.0000	668.188
1306.5000	668.181
1307.0000	668.13
1307.5000	668.175
1308.0000	668.19
1308.5000	668.218
1309.0000	668.244
1309.5000	668.347
1310.0000	668.277
1310.5000	668.321
1311.0000	668.272
1311.5000	668.189
1312.0000	668.207
1312.5000	668.249
1313.0000	668.288
1313.5000	668.264
1314.0000	668.339
1314.5000	668.349
1315.0000	668.452
1315.5000	668.533
1316.0000	668.591
1316.5000	668.515
1317.0000	668.478
1317.5000	668.536
1318.0000	668.496
1318.5000	668.555
1319.0000	668.593
1319.5000	668.544
1320.0000	668.447
1320.5000	668.45
1321.0000	668.435
1321.5000	668.379
1322.0000	668.473
1322.5000	668.447
1323.0000	668.5
1323.5000	668.506
1324.0000	668.595
1324.5000	668.669
1325.0000	668.633
1325.5000	668.676
1326.0000	668.709
1326.5000	668.748
1327.0000	668.757
1327.5000	668.798
1328.0000	668.76
1328.5000	668.682
1329.0000	668.72
1329.5000	668.774
1330.0000	668.771
1330.5000	668.846
1331.0000	668.812
1331.5000	668.729
1332.0000	668.802
1332.5000	668.763
1333.0000	668.772
1333.5000	668.798
1334.0000	668.743
1334.5000	668.834
1335.0000	668.85
1335.5000	668.913
1336.0000	668.93
1336.5000	668.756
1337.0000	668.748
1337.5000	668.752
1338.0000	668.761
1338.5000	668.9
1339.0000	668.874
1339.5000	668.789
1340.0000	668.804
1340.5000	668.762
1341.0000	668.856
1341.5000	668.968
1342.0000	668.876
1342.5000	668.822
1343.0000	668.734
1343.5000	668.691
1344.0000	668.768
1344.5000	668.854
1345.0000	668.946
1345.5000	668.931
1346.0000	668.925
1346.5000	668.872
1347.0000	668.92
1347.5000	669
1348.0000	669.029
1348.5000	669.151
1349.0000	669.129
1349.5000	669.099
1350.0000	669.162
1350.5000	669.15
1351.0000	669.192
1351.5000	669.184
1352.0000	669.19
1352.5000	669.211
1353.0000	669.187
1353.5000	669.209
1354.0000	669.323
1354.5000	669.29
1355.0000	669.265
1355.5000	669.293
1356.0000	669.156
1356.5000	669.183
1357.0000	669.291
1357.5000	669.413
1358.0000	669.434
1358.5000	669.482
1359.0000	669.439
1359.5000	669.357
1360.0000	669.346
1360.5000	669.346
1361.0000	669.428
1361.5000	669.433
1362.0000	669.569
1362.5000	669.633
1363.0000	669.54
1363.5000	669.61
1364.0000	669.544
1364.5000	669.594
1365.0000	669.676
1365.5000	669.621
1366.0000	669.555
1366.5000	669.494
1367.0000	669.437
1367.5000	669.49
1368.0000	669.628
1368.5000	669.651
1369.0000	669.794
1369.5000	669.92
1370.0000	670.012
1370.5000	670.042
1371.0000	670.074
1371.5000	670.085
1372.0000	669.967
1372.5000	669.958
1373.0000	669.906
1373.5000	669.927
1374.0000	670.089
1374.5000	670.082
1375.0000	670.11
1375.5000	670.082
1376.0000	669.971
1376.5000	670.065
1377.0000	670.18
1377.5000	670.173
1378.0000	670.241
1378.5000	670.261
1379.0000	670.155
1379.5000	670.23
1380.0000	670.277
1380.5000	670.294
1381.0000	670.336
1381.5000	670.361
1382.0000	670.267
1382.5000	670.261
1383.0000	670.351
1383.5000	670.308
1384.0000	670.362
1384.5000	670.438
1385.0000	670.394
1385.5000	670.429
1386.0000	670.429
1386.5000	670.385
1387.0000	670.416
1387.5000	670.442
1388.0000	670.4
1388.5000	670.366
1389.0000	670.246
1389.5000	670.207
1390.0000	670.274
1390.5000	670.374
1391.0000	670.544
1391.5000	670.579
1392.0000	670.682
1392.5000	670.814
1393.0000	670.767
1393.5000	670.778
1394.0000	670.751
1394.5000	670.642
1395.0000	670.626
1395.5000	670.631
1396.0000	670.646
1396.5000	670.634
1397.0000	670.697
1397.5000	670.679
1398.0000	670.567
1398.5000	670.587
1399.0000	670.538
1399.5000	670.615
1400.0000	670.767
1400.5000	670.804
1401.0000	670.867
1401.5000	670.818
1402.0000	670.853
1402.5000	670.785
1403.0000	670.705
1403.5000	670.834
1404.0000	670.723
1404.5000	670.718
1405.0000	670.792
1405.5000	670.792
1406.0000	670.823
1406.5000	670.846
1407.0000	670.84
1407.5000	670.72
1408.0000	670.805
1408.5000	670.806
1409.0000	670.8
1409.5000	670.869
1410.0000	670.823
1410.5000	670.879
1411.0000	670.88
1411.5000	670.825
1412.0000	670.824
1412.5000	670.841
1413.0000	670.919
1413.5000	670.89
1414.0000	670.935
1414.5000	670.986
1415.0000	670.936
1415.5000	670.893
1416.0000	670.889
1416.5000	670.802
1417.0000	670.889
1417.5000	671.031
1418.0000	671.018
1418.5000	671.109
1419.0000	670.993
1419.5000	670.929
1420.0000	670.954
1420.5000	670.851
1421.0000	670.935
1421.5000	670.928
1422.0000	670.926
1422.5000	670.865
1423.0000	670.862
1423.5000	670.967
1424.0000	670.997
1424.5000	671.081
1425.0000	671.084
1425.5000	671.099
1426.0000	671.116
1426.5000	671.163
1427.0000	671.125
1427.5000	671.084
1428.0000	671.023
1428.5000	671.049
1429.0000	671.087
1429.5000	671.119
1430.0000	671.198
1430.5000	671.192
1431.0000	671.229
1431.5000	671.23
1432.0000	671.175
1432.5000	671.107
1433.0000	671.115
1433.5000	671.145
1434.0000	671.153
1434.5000	671.297
1435.0000	671.233
1435.5000	671.23
1436.0000	671.254
1436.5000	671.174
1437.0000	671.25
1437.5000	671.234
1438.0000	671.369
1438.5000	671.432
1439.0000	671.502
1439.5000	671.513
1440.0000	671.456
1440.5000	671.409
1441.0000	671.387
1441.5000	671.486
1442.0000	671.458
1442.5000	671.483
1443.0000	671.495
1443.5000	671.402
1444.0000	671.445
1444.5000	671.437
1445.0000	671.493
1445.5000	671.543
1446.0000	671.534
1446.5000	671.576
1447.0000	671.494
1447.5000	671.536
1448.0000	671.445
1448.5000	671.445
1449.0000	671.465
1449.5000	671.411
1450.0000	671.502
1450.5000	671.486
1451.0000	671.456
1451.5000	671.41
1452.0000	671.479
1452.5000	671.558
1453.0000	671.59
1453.5000	671.653
1454.0000	671.589
1454.5000	671.563
1455.0000	671.529
1455.5000	671.548
1456.0000	671.518
1456.5000	671.453
1457.0000	671.482
1457.5000	671.394
1458.0000	671.423
1458.5000	671.456
1459.0000	671.486
1459.5000	671.542
1460.0000	671.509
1460.5000	671.546
1461.0000	671.551
1461.5000	671.612
1462.0000	671.661
1462.5000	671.665
1463.0000	671.686
1463.5000	671.703
1464.0000	671.802
1464.5000	671.853
1465.0000	671.876
1465.5000	671.782
1466.0000	671.752
1466.5000	671.662
1467.0000	671.584
1467.5000	671.67
1468.0000	671.575
1468.5000	671.647
1469.0000	671.704
1469.5000	671.669
1470.0000	671.691
1470.5000	671.601
1471.0000	671.531
1471.5000	671.569
1472.0000	671.566
1472.5000	671.682
1473.0000	671.716
1473.5000	671.704
1474.0000	671.789
1474.5000	671.799
1475.0000	671.812
1475.5000	671.842
1476.0000	671.833
1476.5000	671.821
1477.0000	671.86
1477.5000	671.863
1478.0000	671.873
1478.5000	671.88
1479.0000	671.829
1479.5000	671.813
1480.0000	671.799
1480.5000	671.759
1481.0000	671.833
1481.5000	671.832
1482.0000	671.832
1482.5000	671.815
1483.0000	671.769
1483.5000	671.856
1484.0000	671.864
1484.5000	671.99
1485.0000	672.061
1485.5000	671.886
1486.0000	671.865
1486.5000	671.746
1487.0000	671.838
1487.5000	671.95
1488.0000	671.968
1488.5000	672.058
1489.0000	671.943
1489.5000	672.048
1490.0000	672.118
1490.5000	672.147
1491.0000	672.186
1491.5000	672.1
1492.0000	672
1492.5000	671.91
1493.0000	671.972
1493.5000	671.972
1494.0000	672.031
1494.5000	671.989
1495.0000	671.857
1495.5000	671.804
1496.0000	671.791
1496.5000	671.899
1497.0000	672.04
1497.5000	672.079
1498.0000	672.071
1498.5000	672.013
1499.0000	671.982
1499.5000	672.012
1500.0000	672.093
1500.5000	672.175
1501.0000	672.169
1501.5000	672.072
1502.0000	672.119
1502.5000	672.131
1503.0000	672.135
1503.5000	672.273
1504.0000	672.155
1504.5000	672.073
1505.0000	672.018
1505.5000	672.003
1506.0000	672.045
1506.5000	672.079
1507.0000	672.028
1507.5000	671.976
1508.0000	671.963
1508.5000	672.049
1509.0000	672.107
1509.5000	672.093
1510.0000	672.027
1510.5000	671.95
1511.0000	671.801
1511.5000	671.795
1512.0000	671.85
1512.5000	671.853
1513.0000	671.966
1513.5000	671.921
1514.0000	671.956
1514.5000	671.885
1515.0000	671.959
1515.5000	672.04
1516.0000	671.988
1516.5000	672.099
1517.0000	672.091
1517.5000	671.947
1518.0000	671.986
1518.5000	671.953
1519.0000	671.877
1519.5000	671.942
1520.0000	671.894
1520.5000	671.925
1521.0000	671.914
1521.5000	671.979
1522.0000	672
1522.5000	671.972
1523.0000	672.048
1523.5000	672.113
1524.0000	672.074
1524.5000	672.086
1525.0000	672.015
1525.5000	671.905
1526.0000	671.947
1526.5000	671.939
1527.0000	672.046
1527.5000	672.112
1528.0000	672.104
1528.5000	672.063
1529.0000	672.006
1529.5000	671.993
1530.0000	671.97
1530.5000	671.959
1531.0000	671.931
1531.5000	671.906
1532.0000	671.915
1532.5000	671.944
1533.0000	671.924
1533.5000	671.868
1534.0000	671.85
1534.5000	671.856
1535.0000	671.863
1535.5000	671.962
1536.0000	671.854
1536.5000	671.893
1537.0000	671.812
1537.5000	671.628
1538.0000	671.695
1538.5000	671.603
1539.0000	671.736
1539.5000	671.877
1540.0000	671.951
1540.5000	672.015
1541.0000	671.953
1541.5000	672.008
1542.0000	671.977
1542.5000	671.911
1543.0000	671.872
1543.5000	671.785
1544.0000	671.778
1544.5000	671.794
1545.0000	671.926
1545.5000	671.98
1546.0000	671.941
1546.5000	671.908
1547.0000	671.844
1547.5000	671.85
1548.0000	671.923
1548.5000	671.971
1549.0000	672.124
1549.5000	672.168
1550.0000	672.213
1550.5000	672.202
1551.0000	672.037
1551.5000	672.018
1552.0000	671.996
1552.5000	671.945
1553.0000	671.868
1553.5000	671.768
1554.0000	671.664
1554.5000	671.727
1555.0000	671.817
1555.5000	671.762
1556.0000	671.887
1556.5000	671.829
1557.0000	671.806
1557.5000	671.908
1558.0000	671.862
1558.5000	671.989
1559.0000	671.981
1559.5000	671.957
1560.0000	671.927
1560.5000	671.813
1561.0000	671.889
1561.5000	671.928
1562.0000	671.97
1562.5000	671.975
1563.0000	671.896
1563.5000	671.825
1564.0000	671.757
1564.5000	671.813
1565.0000	671.687
1565.5000	671.691
1566.0000	671.686
1566.5000	671.612
1567.0000	671.75
1567.5000	671.724
