TITLE	
DATA TYPE	
ORIGIN	JASCO
OWNER	
DATE	22/08/25
TIME	12:52:17
SPECTROMETER/DATA SYSTEM	
RESOLUTION	
DELTAX	0.5
XUNITS	SEC
YUNITS	INTENSITY
FIRSTX	0.0000
LASTX	1588.0000
NPOINTS	3177
FIRSTY	550.65503
MAXY	666.95770
MINY	-51.20092
XYDATA
0.0000	550.655
0.5000	550.658
1.0000	550.655
1.5000	550.673
2.0000	550.54
2.5000	550.578
3.0000	550.469
3.5000	550.408
4.0000	550.5
4.5000	550.395
5.0000	550.455
5.5000	550.467
6.0000	550.432
6.5000	550.468
7.0000	550.435
7.5000	550.414
8.0000	550.38
8.5000	550.355
9.0000	550.299
9.5000	550.183
10.0000	550.12
10.5000	550.135
11.0000	550.143
11.5000	550.164
12.0000	550.22
12.5000	550.209
13.0000	550.189
13.5000	550.206
14.0000	550.189
14.5000	550.188
15.0000	550.152
15.5000	550.141
16.0000	550.146
16.5000	550.048
17.0000	550.068
17.5000	550.051
18.0000	550.028
18.5000	550.036
19.0000	549.964
19.5000	550.007
20.0000	549.98
20.5000	549.935
21.0000	550.019
21.5000	549.919
22.0000	549.877
22.5000	549.853
23.0000	549.773
23.5000	549.765
24.0000	549.735
24.5000	549.799
25.0000	549.772
25.5000	549.782
26.0000	549.758
26.5000	549.698
27.0000	549.71
27.5000	549.679
28.0000	549.704
28.5000	549.692
29.0000	549.587
29.5000	549.648
30.0000	549.647
30.5000	549.627
31.0000	549.652
31.5000	549.574
32.0000	549.526
32.5000	541.917
33.0000	524.732
33.5000	481.587
34.0000	105.283
34.5000	-51.2009
35.0000	-35.1143
35.5000	-31.4257
36.0000	-29.8426
36.5000	-29.2543
37.0000	-28.6742
37.5000	-28.3604
38.0000	-28.1696
38.5000	-27.7764
39.0000	-27.6255
39.5000	-27.4468
40.0000	-27.3265
40.5000	-27.05
41.0000	-26.7379
41.5000	278.71
42.0000	354.966
42.5000	353.407
43.0000	352.666
43.5000	338.06
44.0000	333.263
44.5000	333.334
45.0000	333.595
45.5000	333.964
46.0000	334.437
46.5000	334.834
47.0000	335.312
47.5000	335.793
48.0000	336.178
48.5000	336.663
49.0000	337.123
49.5000	337.596
50.0000	338.14
50.5000	338.617
51.0000	339.071
51.5000	339.535
52.0000	339.985
52.5000	340.505
53.0000	341
53.5000	341.469
54.0000	341.916
54.5000	342.413
55.0000	342.954
55.5000	343.482
56.0000	344.001
56.5000	344.503
57.0000	344.991
57.5000	345.498
58.0000	345.968
58.5000	346.437
59.0000	346.91
59.5000	347.389
60.0000	347.854
60.5000	348.286
61.0000	348.726
61.5000	349.165
62.0000	349.664
62.5000	350.123
63.0000	350.561
63.5000	350.955
64.0000	351.376
64.5000	351.748
65.0000	352.178
65.5000	352.712
66.0000	353.155
66.5000	353.622
67.0000	354.135
67.5000	354.638
68.0000	355.126
68.5000	355.679
69.0000	356.196
69.5000	356.607
70.0000	357.117
70.5000	357.632
71.0000	358.121
71.5000	358.596
72.0000	359.093
72.5000	359.589
73.0000	360.112
73.5000	360.657
74.0000	361.079
74.5000	361.508
75.0000	361.927
75.5000	362.376
76.0000	362.891
76.5000	363.375
77.0000	363.823
77.5000	364.299
78.0000	364.751
78.5000	365.26
79.0000	365.725
79.5000	366.219
80.0000	366.708
80.5000	367.12
81.0000	367.565
81.5000	367.935
82.0000	368.368
82.5000	368.823
83.0000	369.306
83.5000	369.826
84.0000	370.341
84.5000	370.825
85.0000	371.313
85.5000	371.764
86.0000	372.153
86.5000	372.588
87.0000	373.073
87.5000	373.559
88.0000	374.07
88.5000	374.515
89.0000	374.915
89.5000	375.384
90.0000	375.801
90.5000	376.254
91.0000	376.711
91.5000	377.129
92.0000	377.596
92.5000	378.072
93.0000	378.499
93.5000	378.962
94.0000	379.402
94.5000	379.875
95.0000	380.347
95.5000	380.751
96.0000	381.224
96.5000	381.653
97.0000	382.116
97.5000	382.596
98.0000	382.977
98.5000	383.338
99.0000	383.715
99.5000	384.091
100.0000	384.512
100.5000	385.035
101.0000	385.547
101.5000	386.019
102.0000	386.532
102.5000	386.934
103.0000	387.318
103.5000	387.787
104.0000	388.17
104.5000	388.626
105.0000	389.045
105.5000	389.463
106.0000	389.898
106.5000	390.282
107.0000	390.711
107.5000	391.124
108.0000	391.659
108.5000	392.106
109.0000	392.535
109.5000	392.982
110.0000	393.325
110.5000	393.793
111.0000	394.233
111.5000	394.636
112.0000	395.053
112.5000	395.479
113.0000	395.886
113.5000	396.308
114.0000	396.756
114.5000	397.238
115.0000	397.713
115.5000	398.123
116.0000	398.527
116.5000	398.83
117.0000	399.251
117.5000	399.645
118.0000	400.058
118.5000	400.521
119.0000	400.909
119.5000	401.372
120.0000	401.769
120.5000	402.204
121.0000	402.555
121.5000	402.975
122.0000	403.408
122.5000	403.746
123.0000	404.257
123.5000	404.634
124.0000	405.062
124.5000	405.534
125.0000	405.858
125.5000	406.287
126.0000	406.705
126.5000	407.114
127.0000	407.565
127.5000	407.97
128.0000	408.369
128.5000	408.764
129.0000	409.178
129.5000	409.609
130.0000	409.984
130.5000	410.385
131.0000	410.797
131.5000	411.163
132.0000	411.601
132.5000	411.985
133.0000	412.377
133.5000	412.795
134.0000	413.196
134.5000	413.606
135.0000	413.938
135.5000	414.309
136.0000	414.668
136.5000	415.068
137.0000	415.525
137.5000	415.931
138.0000	416.358
138.5000	416.771
139.0000	417.172
139.5000	417.504
140.0000	417.881
140.5000	418.232
141.0000	418.619
141.5000	419.077
142.0000	419.4
142.5000	419.816
143.0000	420.176
143.5000	420.508
144.0000	420.932
144.5000	421.315
145.0000	421.668
145.5000	422.063
146.0000	422.382
146.5000	422.688
147.0000	423.058
147.5000	423.458
148.0000	423.904
148.5000	424.308
149.0000	424.756
149.5000	425.133
150.0000	425.498
150.5000	425.899
151.0000	426.234
151.5000	426.598
152.0000	426.895
152.5000	427.22
153.0000	427.609
153.5000	428.02
154.0000	428.432
154.5000	428.803
155.0000	429.174
155.5000	429.535
156.0000	429.959
156.5000	430.319
157.0000	430.676
157.5000	430.986
158.0000	431.339
158.5000	431.72
159.0000	432.063
159.5000	432.377
160.0000	432.688
160.5000	433.064
161.0000	433.459
161.5000	433.862
162.0000	434.295
162.5000	434.637
163.0000	434.952
163.5000	435.33
164.0000	435.627
164.5000	436.061
165.0000	436.428
165.5000	436.835
166.0000	437.187
166.5000	437.455
167.0000	437.819
167.5000	438.12
168.0000	438.528
168.5000	438.923
169.0000	439.27
169.5000	439.618
170.0000	439.928
170.5000	440.23
171.0000	440.572
171.5000	440.95
172.0000	441.304
172.5000	441.665
173.0000	442.061
173.5000	442.345
174.0000	442.694
174.5000	443.025
175.0000	443.317
175.5000	443.728
176.0000	444.012
176.5000	444.372
177.0000	444.714
177.5000	445.007
178.0000	445.423
178.5000	445.767
179.0000	446.077
179.5000	446.436
180.0000	446.749
180.5000	447.094
181.0000	447.448
181.5000	447.764
182.0000	448.161
182.5000	448.452
183.0000	448.769
183.5000	449.082
184.0000	449.336
184.5000	449.724
185.0000	450.053
185.5000	450.417
186.0000	450.79
186.5000	451.083
187.0000	451.447
187.5000	451.827
188.0000	452.075
188.5000	452.393
189.0000	452.692
189.5000	452.924
190.0000	453.291
190.5000	453.609
191.0000	453.983
191.5000	454.343
192.0000	454.728
192.5000	455.108
193.0000	455.344
193.5000	455.632
194.0000	455.911
194.5000	456.212
195.0000	456.569
195.5000	456.879
196.0000	457.181
196.5000	457.5
197.0000	457.808
197.5000	458.214
198.0000	458.524
198.5000	458.778
199.0000	459.137
199.5000	459.381
200.0000	459.73
200.5000	460.061
201.0000	460.327
201.5000	460.658
202.0000	460.976
202.5000	461.321
203.0000	461.655
203.5000	462
204.0000	462.276
204.5000	462.605
205.0000	462.909
205.5000	463.14
206.0000	463.468
206.5000	463.801
207.0000	464.159
207.5000	464.51
208.0000	464.825
208.5000	465.104
209.0000	465.365
209.5000	465.678
210.0000	465.955
210.5000	466.237
211.0000	466.574
211.5000	466.815
212.0000	467.103
212.5000	467.427
213.0000	467.754
213.5000	468.18
214.0000	468.426
214.5000	468.748
215.0000	468.96
215.5000	469.148
216.0000	469.576
216.5000	469.842
217.0000	470.17
217.5000	470.492
218.0000	470.705
218.5000	470.975
219.0000	471.256
219.5000	471.567
220.0000	471.855
220.5000	472.146
221.0000	472.474
221.5000	472.714
222.0000	473.018
222.5000	473.256
223.0000	473.509
223.5000	473.868
224.0000	474.159
224.5000	474.509
225.0000	474.813
225.5000	475.093
226.0000	475.408
226.5000	475.68
227.0000	475.944
227.5000	476.187
228.0000	476.442
228.5000	476.767
229.0000	477.057
229.5000	477.325
230.0000	477.639
230.5000	477.841
231.0000	478.088
231.5000	478.453
232.0000	478.681
232.5000	479.055
233.0000	479.38
233.5000	479.597
234.0000	479.946
234.5000	480.199
235.0000	480.471
235.5000	480.775
236.0000	480.948
236.5000	481.202
237.0000	481.473
237.5000	481.741
238.0000	482.059
238.5000	482.366
239.0000	482.629
239.5000	482.898
240.0000	483.164
240.5000	483.353
241.0000	483.657
241.5000	483.954
242.0000	484.178
242.5000	484.526
243.0000	484.795
243.5000	485.029
244.0000	485.351
244.5000	485.611
245.0000	485.878
245.5000	486.121
246.0000	486.442
246.5000	486.669
247.0000	486.915
247.5000	487.267
248.0000	487.504
248.5000	487.854
249.0000	488.134
249.5000	488.327
250.0000	488.575
250.5000	488.771
251.0000	489.01
251.5000	489.25
252.0000	489.5
252.5000	489.74
253.0000	490.046
253.5000	490.297
254.0000	490.579
254.5000	490.923
255.0000	491.165
255.5000	491.411
256.0000	491.648
256.5000	491.849
257.0000	492.086
257.5000	492.462
258.0000	492.738
258.5000	493.017
259.0000	493.274
259.5000	493.48
260.0000	493.765
260.5000	494.025
261.0000	494.304
261.5000	494.552
262.0000	494.791
262.5000	495.076
263.0000	495.327
263.5000	495.635
264.0000	495.876
264.5000	496.07
265.0000	496.315
265.5000	496.505
266.0000	496.786
266.5000	497.029
267.0000	497.261
267.5000	497.54
268.0000	497.804
268.5000	498.097
269.0000	498.364
269.5000	498.589
270.0000	498.777
270.5000	498.966
271.0000	499.239
271.5000	499.521
272.0000	499.857
272.5000	500.207
273.0000	500.404
273.5000	500.619
274.0000	500.816
274.5000	501.033
275.0000	501.333
275.5000	501.664
276.0000	501.88
276.5000	502.141
277.0000	502.396
277.5000	502.572
278.0000	502.891
278.5000	503.109
279.0000	503.375
279.5000	503.588
280.0000	503.748
280.5000	503.933
281.0000	504.074
281.5000	504.366
282.0000	504.634
282.5000	504.956
283.0000	505.235
283.5000	505.497
284.0000	505.727
284.5000	505.941
285.0000	506.18
285.5000	506.374
286.0000	506.657
286.5000	506.902
287.0000	507.206
287.5000	507.482
288.0000	507.674
288.5000	507.858
289.0000	508.034
289.5000	508.215
290.0000	508.482
290.5000	508.736
291.0000	508.99
291.5000	509.249
292.0000	509.445
292.5000	509.714
293.0000	509.955
293.5000	510.2
294.0000	510.443
294.5000	510.619
295.0000	510.807
295.5000	511.058
296.0000	511.301
296.5000	511.565
297.0000	511.852
297.5000	511.919
298.0000	512.146
298.5000	512.366
299.0000	512.553
299.5000	512.927
300.0000	513.171
300.5000	513.398
301.0000	513.615
301.5000	513.885
302.0000	514.116
302.5000	514.362
303.0000	514.582
303.5000	514.79
304.0000	515.048
304.5000	515.312
305.0000	515.542
305.5000	515.708
306.0000	515.894
306.5000	516.048
307.0000	516.298
307.5000	516.659
308.0000	516.839
308.5000	517.133
309.0000	517.368
309.5000	517.519
310.0000	517.791
310.5000	518.017
311.0000	518.293
311.5000	518.524
312.0000	518.819
312.5000	519.031
313.0000	519.191
313.5000	519.446
314.0000	519.677
314.5000	519.898
315.0000	520.151
315.5000	520.318
316.0000	520.494
316.5000	520.681
317.0000	520.859
317.5000	521.081
318.0000	521.248
318.5000	521.441
319.0000	521.659
319.5000	521.853
320.0000	522.133
320.5000	522.402
321.0000	522.662
321.5000	522.926
322.0000	523.107
322.5000	523.42
323.0000	523.616
323.5000	523.827
324.0000	524.065
324.5000	524.26
325.0000	524.525
325.5000	524.725
326.0000	524.923
326.5000	525.077
327.0000	525.323
327.5000	525.54
328.0000	525.808
328.5000	526.025
329.0000	526.136
329.5000	526.373
330.0000	526.555
330.5000	526.781
331.0000	526.988
331.5000	527.163
332.0000	527.339
332.5000	527.546
333.0000	527.885
333.5000	528.177
334.0000	528.4
334.5000	528.597
335.0000	528.741
335.5000	528.849
336.0000	529.079
336.5000	529.227
337.0000	529.422
337.5000	529.658
338.0000	529.841
338.5000	530.137
339.0000	530.278
339.5000	530.519
340.0000	530.726
340.5000	530.959
341.0000	531.327
341.5000	531.599
342.0000	531.862
342.5000	532.007
343.0000	532.076
343.5000	532.162
344.0000	532.396
344.5000	532.638
345.0000	532.823
345.5000	533.136
346.0000	533.239
346.5000	533.346
347.0000	533.604
347.5000	533.745
348.0000	533.934
348.5000	534.216
349.0000	534.428
349.5000	534.577
350.0000	534.811
350.5000	534.996
351.0000	535.212
351.5000	535.495
352.0000	535.698
352.5000	535.854
353.0000	536.021
353.5000	536.176
354.0000	536.418
354.5000	536.705
355.0000	536.952
355.5000	537.084
356.0000	537.309
356.5000	537.508
357.0000	537.702
357.5000	537.985
358.0000	538.097
358.5000	538.263
359.0000	538.455
359.5000	538.585
360.0000	538.797
360.5000	539.012
361.0000	539.144
361.5000	539.412
362.0000	539.668
362.5000	539.838
363.0000	540.109
363.5000	540.306
364.0000	540.43
364.5000	540.664
365.0000	540.77
365.5000	540.943
366.0000	541.091
366.5000	541.251
367.0000	541.503
367.5000	541.703
368.0000	541.959
368.5000	542.101
369.0000	542.327
369.5000	542.51
370.0000	542.665
370.5000	542.88
371.0000	543.039
371.5000	543.263
372.0000	543.46
372.5000	543.6
373.0000	543.749
373.5000	543.846
374.0000	544.079
374.5000	544.397
375.0000	544.566
375.5000	544.802
376.0000	544.915
376.5000	545.019
377.0000	545.246
377.5000	545.418
378.0000	545.67
378.5000	545.866
379.0000	546.075
379.5000	546.297
380.0000	546.383
380.5000	546.595
381.0000	546.828
381.5000	547.084
382.0000	547.401
382.5000	547.605
383.0000	547.715
383.5000	547.716
384.0000	547.864
384.5000	548.018
385.0000	548.144
385.5000	548.431
386.0000	548.641
386.5000	548.798
387.0000	548.999
387.5000	549.186
388.0000	549.294
388.5000	549.434
389.0000	549.7
389.5000	549.918
390.0000	550.14
390.5000	550.379
391.0000	550.447
391.5000	550.643
392.0000	550.874
392.5000	551.101
393.0000	551.3
393.5000	551.338
394.0000	551.505
394.5000	551.637
395.0000	551.93
395.5000	552.142
396.0000	552.272
396.5000	552.453
397.0000	552.48
397.5000	552.698
398.0000	552.889
398.5000	552.986
399.0000	553.318
399.5000	553.443
400.0000	553.608
400.5000	553.844
401.0000	553.88
401.5000	554.072
402.0000	554.243
402.5000	554.315
403.0000	554.541
403.5000	554.782
404.0000	554.939
404.5000	555.256
405.0000	555.471
405.5000	555.583
406.0000	555.739
406.5000	555.813
407.0000	555.979
407.5000	556.119
408.0000	556.308
408.5000	556.556
409.0000	556.657
409.5000	556.87
410.0000	557.035
410.5000	557.144
411.0000	557.258
411.5000	557.365
412.0000	557.539
412.5000	557.709
413.0000	558.006
413.5000	558.22
414.0000	558.355
414.5000	558.565
415.0000	558.729
415.5000	558.908
416.0000	559.11
416.5000	559.245
417.0000	559.32
417.5000	559.453
418.0000	559.616
418.5000	559.739
419.0000	559.982
419.5000	560.161
420.0000	560.256
420.5000	560.424
421.0000	560.564
421.5000	560.723
422.0000	560.924
422.5000	561.077
423.0000	561.314
423.5000	561.494
424.0000	561.703
424.5000	561.944
425.0000	561.99
425.5000	562.176
426.0000	562.283
426.5000	562.425
427.0000	562.665
427.5000	562.752
428.0000	562.998
428.5000	563.14
429.0000	563.284
429.5000	563.507
430.0000	563.525
430.5000	563.737
431.0000	563.849
431.5000	563.948
432.0000	564.219
432.5000	564.336
433.0000	564.419
433.5000	564.686
434.0000	564.746
434.5000	564.918
435.0000	565.161
435.5000	565.274
436.0000	565.493
436.5000	565.613
437.0000	565.761
437.5000	565.82
438.0000	565.903
438.5000	566.131
439.0000	566.293
439.5000	566.524
440.0000	566.777
440.5000	566.754
441.0000	566.927
441.5000	567.094
442.0000	567.236
442.5000	567.463
443.0000	567.59
443.5000	567.644
444.0000	567.75
444.5000	567.962
445.0000	568.127
445.5000	568.338
446.0000	568.551
446.5000	568.715
447.0000	568.82
447.5000	568.999
448.0000	569.125
448.5000	569.161
449.0000	569.281
449.5000	569.336
450.0000	569.447
450.5000	569.626
451.0000	569.767
451.5000	569.94
452.0000	570.21
452.5000	570.351
453.0000	570.541
453.5000	570.805
454.0000	570.797
454.5000	571.006
455.0000	571.188
455.5000	571.261
456.0000	571.475
456.5000	571.662
457.0000	571.804
457.5000	571.951
458.0000	571.991
458.5000	572.041
459.0000	572.161
459.5000	572.379
460.0000	572.669
460.5000	572.895
461.0000	573.022
461.5000	572.977
462.0000	573.04
462.5000	573.183
463.0000	573.349
463.5000	573.576
464.0000	573.708
464.5000	573.735
465.0000	573.908
465.5000	574.031
466.0000	574.166
466.5000	574.336
467.0000	574.511
467.5000	574.596
468.0000	574.677
468.5000	574.861
469.0000	574.925
469.5000	575.145
470.0000	575.33
470.5000	575.428
471.0000	575.585
471.5000	575.84
472.0000	576.04
472.5000	576.258
473.0000	576.373
473.5000	576.371
474.0000	576.472
474.5000	576.539
475.0000	576.679
475.5000	576.861
476.0000	577.035
476.5000	577.19
477.0000	577.302
477.5000	577.391
478.0000	577.573
478.5000	577.676
479.0000	577.852
479.5000	577.946
480.0000	577.999
480.5000	578.152
481.0000	578.19
481.5000	578.439
482.0000	578.521
482.5000	578.638
483.0000	578.772
483.5000	578.865
484.0000	579.061
484.5000	579.225
485.0000	579.445
485.5000	579.526
486.0000	579.68
486.5000	579.886
487.0000	579.962
487.5000	580.144
488.0000	580.269
488.5000	580.286
489.0000	580.409
489.5000	580.524
490.0000	580.68
490.5000	580.776
491.0000	581.039
491.5000	581.259
492.0000	581.274
492.5000	581.466
493.0000	581.448
493.5000	581.472
494.0000	581.635
494.5000	581.631
495.0000	581.88
495.5000	582.066
496.0000	582.205
496.5000	582.493
497.0000	582.564
497.5000	582.645
498.0000	582.842
498.5000	583.02
499.0000	583.199
499.5000	583.416
500.0000	583.515
500.5000	583.623
501.0000	583.672
501.5000	583.681
502.0000	583.766
502.5000	583.858
503.0000	584.068
503.5000	584.291
504.0000	584.439
504.5000	584.553
505.0000	584.655
505.5000	584.793
506.0000	584.947
506.5000	585.12
507.0000	585.213
507.5000	585.295
508.0000	585.359
508.5000	585.486
509.0000	585.664
509.5000	585.715
510.0000	585.939
510.5000	586.049
511.0000	586.146
511.5000	586.333
512.0000	586.435
512.5000	586.58
513.0000	586.731
513.5000	586.867
514.0000	586.901
514.5000	587.062
515.0000	587.105
515.5000	587.205
516.0000	587.398
516.5000	587.517
517.0000	587.723
517.5000	587.842
518.0000	587.944
518.5000	588.052
519.0000	588.144
519.5000	588.318
520.0000	588.494
520.5000	588.624
521.0000	588.799
521.5000	588.986
522.0000	589.117
522.5000	589.206
523.0000	589.31
523.5000	589.348
524.0000	589.504
524.5000	589.643
525.0000	589.813
525.5000	589.948
526.0000	589.992
526.5000	590.134
527.0000	590.314
527.5000	590.474
528.0000	590.624
528.5000	590.79
529.0000	590.809
529.5000	590.9
530.0000	591.034
530.5000	591.138
531.0000	591.26
531.5000	591.42
532.0000	591.521
532.5000	591.598
533.0000	591.699
533.5000	591.76
534.0000	591.932
534.5000	592.058
535.0000	592.276
535.5000	592.437
536.0000	592.495
536.5000	592.587
537.0000	592.576
537.5000	592.697
538.0000	592.841
538.5000	592.991
539.0000	593.191
539.5000	593.271
540.0000	593.406
540.5000	593.525
541.0000	593.527
541.5000	593.655
542.0000	593.747
542.5000	593.847
543.0000	594.075
543.5000	594.223
544.0000	594.349
544.5000	594.42
545.0000	594.572
545.5000	594.635
546.0000	594.762
546.5000	594.925
547.0000	594.968
547.5000	595.173
548.0000	595.325
548.5000	595.41
549.0000	595.589
549.5000	595.617
550.0000	595.638
550.5000	595.794
551.0000	595.873
551.5000	596.046
552.0000	596.249
552.5000	596.372
553.0000	596.353
553.5000	596.414
554.0000	596.501
554.5000	596.619
555.0000	596.823
555.5000	597.002
556.0000	597.085
556.5000	597.175
557.0000	597.34
557.5000	597.368
558.0000	597.47
558.5000	597.648
559.0000	597.754
559.5000	597.897
560.0000	598.002
560.5000	598.024
561.0000	598.067
561.5000	598.21
562.0000	598.294
562.5000	598.438
563.0000	598.565
563.5000	598.703
564.0000	598.874
564.5000	599.021
565.0000	599.22
565.5000	599.25
566.0000	599.354
566.5000	599.411
567.0000	599.376
567.5000	599.541
568.0000	599.667
568.5000	599.797
569.0000	599.965
569.5000	600.015
570.0000	600.08
570.5000	600.071
571.0000	600.208
571.5000	600.387
572.0000	600.495
572.5000	600.677
573.0000	600.769
573.5000	600.864
574.0000	600.985
574.5000	601.108
575.0000	601.221
575.5000	601.315
576.0000	601.297
576.5000	601.402
577.0000	601.521
577.5000	601.508
578.0000	601.66
578.5000	601.782
579.0000	601.956
579.5000	602.134
580.0000	602.246
580.5000	602.345
581.0000	602.406
581.5000	602.422
582.0000	602.565
582.5000	602.631
583.0000	602.737
583.5000	602.912
584.0000	603.041
584.5000	603.1
585.0000	603.234
585.5000	603.315
586.0000	603.351
586.5000	603.489
587.0000	603.455
587.5000	603.581
588.0000	603.733
588.5000	603.886
589.0000	603.975
589.5000	604.035
590.0000	604.118
590.5000	604.076
591.0000	604.258
591.5000	604.474
592.0000	604.599
592.5000	604.79
593.0000	604.851
593.5000	604.863
594.0000	604.884
594.5000	604.911
595.0000	604.978
595.5000	605.157
596.0000	605.366
596.5000	605.471
597.0000	605.526
597.5000	605.458
598.0000	605.427
598.5000	605.545
599.0000	605.624
599.5000	605.854
600.0000	606
600.5000	606.132
601.0000	606.203
601.5000	606.226
602.0000	606.309
602.5000	606.425
603.0000	606.634
603.5000	606.652
604.0000	606.609
604.5000	606.681
605.0000	606.686
605.5000	606.876
606.0000	607.154
606.5000	607.225
607.0000	607.408
607.5000	607.5
608.0000	607.59
608.5000	607.716
609.0000	607.795
609.5000	607.892
610.0000	607.91
610.5000	607.929
611.0000	607.985
611.5000	608.056
612.0000	608.183
612.5000	608.273
613.0000	608.428
613.5000	608.498
614.0000	608.58
614.5000	608.736
615.0000	608.769
615.5000	608.842
616.0000	608.906
616.5000	608.942
617.0000	608.987
617.5000	609.108
618.0000	609.182
618.5000	609.251
619.0000	609.386
619.5000	609.495
620.0000	609.608
620.5000	609.723
621.0000	609.858
621.5000	609.916
622.0000	610.037
622.5000	610.193
623.0000	610.255
623.5000	610.385
624.0000	610.439
624.5000	610.494
625.0000	610.544
625.5000	610.541
626.0000	610.644
626.5000	610.733
627.0000	610.768
627.5000	610.834
628.0000	610.908
628.5000	610.926
629.0000	611.027
629.5000	611.209
630.0000	611.308
630.5000	611.373
631.0000	611.445
631.5000	611.487
632.0000	611.614
632.5000	611.785
633.0000	611.931
633.5000	611.957
634.0000	611.921
634.5000	612.002
635.0000	612.078
635.5000	612.222
636.0000	612.273
636.5000	612.268
637.0000	612.275
637.5000	612.32
638.0000	612.434
638.5000	612.58
639.0000	612.639
639.5000	612.713
640.0000	612.813
640.5000	612.873
641.0000	612.964
641.5000	613.009
642.0000	613.165
642.5000	613.177
643.0000	613.301
643.5000	613.447
644.0000	613.446
644.5000	613.486
645.0000	613.5
645.5000	613.535
646.0000	613.612
646.5000	613.784
647.0000	613.941
647.5000	613.997
648.0000	614.073
648.5000	614.06
649.0000	614.124
649.5000	614.26
650.0000	614.362
650.5000	614.602
651.0000	614.708
651.5000	614.75
652.0000	614.85
652.5000	614.832
653.0000	614.89
653.5000	615.039
654.0000	615.07
654.5000	615.184
655.0000	615.273
655.5000	615.247
656.0000	615.299
656.5000	615.323
657.0000	615.415
657.5000	615.517
658.0000	615.624
658.5000	615.578
659.0000	615.578
659.5000	615.746
660.0000	615.8
660.5000	616.042
661.0000	616.126
661.5000	616.177
662.0000	616.269
662.5000	616.388
663.0000	616.485
663.5000	616.524
664.0000	616.618
664.5000	616.564
665.0000	616.65
665.5000	616.75
666.0000	616.874
666.5000	616.964
667.0000	616.988
667.5000	616.993
668.0000	616.912
668.5000	617.03
669.0000	617.165
669.5000	617.24
670.0000	617.385
670.5000	617.454
671.0000	617.574
671.5000	617.67
672.0000	617.683
672.5000	617.725
673.0000	617.673
673.5000	617.75
674.0000	617.946
674.5000	618.038
675.0000	618.169
675.5000	618.174
676.0000	618.161
676.5000	618.202
677.0000	618.229
677.5000	618.307
678.0000	618.364
678.5000	618.442
679.0000	618.533
679.5000	618.621
680.0000	618.779
680.5000	618.732
681.0000	618.741
681.5000	618.78
682.0000	618.83
682.5000	618.982
683.0000	619.106
683.5000	619.173
684.0000	619.135
684.5000	619.281
685.0000	619.263
685.5000	619.239
686.0000	619.345
686.5000	619.356
687.0000	619.472
687.5000	619.687
688.0000	619.728
688.5000	619.756
689.0000	619.83
689.5000	619.832
690.0000	619.935
690.5000	620.079
691.0000	620.251
691.5000	620.304
692.0000	620.374
692.5000	620.349
693.0000	620.367
693.5000	620.61
694.0000	620.684
694.5000	620.789
695.0000	620.817
695.5000	620.798
696.0000	620.808
696.5000	620.863
697.0000	620.911
697.5000	620.978
698.0000	621.014
698.5000	621.099
699.0000	621.173
699.5000	621.198
700.0000	621.329
700.5000	621.372
701.0000	621.368
701.5000	621.469
702.0000	621.516
702.5000	621.527
703.0000	621.605
703.5000	621.615
704.0000	621.759
704.5000	621.902
705.0000	622.037
705.5000	622.11
706.0000	622.225
706.5000	622.333
707.0000	622.406
707.5000	622.494
708.0000	622.503
708.5000	622.572
709.0000	622.618
709.5000	622.73
710.0000	622.678
710.5000	622.72
711.0000	622.856
711.5000	622.873
712.0000	622.983
712.5000	623.133
713.0000	623.166
713.5000	623.276
714.0000	623.373
714.5000	623.348
715.0000	623.423
715.5000	623.432
716.0000	623.545
716.5000	623.697
717.0000	623.764
717.5000	623.874
718.0000	623.916
718.5000	623.97
719.0000	624.054
719.5000	624.105
720.0000	624.132
720.5000	624.144
721.0000	624.188
721.5000	624.31
722.0000	624.37
722.5000	624.457
723.0000	624.435
723.5000	624.367
724.0000	624.483
724.5000	624.571
725.0000	624.73
725.5000	624.884
726.0000	624.969
726.5000	624.929
727.0000	625.027
727.5000	625.021
728.0000	625.031
728.5000	625.145
729.0000	625.2
729.5000	625.338
730.0000	625.384
730.5000	625.536
731.0000	625.563
731.5000	625.626
732.0000	625.697
732.5000	625.643
733.0000	625.681
733.5000	625.779
734.0000	625.872
734.5000	626.013
735.0000	626.201
735.5000	626.161
736.0000	626.265
736.5000	626.315
737.0000	626.25
737.5000	626.356
738.0000	626.412
738.5000	626.417
739.0000	626.528
739.5000	626.599
740.0000	626.764
740.5000	626.846
741.0000	626.88
741.5000	626.944
742.0000	626.812
742.5000	626.932
743.0000	627.028
743.5000	627.181
744.0000	627.426
744.5000	627.417
745.0000	627.39
745.5000	627.391
746.0000	627.279
746.5000	627.362
747.0000	627.467
747.5000	627.623
748.0000	627.769
748.5000	627.792
749.0000	627.88
749.5000	627.904
750.0000	627.92
750.5000	628.024
751.0000	628.088
751.5000	628.057
752.0000	628.188
752.5000	628.256
753.0000	628.461
753.5000	628.638
754.0000	628.626
754.5000	628.798
755.0000	628.729
755.5000	628.696
756.0000	628.829
756.5000	628.735
757.0000	628.764
757.5000	628.914
758.0000	628.896
758.5000	628.966
759.0000	629.047
759.5000	629.054
760.0000	629.188
760.5000	629.343
761.0000	629.435
761.5000	629.497
762.0000	629.61
762.5000	629.532
763.0000	629.58
763.5000	629.618
764.0000	629.641
764.5000	629.662
765.0000	629.72
765.5000	629.805
766.0000	629.821
766.5000	629.97
767.0000	629.95
767.5000	629.929
768.0000	630.078
768.5000	630.157
769.0000	630.184
769.5000	630.283
770.0000	630.304
770.5000	630.306
771.0000	630.478
771.5000	630.537
772.0000	630.57
772.5000	630.676
773.0000	630.688
773.5000	630.788
774.0000	630.695
774.5000	630.724
775.0000	630.773
775.5000	630.695
776.0000	630.843
776.5000	630.991
777.0000	631.178
777.5000	631.428
778.0000	631.539
778.5000	631.623
779.0000	631.559
779.5000	631.496
780.0000	631.481
780.5000	631.505
781.0000	631.547
781.5000	631.601
782.0000	631.754
782.5000	631.777
783.0000	631.822
783.5000	631.747
784.0000	631.688
784.5000	631.71
785.0000	631.839
785.5000	631.982
786.0000	632.081
786.5000	632.05
787.0000	632.104
787.5000	632.188
788.0000	632.334
788.5000	632.55
789.0000	632.582
789.5000	632.748
790.0000	632.753
790.5000	632.678
791.0000	632.74
791.5000	632.681
792.0000	632.732
792.5000	632.8
793.0000	632.859
793.5000	632.886
794.0000	632.933
794.5000	633.017
795.0000	633.006
795.5000	633.045
796.0000	632.978
796.5000	633.109
797.0000	633.183
797.5000	633.194
798.0000	633.335
798.5000	633.34
799.0000	633.372
799.5000	633.478
800.0000	633.536
800.5000	633.535
801.0000	633.599
801.5000	633.755
802.0000	633.738
802.5000	633.801
803.0000	633.818
803.5000	633.707
804.0000	633.791
804.5000	633.897
805.0000	633.998
805.5000	634.102
806.0000	634.148
806.5000	634.209
807.0000	634.248
807.5000	634.411
808.0000	634.486
808.5000	634.507
809.0000	634.537
809.5000	634.529
810.0000	634.621
810.5000	634.663
811.0000	634.792
811.5000	634.897
812.0000	634.926
812.5000	634.996
813.0000	634.972
813.5000	634.961
814.0000	635.019
814.5000	634.993
815.0000	635.136
815.5000	635.199
816.0000	635.298
816.5000	635.471
817.0000	635.453
817.5000	635.553
818.0000	635.574
818.5000	635.547
819.0000	635.628
819.5000	635.562
820.0000	635.637
820.5000	635.66
821.0000	635.739
821.5000	635.826
822.0000	635.806
822.5000	635.933
823.0000	635.897
823.5000	636.06
824.0000	636.186
824.5000	636.169
825.0000	636.243
825.5000	636.239
826.0000	636.137
826.5000	636.133
827.0000	636.138
827.5000	636.119
828.0000	636.329
828.5000	636.493
829.0000	636.563
829.5000	636.657
830.0000	636.629
830.5000	636.688
831.0000	636.721
831.5000	636.699
832.0000	636.775
832.5000	636.675
833.0000	636.764
833.5000	636.838
834.0000	636.822
834.5000	636.973
835.0000	637.039
835.5000	637.189
836.0000	637.221
836.5000	637.337
837.0000	637.347
837.5000	637.313
838.0000	637.475
838.5000	637.526
839.0000	637.662
839.5000	637.706
840.0000	637.598
840.5000	637.558
841.0000	637.602
841.5000	637.6
842.0000	637.696
842.5000	637.757
843.0000	637.747
843.5000	637.802
844.0000	637.812
844.5000	637.942
845.0000	637.984
845.5000	638.051
846.0000	638.122
846.5000	638.118
847.0000	638.186
847.5000	638.258
848.0000	638.399
848.5000	638.382
849.0000	638.313
849.5000	638.362
850.0000	638.323
850.5000	638.422
851.0000	638.52
851.5000	638.553
852.0000	638.666
852.5000	638.697
853.0000	638.76
853.5000	638.845
854.0000	638.816
854.5000	638.778
855.0000	638.837
855.5000	638.824
856.0000	638.839
856.5000	638.956
857.0000	638.991
857.5000	639.096
858.0000	639.211
858.5000	639.261
859.0000	639.297
859.5000	639.287
860.0000	639.381
860.5000	639.373
861.0000	639.412
861.5000	639.477
862.0000	639.554
862.5000	639.713
863.0000	639.746
863.5000	639.816
864.0000	639.758
864.5000	639.745
865.0000	639.83
865.5000	639.894
866.0000	640.045
866.5000	640.011
867.0000	640.023
867.5000	640.03
868.0000	639.943
868.5000	640.111
869.0000	640.16
869.5000	640.141
870.0000	640.245
870.5000	640.316
871.0000	640.306
871.5000	640.44
872.0000	640.422
872.5000	640.405
873.0000	640.489
873.5000	640.473
874.0000	640.565
874.5000	640.547
875.0000	640.628
875.5000	640.609
876.0000	640.707
876.5000	640.818
877.0000	640.878
877.5000	641.018
878.0000	641.02
878.5000	641.062
879.0000	641.108
879.5000	641.284
880.0000	641.335
880.5000	641.324
881.0000	641.361
881.5000	641.34
882.0000	641.371
882.5000	641.494
883.0000	641.477
883.5000	641.526
884.0000	641.536
884.5000	641.494
885.0000	641.586
885.5000	641.546
886.0000	641.651
886.5000	641.75
887.0000	641.818
887.5000	641.945
888.0000	642.012
888.5000	641.981
889.0000	642.034
889.5000	642.037
890.0000	642.071
890.5000	642.153
891.0000	642.188
891.5000	642.187
892.0000	642.247
892.5000	642.351
893.0000	642.421
893.5000	642.525
894.0000	642.524
894.5000	642.481
895.0000	642.458
895.5000	642.542
896.0000	642.582
896.5000	642.62
897.0000	642.688
897.5000	642.623
898.0000	642.638
898.5000	642.673
899.0000	642.719
899.5000	642.676
900.0000	642.739
900.5000	642.873
901.0000	642.907
901.5000	643.055
902.0000	643.113
902.5000	643.054
903.0000	643.025
903.5000	643.142
904.0000	643.129
904.5000	643.272
905.0000	643.352
905.5000	643.284
906.0000	643.366
906.5000	643.39
907.0000	643.405
907.5000	643.48
908.0000	643.491
908.5000	643.535
909.0000	643.623
909.5000	643.6
910.0000	643.683
910.5000	643.596
911.0000	643.663
911.5000	643.725
912.0000	643.729
912.5000	643.911
913.0000	644.049
913.5000	644.166
914.0000	644.162
914.5000	644.14
915.0000	644.075
915.5000	644.022
916.0000	644.048
916.5000	644.061
917.0000	644.09
917.5000	644.147
918.0000	644.284
918.5000	644.376
919.0000	644.377
919.5000	644.455
920.0000	644.469
920.5000	644.44
921.0000	644.525
921.5000	644.532
922.0000	644.415
922.5000	644.435
923.0000	644.393
923.5000	644.43
924.0000	644.557
924.5000	644.733
925.0000	644.704
925.5000	644.663
926.0000	644.713
926.5000	644.609
927.0000	644.751
927.5000	644.879
928.0000	644.835
928.5000	644.931
929.0000	644.872
929.5000	644.907
930.0000	645.028
930.5000	645.038
931.0000	645.128
931.5000	645.068
932.0000	645.06
932.5000	645.203
933.0000	645.213
933.5000	645.297
934.0000	645.365
934.5000	645.372
935.0000	645.496
935.5000	645.543
936.0000	645.648
936.5000	645.66
937.0000	645.632
937.5000	645.618
938.0000	645.571
938.5000	645.529
939.0000	645.656
939.5000	645.806
940.0000	645.879
940.5000	646
941.0000	645.923
941.5000	645.852
942.0000	645.894
942.5000	645.906
943.0000	646
943.5000	646.174
944.0000	646.198
944.5000	646.225
945.0000	646.26
945.5000	646.227
946.0000	646.193
946.5000	646.263
947.0000	646.38
947.5000	646.407
948.0000	646.528
948.5000	646.413
949.0000	646.387
949.5000	646.462
950.0000	646.461
950.5000	646.611
951.0000	646.602
951.5000	646.577
952.0000	646.62
952.5000	646.668
953.0000	646.694
953.5000	646.698
954.0000	646.747
954.5000	646.794
955.0000	646.894
955.5000	646.961
956.0000	647.049
956.5000	647.024
957.0000	646.925
957.5000	647.021
958.0000	647.041
958.5000	647.179
959.0000	647.197
959.5000	647.104
960.0000	647.154
960.5000	647.119
961.0000	647.275
961.5000	647.391
962.0000	647.438
962.5000	647.573
963.0000	647.654
963.5000	647.735
964.0000	647.7
964.5000	647.663
965.0000	647.536
965.5000	647.511
966.0000	647.589
966.5000	647.539
967.0000	647.651
967.5000	647.759
968.0000	647.776
968.5000	647.838
969.0000	647.92
969.5000	647.91
970.0000	647.943
970.5000	648.042
971.0000	648.12
971.5000	648.172
972.0000	648.209
972.5000	648.282
973.0000	648.223
973.5000	648.227
974.0000	648.198
974.5000	648.154
975.0000	648.302
975.5000	648.382
976.0000	648.431
976.5000	648.426
977.0000	648.45
977.5000	648.343
978.0000	648.378
978.5000	648.446
979.0000	648.429
979.5000	648.656
980.0000	648.709
980.5000	648.855
981.0000	648.855
981.5000	648.812
982.0000	648.852
982.5000	648.857
983.0000	648.913
983.5000	649.018
984.0000	649.072
984.5000	649.036
985.0000	649.143
985.5000	649.198
986.0000	649.263
986.5000	649.371
987.0000	649.314
987.5000	649.34
988.0000	649.437
988.5000	649.439
989.0000	649.518
989.5000	649.589
990.0000	649.623
990.5000	649.681
991.0000	649.645
991.5000	649.629
992.0000	649.601
992.5000	649.561
993.0000	649.693
993.5000	649.731
994.0000	649.796
994.5000	649.932
995.0000	650.017
995.5000	650.062
996.0000	650.03
996.5000	649.984
997.0000	649.98
997.5000	649.949
998.0000	650.065
998.5000	650.132
999.0000	650.099
999.5000	650.124
1000.0000	650.101
1000.5000	650.079
1001.0000	650.273
1001.5000	650.331
1002.0000	650.328
1002.5000	650.35
1003.0000	650.284
1003.5000	650.345
1004.0000	650.455
1004.5000	650.561
1005.0000	650.545
1005.5000	650.541
1006.0000	650.524
1006.5000	650.649
1007.0000	650.67
1007.5000	650.642
1008.0000	650.733
1008.5000	650.649
1009.0000	650.792
1009.5000	650.927
1010.0000	650.934
1010.5000	650.952
1011.0000	650.969
1011.5000	650.969
1012.0000	651.058
1012.5000	651.103
1013.0000	651.049
1013.5000	651.022
1014.0000	650.969
1014.5000	650.988
1015.0000	651.135
1015.5000	651.196
1016.0000	651.121
1016.5000	651.236
1017.0000	651.21
1017.5000	651.192
1018.0000	651.36
1018.5000	651.323
1019.0000	651.375
1019.5000	651.479
1020.0000	651.525
1020.5000	651.604
1021.0000	651.577
1021.5000	651.63
1022.0000	651.646
1022.5000	651.602
1023.0000	651.685
1023.5000	651.677
1024.0000	651.651
1024.5000	651.716
1025.0000	651.744
1025.5000	651.742
1026.0000	651.776
1026.5000	651.817
1027.0000	651.826
1027.5000	651.898
1028.0000	651.889
1028.5000	651.878
1029.0000	651.974
1029.5000	652.007
1030.0000	652.118
1030.5000	652.194
1031.0000	652.12
1031.5000	652.185
1032.0000	652.185
1032.5000	652.207
1033.0000	652.188
1033.5000	652.214
1034.0000	652.319
1034.5000	652.373
1035.0000	652.466
1035.5000	652.442
1036.0000	652.381
1036.5000	652.33
1037.0000	652.351
1037.5000	652.413
1038.0000	652.543
1038.5000	652.58
1039.0000	652.631
1039.5000	652.684
1040.0000	652.663
1040.5000	652.747
1041.0000	652.766
1041.5000	652.843
1042.0000	652.84
1042.5000	652.846
1043.0000	652.884
1043.5000	652.781
1044.0000	652.8
1044.5000	652.817
1045.0000	652.868
1045.5000	652.956
1046.0000	653.015
1046.5000	653.059
1047.0000	653.051
1047.5000	652.915
1048.0000	652.951
1048.5000	652.941
1049.0000	652.94
1049.5000	653.076
1050.0000	653.021
1050.5000	653.067
1051.0000	653.153
1051.5000	653.304
1052.0000	653.368
1052.5000	653.477
1053.0000	653.445
1053.5000	653.364
1054.0000	653.431
1054.5000	653.323
1055.0000	653.429
1055.5000	653.487
1056.0000	653.452
1056.5000	653.569
1057.0000	653.587
1057.5000	653.566
1058.0000	653.645
1058.5000	653.631
1059.0000	653.545
1059.5000	653.57
1060.0000	653.569
1060.5000	653.689
1061.0000	653.786
1061.5000	653.881
1062.0000	653.913
1062.5000	653.817
1063.0000	653.887
1063.5000	653.869
1064.0000	653.929
1064.5000	653.963
1065.0000	653.89
1065.5000	653.891
1066.0000	653.954
1066.5000	653.991
1067.0000	654.08
1067.5000	654.145
1068.0000	654.158
1068.5000	654.222
1069.0000	654.21
1069.5000	654.188
1070.0000	654.167
1070.5000	654.343
1071.0000	654.366
1071.5000	654.466
1072.0000	654.481
1072.5000	654.296
1073.0000	654.436
1073.5000	654.495
1074.0000	654.516
1074.5000	654.555
1075.0000	654.466
1075.5000	654.416
1076.0000	654.455
1076.5000	654.497
1077.0000	654.51
1077.5000	654.53
1078.0000	654.518
1078.5000	654.644
1079.0000	654.679
1079.5000	654.628
1080.0000	654.774
1080.5000	654.712
1081.0000	654.737
1081.5000	654.898
1082.0000	654.882
1082.5000	654.95
1083.0000	655.008
1083.5000	654.838
1084.0000	654.765
1084.5000	654.74
1085.0000	654.745
1085.5000	654.909
1086.0000	655.03
1086.5000	655.048
1087.0000	655.049
1087.5000	654.991
1088.0000	654.917
1088.5000	654.86
1089.0000	654.904
1089.5000	654.989
1090.0000	655.097
1090.5000	655.214
1091.0000	655.177
1091.5000	655.303
1092.0000	655.34
1092.5000	655.342
1093.0000	655.524
1093.5000	655.48
1094.0000	655.313
1094.5000	655.426
1095.0000	655.319
1095.5000	655.321
1096.0000	655.418
1096.5000	655.303
1097.0000	655.371
1097.5000	655.475
1098.0000	655.486
1098.5000	655.502
1099.0000	655.491
1099.5000	655.431
1100.0000	655.526
1100.5000	655.633
1101.0000	655.686
1101.5000	655.605
1102.0000	655.568
1102.5000	655.507
1103.0000	655.561
1103.5000	655.704
1104.0000	655.78
1104.5000	655.975
1105.0000	655.982
1105.5000	655.937
1106.0000	655.867
1106.5000	655.746
1107.0000	655.76
1107.5000	655.843
1108.0000	655.966
1108.5000	655.954
1109.0000	656.016
1109.5000	656.047
1110.0000	656.106
1110.5000	656.237
1111.0000	656.246
1111.5000	656.325
1112.0000	656.362
1112.5000	656.348
1113.0000	656.354
1113.5000	656.271
1114.0000	656.285
1114.5000	656.274
1115.0000	656.327
1115.5000	656.42
1116.0000	656.407
1116.5000	656.505
1117.0000	656.411
1117.5000	656.276
1118.0000	656.376
1118.5000	656.289
1119.0000	656.36
1119.5000	656.457
1120.0000	656.433
1120.5000	656.54
1121.0000	656.509
1121.5000	656.585
1122.0000	656.549
1122.5000	656.656
1123.0000	656.731
1123.5000	656.685
1124.0000	656.744
1124.5000	656.683
1125.0000	656.768
1125.5000	656.872
1126.0000	656.991
1126.5000	657.03
1127.0000	657.032
1127.5000	657.092
1128.0000	656.992
1128.5000	656.936
1129.0000	656.994
1129.5000	657.019
1130.0000	657.146
1130.5000	657.206
1131.0000	657.156
1131.5000	657.118
1132.0000	657.026
1132.5000	657.084
1133.0000	657.102
1133.5000	657.079
1134.0000	657.022
1134.5000	657.045
1135.0000	657.198
1135.5000	657.298
1136.0000	657.386
1136.5000	657.455
1137.0000	657.346
1137.5000	657.417
1138.0000	657.575
1138.5000	657.536
1139.0000	657.605
1139.5000	657.569
1140.0000	657.468
1140.5000	657.488
1141.0000	657.515
1141.5000	657.54
1142.0000	657.623
1142.5000	657.652
1143.0000	657.634
1143.5000	657.654
1144.0000	657.634
1144.5000	657.642
1145.0000	657.676
1145.5000	657.721
1146.0000	657.736
1146.5000	657.751
1147.0000	657.755
1147.5000	657.739
1148.0000	657.792
1148.5000	657.751
1149.0000	657.71
1149.5000	657.84
1150.0000	657.815
1150.5000	657.901
1151.0000	657.964
1151.5000	657.849
1152.0000	657.907
1152.5000	657.921
1153.0000	658.021
1153.5000	658.041
1154.0000	658.046
1154.5000	658.025
1155.0000	658.029
1155.5000	658.075
1156.0000	658.152
1156.5000	658.184
1157.0000	658.116
1157.5000	658.103
1158.0000	658.026
1158.5000	658.056
1159.0000	658.115
1159.5000	658.187
1160.0000	658.354
1160.5000	658.385
1161.0000	658.547
1161.5000	658.557
1162.0000	658.507
1162.5000	658.609
1163.0000	658.518
1163.5000	658.533
1164.0000	658.545
1164.5000	658.46
1165.0000	658.572
1165.5000	658.572
1166.0000	658.521
1166.5000	658.602
1167.0000	658.463
1167.5000	658.55
1168.0000	658.675
1168.5000	658.616
1169.0000	658.738
1169.5000	658.684
1170.0000	658.637
1170.5000	658.713
1171.0000	658.785
1171.5000	658.794
1172.0000	658.847
1172.5000	658.863
1173.0000	658.856
1173.5000	658.909
1174.0000	659.001
1174.5000	658.968
1175.0000	658.933
1175.5000	659.006
1176.0000	658.967
1176.5000	659.067
1177.0000	659.07
1177.5000	658.944
1178.0000	658.915
1178.5000	658.828
1179.0000	658.896
1179.5000	659.012
1180.0000	659.13
1180.5000	659.06
1181.0000	659.065
1181.5000	659.158
1182.0000	659.108
1182.5000	659.283
1183.0000	659.281
1183.5000	659.233
1184.0000	659.211
1184.5000	659.18
1185.0000	659.225
1185.5000	659.252
1186.0000	659.387
1186.5000	659.456
1187.0000	659.48
1187.5000	659.457
1188.0000	659.368
1188.5000	659.36
1189.0000	659.394
1189.5000	659.435
1190.0000	659.423
1190.5000	659.548
1191.0000	659.471
1191.5000	659.506
1192.0000	659.59
1192.5000	659.452
1193.0000	659.531
1193.5000	659.491
1194.0000	659.563
1194.5000	659.656
1195.0000	659.623
1195.5000	659.687
1196.0000	659.593
1196.5000	659.619
1197.0000	659.693
1197.5000	659.688
1198.0000	659.78
1198.5000	659.85
1199.0000	659.942
1199.5000	659.97
1200.0000	659.993
1200.5000	660.028
1201.0000	660.032
1201.5000	660.079
1202.0000	660.112
1202.5000	660.029
1203.0000	660.069
1203.5000	660.026
1204.0000	659.903
1204.5000	659.993
1205.0000	659.894
1205.5000	659.988
1206.0000	660.136
1206.5000	660.075
1207.0000	660.175
1207.5000	660.263
1208.0000	660.27
1208.5000	660.295
1209.0000	660.329
1209.5000	660.238
1210.0000	660.261
1210.5000	660.414
1211.0000	660.387
1211.5000	660.507
1212.0000	660.491
1212.5000	660.364
1213.0000	660.352
1213.5000	660.244
1214.0000	660.327
1214.5000	660.433
1215.0000	660.412
1215.5000	660.542
1216.0000	660.557
1216.5000	660.513
1217.0000	660.635
1217.5000	660.567
1218.0000	660.534
1218.5000	660.61
1219.0000	660.577
1219.5000	660.575
1220.0000	660.592
1220.5000	660.579
1221.0000	660.47
1221.5000	660.596
1222.0000	660.638
1222.5000	660.628
1223.0000	660.759
1223.5000	660.696
1224.0000	660.664
1224.5000	660.698
1225.0000	660.723
1225.5000	660.705
1226.0000	660.705
1226.5000	660.738
1227.0000	660.725
1227.5000	660.768
1228.0000	660.837
1228.5000	660.891
1229.0000	660.889
1229.5000	660.858
1230.0000	660.845
1230.5000	660.77
1231.0000	660.784
1231.5000	660.849
1232.0000	660.881
1232.5000	660.942
1233.0000	660.924
1233.5000	660.873
1234.0000	660.906
1234.5000	661.032
1235.0000	661.168
1235.5000	661.155
1236.0000	661.068
1236.5000	661.011
1237.0000	660.946
1237.5000	660.945
1238.0000	661.119
1238.5000	661.101
1239.0000	661.033
1239.5000	661.115
1240.0000	660.987
1240.5000	660.945
1241.0000	661.06
1241.5000	661.076
1242.0000	661.059
1242.5000	661.102
1243.0000	661.129
1243.5000	661.151
1244.0000	661.246
1244.5000	661.236
1245.0000	661.134
1245.5000	661.101
1246.0000	661.084
1246.5000	661.127
1247.0000	661.2
1247.5000	661.244
1248.0000	661.288
1248.5000	661.267
1249.0000	661.232
1249.5000	661.244
1250.0000	661.212
1250.5000	661.24
1251.0000	661.333
1251.5000	661.26
1252.0000	661.211
1252.5000	661.195
1253.0000	661.225
1253.5000	661.326
1254.0000	661.413
1254.5000	661.443
1255.0000	661.441
1255.5000	661.397
1256.0000	661.396
1256.5000	661.389
1257.0000	661.396
1257.5000	661.501
1258.0000	661.526
1258.5000	661.542
1259.0000	661.576
1259.5000	661.578
1260.0000	661.54
1260.5000	661.59
1261.0000	661.471
1261.5000	661.425
1262.0000	661.529
1262.5000	661.617
1263.0000	661.65
1263.5000	661.637
1264.0000	661.653
1264.5000	661.539
1265.0000	661.567
1265.5000	661.607
1266.0000	661.598
1266.5000	661.511
1267.0000	661.537
1267.5000	661.555
1268.0000	661.492
1268.5000	661.553
1269.0000	661.561
1269.5000	661.544
1270.0000	661.594
1270.5000	661.659
1271.0000	661.734
1271.5000	661.898
1272.0000	661.878
1272.5000	661.851
1273.0000	661.815
1273.5000	661.738
1274.0000	661.708
1274.5000	661.76
1275.0000	661.759
1275.5000	661.713
1276.0000	661.853
1276.5000	661.911
1277.0000	661.913
1277.5000	661.964
1278.0000	661.925
1278.5000	661.921
1279.0000	661.916
1279.5000	661.935
1280.0000	661.962
1280.5000	661.954
1281.0000	662
1281.5000	661.935
1282.0000	661.9
1282.5000	661.945
1283.0000	661.89
1283.5000	662.006
1284.0000	661.981
1284.5000	661.901
1285.0000	661.928
1285.5000	661.796
1286.0000	661.865
1286.5000	661.887
1287.0000	661.895
1287.5000	661.955
1288.0000	661.917
1288.5000	661.859
1289.0000	661.964
1289.5000	662.028
1290.0000	662.081
1290.5000	662.117
1291.0000	662.031
1291.5000	661.972
1292.0000	661.894
1292.5000	662.054
1293.0000	662.049
1293.5000	662.106
1294.0000	662.172
1294.5000	662.22
1295.0000	662.282
1295.5000	662.269
1296.0000	662.315
1296.5000	662.24
1297.0000	662.289
1297.5000	662.328
1298.0000	662.359
1298.5000	662.324
1299.0000	662.327
1299.5000	662.363
1300.0000	662.335
1300.5000	662.214
1301.0000	662.187
1301.5000	662.181
1302.0000	662.252
1302.5000	662.493
1303.0000	662.486
1303.5000	662.472
1304.0000	662.352
1304.5000	662.391
1305.0000	662.359
1305.5000	662.284
1306.0000	662.316
1306.5000	662.326
1307.0000	662.444
1307.5000	662.542
1308.0000	662.59
1308.5000	662.464
1309.0000	662.454
1309.5000	662.495
1310.0000	662.499
1310.5000	662.483
1311.0000	662.462
1311.5000	662.491
1312.0000	662.536
1312.5000	662.477
1313.0000	662.43
1313.5000	662.445
1314.0000	662.455
1314.5000	662.562
1315.0000	662.613
1315.5000	662.631
1316.0000	662.608
1316.5000	662.65
1317.0000	662.638
1317.5000	662.571
1318.0000	662.543
1318.5000	662.589
1319.0000	662.568
1319.5000	662.58
1320.0000	662.678
1320.5000	662.604
1321.0000	662.641
1321.5000	662.659
1322.0000	662.652
1322.5000	662.66
1323.0000	662.786
1323.5000	662.875
1324.0000	662.916
1324.5000	662.96
1325.0000	662.881
1325.5000	662.81
1326.0000	662.76
1326.5000	662.782
1327.0000	662.765
1327.5000	662.786
1328.0000	662.739
1328.5000	662.768
1329.0000	662.845
1329.5000	662.942
1330.0000	662.982
1330.5000	663.024
1331.0000	663.081
1331.5000	662.956
1332.0000	662.98
1332.5000	662.912
1333.0000	662.899
1333.5000	663.045
1334.0000	663.041
1334.5000	663.104
1335.0000	663.141
1335.5000	663.099
1336.0000	663.202
1336.5000	663.207
1337.0000	663.144
1337.5000	663.109
1338.0000	663.127
1338.5000	663.092
1339.0000	663.214
1339.5000	663.262
1340.0000	663.128
1340.5000	663.107
1341.0000	662.99
1341.5000	663.011
1342.0000	663.231
1342.5000	663.272
1343.0000	663.321
1343.5000	663.335
1344.0000	663.291
1344.5000	663.276
1345.0000	663.336
1345.5000	663.279
1346.0000	663.297
1346.5000	663.322
1347.0000	663.263
1347.5000	663.352
1348.0000	663.335
1348.5000	663.431
1349.0000	663.41
1349.5000	663.442
1350.0000	663.465
1350.5000	663.48
1351.0000	663.608
1351.5000	663.622
1352.0000	663.577
1352.5000	663.531
1353.0000	663.473
1353.5000	663.422
1354.0000	663.467
1354.5000	663.491
1355.0000	663.54
1355.5000	663.456
1356.0000	663.407
1356.5000	663.364
1357.0000	663.393
1357.5000	663.489
1358.0000	663.51
1358.5000	663.609
1359.0000	663.567
1359.5000	663.618
1360.0000	663.7
1360.5000	663.737
1361.0000	663.826
1361.5000	663.81
1362.0000	663.719
1362.5000	663.679
1363.0000	663.697
1363.5000	663.656
1364.0000	663.626
1364.5000	663.6
1365.0000	663.546
1365.5000	663.608
1366.0000	663.687
1366.5000	663.729
1367.0000	663.732
1367.5000	663.777
1368.0000	663.791
1368.5000	663.78
1369.0000	663.873
1369.5000	663.832
1370.0000	663.82
1370.5000	663.874
1371.0000	663.872
1371.5000	663.895
1372.0000	663.968
1372.5000	663.981
1373.0000	663.929
1373.5000	663.975
1374.0000	664.021
1374.5000	663.963
1375.0000	664.024
1375.5000	664.042
1376.0000	664.079
1376.5000	664.189
1377.0000	664.172
1377.5000	664.109
1378.0000	663.97
1378.5000	663.909
1379.0000	663.876
1379.5000	663.957
1380.0000	664.027
1380.5000	664.009
1381.0000	663.954
1381.5000	664.028
1382.0000	664.084
1382.5000	664.098
1383.0000	664.238
1383.5000	664.211
1384.0000	664.283
1384.5000	664.355
1385.0000	664.334
1385.5000	664.31
1386.0000	664.251
1386.5000	664.228
1387.0000	664.199
1387.5000	664.164
1388.0000	664.105
1388.5000	664.179
1389.0000	664.188
1389.5000	664.248
1390.0000	664.352
1390.5000	664.325
1391.0000	664.36
1391.5000	664.39
1392.0000	664.344
1392.5000	664.315
1393.0000	664.363
1393.5000	664.304
1394.0000	664.333
1394.5000	664.305
1395.0000	664.332
1395.5000	664.37
1396.0000	664.415
1396.5000	664.589
1397.0000	664.559
1397.5000	664.508
1398.0000	664.425
1398.5000	664.322
1399.0000	664.334
1399.5000	664.371
1400.0000	664.477
1400.5000	664.475
1401.0000	664.437
1401.5000	664.504
1402.0000	664.545
1402.5000	664.556
1403.0000	664.652
1403.5000	664.647
1404.0000	664.603
1404.5000	664.659
1405.0000	664.672
1405.5000	664.71
1406.0000	664.66
1406.5000	664.607
1407.0000	664.613
1407.5000	664.611
1408.0000	664.637
1408.5000	664.609
1409.0000	664.467
1409.5000	664.354
1410.0000	664.427
1410.5000	664.434
1411.0000	664.548
1411.5000	664.65
1412.0000	664.573
1412.5000	664.607
1413.0000	664.616
1413.5000	664.642
1414.0000	664.673
1414.5000	664.725
1415.0000	664.678
1415.5000	664.704
1416.0000	664.72
1416.5000	664.885
1417.0000	664.852
1417.5000	664.71
1418.0000	664.715
1418.5000	664.653
1419.0000	664.675
1419.5000	664.927
1420.0000	664.898
1420.5000	664.79
1421.0000	664.801
1421.5000	664.671
1422.0000	664.624
1422.5000	664.698
1423.0000	664.688
1423.5000	664.631
1424.0000	664.7
1424.5000	664.614
1425.0000	664.638
1425.5000	664.718
1426.0000	664.778
1426.5000	664.742
1427.0000	664.85
1427.5000	664.835
1428.0000	664.782
1428.5000	664.889
1429.0000	664.904
1429.5000	664.968
1430.0000	664.998
1430.5000	665.011
1431.0000	664.99
1431.5000	665.013
1432.0000	665.07
1432.5000	665.115
1433.0000	665.134
1433.5000	665.07
1434.0000	664.985
1434.5000	664.964
1435.0000	664.999
1435.5000	665.042
1436.0000	665.137
1436.5000	665.125
1437.0000	665.065
1437.5000	665.01
1438.0000	665.05
1438.5000	665.006
1439.0000	665.052
1439.5000	665.077
1440.0000	665.082
1440.5000	665.16
1441.0000	665.269
1441.5000	665.319
1442.0000	665.373
1442.5000	665.405
1443.0000	665.293
1443.5000	665.274
1444.0000	665.157
1444.5000	665.13
1445.0000	665.192
1445.5000	665.185
1446.0000	665.215
1446.5000	665.153
1447.0000	665.182
1447.5000	665.213
1448.0000	665.26
1448.5000	665.266
1449.0000	665.242
1449.5000	665.286
1450.0000	665.269
1450.5000	665.301
1451.0000	665.36
1451.5000	665.304
1452.0000	665.359
1452.5000	665.359
1453.0000	665.293
1453.5000	665.32
1454.0000	665.283
1454.5000	665.357
1455.0000	665.354
1455.5000	665.42
1456.0000	665.432
1456.5000	665.429
1457.0000	665.418
1457.5000	665.404
1458.0000	665.45
1458.5000	665.509
1459.0000	665.584
1459.5000	665.636
1460.0000	665.666
1460.5000	665.672
1461.0000	665.643
1461.5000	665.747
1462.0000	665.675
1462.5000	665.639
1463.0000	665.696
1463.5000	665.638
1464.0000	665.691
1464.5000	665.662
1465.0000	665.743
1465.5000	665.748
1466.0000	665.795
1466.5000	665.821
1467.0000	665.768
1467.5000	665.736
1468.0000	665.74
1468.5000	665.814
1469.0000	665.761
1469.5000	665.785
1470.0000	665.82
1470.5000	665.798
1471.0000	665.825
1471.5000	665.834
1472.0000	665.824
1472.5000	665.843
1473.0000	665.913
1473.5000	665.735
1474.0000	665.709
1474.5000	665.763
1475.0000	665.66
1475.5000	665.927
1476.0000	665.944
1476.5000	665.924
1477.0000	666.037
1477.5000	666.009
1478.0000	666.018
1478.5000	666.081
1479.0000	666.027
1479.5000	665.988
1480.0000	666.031
1480.5000	666.027
1481.0000	666.015
1481.5000	665.99
1482.0000	665.951
1482.5000	665.945
1483.0000	665.973
1483.5000	666.038
1484.0000	666.125
1484.5000	666.082
1485.0000	666.082
1485.5000	666.003
1486.0000	665.991
1486.5000	666.052
1487.0000	666.113
1487.5000	666.156
1488.0000	666.086
1488.5000	665.982
1489.0000	665.964
1489.5000	665.985
1490.0000	666.149
1490.5000	666.226
1491.0000	666.302
1491.5000	666.354
1492.0000	666.231
1492.5000	666.214
1493.0000	666.126
1493.5000	666.164
1494.0000	666.287
1494.5000	666.332
1495.0000	666.348
1495.5000	666.325
1496.0000	666.219
1496.5000	666.162
1497.0000	666.179
1497.5000	666.128
1498.0000	666.091
1498.5000	666.19
1499.0000	666.276
1499.5000	666.313
1500.0000	666.365
1500.5000	666.342
1501.0000	666.289
1501.5000	666.284
1502.0000	666.302
1502.5000	666.288
1503.0000	666.206
1503.5000	666.186
1504.0000	666.18
1504.5000	666.234
1505.0000	666.322
1505.5000	666.355
1506.0000	666.29
1506.5000	666.25
1507.0000	666.229
1507.5000	666.232
1508.0000	666.3
1508.5000	666.241
1509.0000	666.37
1509.5000	666.434
1510.0000	666.43
1510.5000	666.518
1511.0000	666.45
1511.5000	666.358
1512.0000	666.279
1512.5000	666.25
1513.0000	666.239
1513.5000	666.315
1514.0000	666.419
1514.5000	666.444
1515.0000	666.443
1515.5000	666.407
1516.0000	666.297
1516.5000	666.289
1517.0000	666.221
1517.5000	666.24
1518.0000	666.385
1518.5000	666.431
1519.0000	666.463
1519.5000	666.508
1520.0000	666.522
1520.5000	666.464
1521.0000	666.57
1521.5000	666.549
1522.0000	666.503
1522.5000	666.509
1523.0000	666.523
1523.5000	666.536
1524.0000	666.558
1524.5000	666.681
1525.0000	666.614
1525.5000	666.562
1526.0000	666.547
1526.5000	666.455
1527.0000	666.455
1527.5000	666.499
1528.0000	666.548
1528.5000	666.591
1529.0000	666.608
1529.5000	666.588
1530.0000	666.563
1530.5000	666.613
1531.0000	666.612
1531.5000	666.679
1532.0000	666.676
1532.5000	666.713
1533.0000	666.768
1533.5000	666.733
1534.0000	666.806
1534.5000	666.742
1535.0000	666.68
1535.5000	666.672
1536.0000	666.701
1536.5000	666.727
1537.0000	666.716
1537.5000	666.65
1538.0000	666.635
1538.5000	666.656
1539.0000	666.766
1539.5000	666.887
1540.0000	666.79
1540.5000	666.807
1541.0000	666.724
1541.5000	666.69
1542.0000	666.821
1542.5000	666.735
1543.0000	666.697
1543.5000	666.719
1544.0000	666.665
1544.5000	666.761
1545.0000	666.858
1545.5000	666.878
1546.0000	666.947
1546.5000	666.906
1547.0000	666.856
1547.5000	666.862
1548.0000	666.8
1548.5000	666.693
1549.0000	666.729
1549.5000	666.651
1550.0000	666.576
1550.5000	666.65
1551.0000	666.57
1551.5000	666.661
1552.0000	666.706
1552.5000	666.715
1553.0000	666.811
1553.5000	666.68
1554.0000	666.662
1554.5000	666.745
1555.0000	666.704
1555.5000	666.816
1556.0000	666.889
1556.5000	666.796
1557.0000	666.9
1557.5000	666.861
1558.0000	666.893
1558.5000	666.798
1559.0000	666.687
1559.5000	666.657
1560.0000	666.583
1560.5000	666.67
1561.0000	666.7
1561.5000	666.713
1562.0000	666.636
1562.5000	666.682
1563.0000	666.706
1563.5000	666.81
1564.0000	666.863
1564.5000	666.77
1565.0000	666.833
1565.5000	666.81
1566.0000	666.857
1566.5000	666.949
1567.0000	666.867
1567.5000	666.842
1568.0000	666.774
1568.5000	666.741
1569.0000	666.713
1569.5000	666.712
1570.0000	666.75
1570.5000	666.748
1571.0000	666.816
1571.5000	666.668
1572.0000	666.629
1572.5000	666.607
1573.0000	666.586
1573.5000	666.704
1574.0000	666.722
1574.5000	666.782
1575.0000	666.775
1575.5000	666.841
1576.0000	666.811
1576.5000	666.805
1577.0000	666.747
1577.5000	666.679
1578.0000	666.731
1578.5000	666.653
1579.0000	666.63
1579.5000	666.57
1580.0000	666.576
1580.5000	666.592
1581.0000	666.699
1581.5000	666.767
1582.0000	666.753
1582.5000	666.816
1583.0000	666.828
1583.5000	666.754
1584.0000	666.669
1584.5000	666.742
1585.0000	666.751
1585.5000	666.806
1586.0000	666.958
1586.5000	666.775
1587.0000	666.794
1587.5000	666.876
1588.0000	666.788
