TITLE	
DATA TYPE	
ORIGIN	JASCO
OWNER	
DATE	22/08/24
TIME	17:20:41
SPECTROMETER/DATA SYSTEM	
RESOLUTION	
DELTAX	0.5
XUNITS	SEC
YUNITS	INTENSITY
FIRSTX	0.0000
LASTX	1570.5000
NPOINTS	3142
FIRSTY	424.56491
MAXY	494.38351
MINY	-78.70998
XYDATA
0.0000	424.565
0.5000	424.55
1.0000	424.448
1.5000	424.413
2.0000	424.375
2.5000	424.323
3.0000	424.346
3.5000	424.34
4.0000	424.365
4.5000	424.33
5.0000	424.249
5.5000	424.187
6.0000	424.117
6.5000	424.083
7.0000	424.063
7.5000	424.006
8.0000	424.011
8.5000	423.953
9.0000	423.901
9.5000	423.84
10.0000	423.745
10.5000	423.717
11.0000	423.748
11.5000	423.717
12.0000	423.716
12.5000	423.721
13.0000	423.68
13.5000	423.659
14.0000	423.611
14.5000	423.595
15.0000	423.563
15.5000	423.518
16.0000	423.516
16.5000	423.477
17.0000	423.426
17.5000	423.422
18.0000	423.378
18.5000	423.316
19.0000	423.259
19.5000	423.254
20.0000	423.199
20.5000	423.164
21.0000	423.163
21.5000	423.087
22.0000	423.04
22.5000	422.977
23.0000	422.952
23.5000	422.971
24.0000	422.975
24.5000	423.034
25.0000	423.044
25.5000	423.015
26.0000	423.021
26.5000	422.984
27.0000	422.905
27.5000	422.818
28.0000	420.563
28.5000	409.211
29.0000	387.529
29.5000	305.945
30.0000	-78.71
30.5000	-42.1677
31.0000	-35.0098
31.5000	-32.7808
32.0000	-31.6073
32.5000	-30.9163
33.0000	-30.5042
33.5000	-30.1305
34.0000	-29.8553
34.5000	-29.6167
35.0000	-29.2294
35.5000	-29.0473
36.0000	-28.9041
36.5000	15.7553
37.0000	247.235
37.5000	244.193
38.0000	243.34
38.5000	240.758
39.0000	228.921
39.5000	229.288
40.0000	229.733
40.5000	230.19
41.0000	230.731
41.5000	231.172
42.0000	231.558
42.5000	231.953
43.0000	232.34
43.5000	232.774
44.0000	233.134
44.5000	233.513
45.0000	233.893
45.5000	234.228
46.0000	234.591
46.5000	234.98
47.0000	235.356
47.5000	235.751
48.0000	236.145
48.5000	236.527
49.0000	236.893
49.5000	237.317
50.0000	237.703
50.5000	238.118
51.0000	238.493
51.5000	238.839
52.0000	239.197
52.5000	239.539
53.0000	239.901
53.5000	240.293
54.0000	240.634
54.5000	240.964
55.0000	241.395
55.5000	241.768
56.0000	242.175
56.5000	242.583
57.0000	242.926
57.5000	243.266
58.0000	243.644
58.5000	244.048
59.0000	244.407
59.5000	244.747
60.0000	245.106
60.5000	245.439
61.0000	245.779
61.5000	246.106
62.0000	246.483
62.5000	246.841
63.0000	247.187
63.5000	247.596
64.0000	247.91
64.5000	248.246
65.0000	248.622
65.5000	248.967
66.0000	249.302
66.5000	249.674
67.0000	250.042
67.5000	250.418
68.0000	250.82
68.5000	251.163
69.0000	251.457
69.5000	251.783
70.0000	252.108
70.5000	252.464
71.0000	252.889
71.5000	253.208
72.0000	253.565
72.5000	253.922
73.0000	254.245
73.5000	254.618
74.0000	254.989
74.5000	255.29
75.0000	255.589
75.5000	255.991
76.0000	256.317
76.5000	256.67
77.0000	257.057
77.5000	257.343
78.0000	257.661
78.5000	257.994
79.0000	258.321
79.5000	258.661
80.0000	259.015
80.5000	259.375
81.0000	259.703
81.5000	260.031
82.0000	260.367
82.5000	260.682
83.0000	261.033
83.5000	261.391
84.0000	261.733
84.5000	262.08
85.0000	262.408
85.5000	262.761
86.0000	263.069
86.5000	263.396
87.0000	263.771
87.5000	264.081
88.0000	264.421
88.5000	264.786
89.0000	265.056
89.5000	265.381
90.0000	265.711
90.5000	266.042
91.0000	266.389
91.5000	266.681
92.0000	267.033
92.5000	267.291
93.0000	267.603
93.5000	267.934
94.0000	268.255
94.5000	268.585
95.0000	268.914
95.5000	269.213
96.0000	269.501
96.5000	269.792
97.0000	270.123
97.5000	270.446
98.0000	270.703
98.5000	271.07
99.0000	271.365
99.5000	271.644
100.0000	272.031
100.5000	272.327
101.0000	272.628
101.5000	272.965
102.0000	273.27
102.5000	273.585
103.0000	273.915
103.5000	274.287
104.0000	274.556
104.5000	274.843
105.0000	275.119
105.5000	275.394
106.0000	275.723
106.5000	276.053
107.0000	276.391
107.5000	276.702
108.0000	277.03
108.5000	277.304
109.0000	277.586
109.5000	277.898
110.0000	278.208
110.5000	278.563
111.0000	278.874
111.5000	279.121
112.0000	279.379
112.5000	279.645
113.0000	279.951
113.5000	280.289
114.0000	280.549
114.5000	280.884
115.0000	281.205
115.5000	281.496
116.0000	281.819
116.5000	282.07
117.0000	282.337
117.5000	282.675
118.0000	282.968
118.5000	283.27
119.0000	283.573
119.5000	283.844
120.0000	284.141
120.5000	284.453
121.0000	284.738
121.5000	285.02
122.0000	285.353
122.5000	285.64
123.0000	285.957
123.5000	286.26
124.0000	286.501
124.5000	286.752
125.0000	287
125.5000	287.296
126.0000	287.608
126.5000	287.908
127.0000	288.184
127.5000	288.431
128.0000	288.685
128.5000	288.979
129.0000	289.266
129.5000	289.551
130.0000	289.85
130.5000	290.141
131.0000	290.408
131.5000	290.677
132.0000	290.988
132.5000	291.288
133.0000	291.589
133.5000	291.865
134.0000	292.13
134.5000	292.404
135.0000	292.676
135.5000	292.984
136.0000	293.246
136.5000	293.5
137.0000	293.792
137.5000	294.05
138.0000	294.339
138.5000	294.601
139.0000	294.841
139.5000	295.127
140.0000	295.412
140.5000	295.723
141.0000	296.018
141.5000	296.244
142.0000	296.489
142.5000	296.746
143.0000	297.046
143.5000	297.374
144.0000	297.631
144.5000	297.878
145.0000	298.117
145.5000	298.364
146.0000	298.704
146.5000	298.982
147.0000	299.27
147.5000	299.539
148.0000	299.748
148.5000	299.977
149.0000	300.255
149.5000	300.492
150.0000	300.742
150.5000	301.06
151.0000	301.314
151.5000	301.629
152.0000	301.871
152.5000	302.086
153.0000	302.329
153.5000	302.569
154.0000	302.852
154.5000	303.163
155.0000	303.396
155.5000	303.64
156.0000	303.915
156.5000	304.136
157.0000	304.448
157.5000	304.731
158.0000	304.996
158.5000	305.282
159.0000	305.487
159.5000	305.708
160.0000	305.989
160.5000	306.188
161.0000	306.483
161.5000	306.736
162.0000	306.971
162.5000	307.239
163.0000	307.504
163.5000	307.802
164.0000	308.033
164.5000	308.303
165.0000	308.58
165.5000	308.807
166.0000	309.063
166.5000	309.355
167.0000	309.513
167.5000	309.721
168.0000	309.959
168.5000	310.171
169.0000	310.509
169.5000	310.836
170.0000	311.068
170.5000	311.343
171.0000	311.514
171.5000	311.713
172.0000	311.995
172.5000	312.234
173.0000	312.461
173.5000	312.687
174.0000	312.953
174.5000	313.179
175.0000	313.473
175.5000	313.712
176.0000	313.934
176.5000	314.173
177.0000	314.395
177.5000	314.644
178.0000	314.874
178.5000	315.046
179.0000	315.315
179.5000	315.589
180.0000	315.892
180.5000	316.208
181.0000	316.415
181.5000	316.645
182.0000	316.843
182.5000	317.058
183.0000	317.313
183.5000	317.51
184.0000	317.736
184.5000	317.966
185.0000	318.192
185.5000	318.431
186.0000	318.695
186.5000	318.971
187.0000	319.202
187.5000	319.432
188.0000	319.647
188.5000	319.871
189.0000	320.1
189.5000	320.343
190.0000	320.535
190.5000	320.773
191.0000	321.035
191.5000	321.292
192.0000	321.536
192.5000	321.742
193.0000	321.944
193.5000	322.172
194.0000	322.454
194.5000	322.699
195.0000	322.947
195.5000	323.22
196.0000	323.407
196.5000	323.603
197.0000	323.822
197.5000	323.976
198.0000	324.176
198.5000	324.444
199.0000	324.628
199.5000	324.88
200.0000	325.134
200.5000	325.303
201.0000	325.559
201.5000	325.786
202.0000	326.014
202.5000	326.293
203.0000	326.5
203.5000	326.729
204.0000	326.961
204.5000	327.146
205.0000	327.375
205.5000	327.585
206.0000	327.821
206.5000	328.061
207.0000	328.295
207.5000	328.558
208.0000	328.741
208.5000	328.96
209.0000	329.155
209.5000	329.364
210.0000	329.584
210.5000	329.827
211.0000	330.069
211.5000	330.267
212.0000	330.494
212.5000	330.646
213.0000	330.864
213.5000	331.101
214.0000	331.287
214.5000	331.547
215.0000	331.785
215.5000	331.971
216.0000	332.202
216.5000	332.421
217.0000	332.551
217.5000	332.766
218.0000	332.951
218.5000	333.179
219.0000	333.448
219.5000	333.618
220.0000	333.879
220.5000	334.034
221.0000	334.286
221.5000	334.565
222.0000	334.784
222.5000	335.02
223.0000	335.224
223.5000	335.44
224.0000	335.651
224.5000	335.826
225.0000	336.016
225.5000	336.229
226.0000	336.422
226.5000	336.69
227.0000	336.913
227.5000	337.116
228.0000	337.341
228.5000	337.543
229.0000	337.704
229.5000	337.883
230.0000	338.095
230.5000	338.266
231.0000	338.493
231.5000	338.693
232.0000	338.863
232.5000	339.125
233.0000	339.315
233.5000	339.525
234.0000	339.745
234.5000	339.96
235.0000	340.159
235.5000	340.405
236.0000	340.612
236.5000	340.694
237.0000	340.903
237.5000	341.068
238.0000	341.268
238.5000	341.553
239.0000	341.779
239.5000	342.008
240.0000	342.208
240.5000	342.358
241.0000	342.512
241.5000	342.665
242.0000	342.864
242.5000	343.099
243.0000	343.334
243.5000	343.525
244.0000	343.762
244.5000	343.973
245.0000	344.147
245.5000	344.345
246.0000	344.529
246.5000	344.706
247.0000	344.922
247.5000	345.121
248.0000	345.275
248.5000	345.462
249.0000	345.686
249.5000	345.887
250.0000	346.095
250.5000	346.281
251.0000	346.421
251.5000	346.667
252.0000	346.85
252.5000	347.06
253.0000	347.252
253.5000	347.375
254.0000	347.565
254.5000	347.818
255.0000	348.003
255.5000	348.199
256.0000	348.364
256.5000	348.468
257.0000	348.681
257.5000	348.91
258.0000	349.136
258.5000	349.351
259.0000	349.525
259.5000	349.716
260.0000	349.926
260.5000	350.116
261.0000	350.248
261.5000	350.399
262.0000	350.56
262.5000	350.777
263.0000	350.994
263.5000	351.171
264.0000	351.324
264.5000	351.496
265.0000	351.721
265.5000	351.87
266.0000	352.072
266.5000	352.278
267.0000	352.435
267.5000	352.676
268.0000	352.791
268.5000	352.893
269.0000	353.042
269.5000	353.218
270.0000	353.444
270.5000	353.681
271.0000	353.9
271.5000	354.126
272.0000	354.315
272.5000	354.477
273.0000	354.669
273.5000	354.793
274.0000	354.977
274.5000	355.152
275.0000	355.323
275.5000	355.524
276.0000	355.679
276.5000	355.86
277.0000	356.032
277.5000	356.202
278.0000	356.357
278.5000	356.539
279.0000	356.733
279.5000	356.922
280.0000	357.095
280.5000	357.283
281.0000	357.448
281.5000	357.576
282.0000	357.789
282.5000	357.943
283.0000	358.119
283.5000	358.323
284.0000	358.491
284.5000	358.618
285.0000	358.803
285.5000	358.978
286.0000	359.205
286.5000	359.442
287.0000	359.607
287.5000	359.77
288.0000	359.897
288.5000	360.023
289.0000	360.219
289.5000	360.408
290.0000	360.538
290.5000	360.695
291.0000	360.833
291.5000	361.005
292.0000	361.25
292.5000	361.46
293.0000	361.631
293.5000	361.751
294.0000	361.91
294.5000	362.028
295.0000	362.145
295.5000	362.316
296.0000	362.434
296.5000	362.599
297.0000	362.825
297.5000	362.999
298.0000	363.193
298.5000	363.462
299.0000	363.697
299.5000	363.915
300.0000	364.096
300.5000	364.178
301.0000	364.311
301.5000	364.467
302.0000	364.591
302.5000	364.775
303.0000	364.856
303.5000	364.927
304.0000	365.094
304.5000	365.229
305.0000	365.393
305.5000	365.6
306.0000	365.785
306.5000	365.98
307.0000	366.144
307.5000	366.32
308.0000	366.463
308.5000	366.674
309.0000	366.862
309.5000	367.026
310.0000	367.227
310.5000	367.374
311.0000	367.53
311.5000	367.663
312.0000	367.785
312.5000	367.934
313.0000	368.108
313.5000	368.287
314.0000	368.433
314.5000	368.562
315.0000	368.698
315.5000	368.881
316.0000	369.056
316.5000	369.15
317.0000	369.35
317.5000	369.469
318.0000	369.634
318.5000	369.859
319.0000	369.989
319.5000	370.121
320.0000	370.281
320.5000	370.405
321.0000	370.584
321.5000	370.748
322.0000	370.935
322.5000	371.114
323.0000	371.237
323.5000	371.419
324.0000	371.52
324.5000	371.706
325.0000	371.877
325.5000	372.003
326.0000	372.166
326.5000	372.286
327.0000	372.467
327.5000	372.659
328.0000	372.853
328.5000	373.055
329.0000	373.141
329.5000	373.231
330.0000	373.358
330.5000	373.399
331.0000	373.556
331.5000	373.716
332.0000	373.86
332.5000	374.082
333.0000	374.295
333.5000	374.451
334.0000	374.591
334.5000	374.737
335.0000	374.848
335.5000	375.027
336.0000	375.191
336.5000	375.373
337.0000	375.463
337.5000	375.622
338.0000	375.731
338.5000	375.812
339.0000	375.978
339.5000	376.105
340.0000	376.255
340.5000	376.433
341.0000	376.569
341.5000	376.73
342.0000	376.925
342.5000	377.115
343.0000	377.313
343.5000	377.506
344.0000	377.693
344.5000	377.806
345.0000	377.954
345.5000	378.112
346.0000	378.213
346.5000	378.411
347.0000	378.558
347.5000	378.622
348.0000	378.79
348.5000	378.873
349.0000	378.965
349.5000	379.158
350.0000	379.238
350.5000	379.433
351.0000	379.621
351.5000	379.786
352.0000	379.982
352.5000	380.136
353.0000	380.245
353.5000	380.355
354.0000	380.452
354.5000	380.53
355.0000	380.71
355.5000	380.861
356.0000	381.016
356.5000	381.162
357.0000	381.309
357.5000	381.435
358.0000	381.583
358.5000	381.775
359.0000	381.922
359.5000	382.064
360.0000	382.149
360.5000	382.224
361.0000	382.329
361.5000	382.48
362.0000	382.659
362.5000	382.802
363.0000	382.974
363.5000	383.125
364.0000	383.264
364.5000	383.453
365.0000	383.583
365.5000	383.76
366.0000	383.889
366.5000	384.005
367.0000	384.151
367.5000	384.206
368.0000	384.312
368.5000	384.402
369.0000	384.53
369.5000	384.677
370.0000	384.83
370.5000	385.021
371.0000	385.104
371.5000	385.231
372.0000	385.385
372.5000	385.493
373.0000	385.69
373.5000	385.77
374.0000	385.839
374.5000	385.925
375.0000	385.979
375.5000	386.142
376.0000	386.322
376.5000	386.51
377.0000	386.681
377.5000	386.798
378.0000	386.922
378.5000	387.047
379.0000	387.2
379.5000	387.423
380.0000	387.536
380.5000	387.655
381.0000	387.759
381.5000	387.808
382.0000	387.942
382.5000	388.069
383.0000	388.266
383.5000	388.318
384.0000	388.479
384.5000	388.633
385.0000	388.721
385.5000	388.894
386.0000	388.986
386.5000	389.09
387.0000	389.187
387.5000	389.386
388.0000	389.544
388.5000	389.651
389.0000	389.782
389.5000	389.893
390.0000	390.057
390.5000	390.191
391.0000	390.275
391.5000	390.392
392.0000	390.467
392.5000	390.571
393.0000	390.759
393.5000	390.841
394.0000	391.023
394.5000	391.202
395.0000	391.28
395.5000	391.457
396.0000	391.54
396.5000	391.626
397.0000	391.779
397.5000	391.898
398.0000	392.012
398.5000	392.145
399.0000	392.27
399.5000	392.376
400.0000	392.537
400.5000	392.668
401.0000	392.744
401.5000	392.854
402.0000	392.922
402.5000	393.002
403.0000	393.182
403.5000	393.257
404.0000	393.419
404.5000	393.577
405.0000	393.641
405.5000	393.788
406.0000	393.828
406.5000	393.894
407.0000	394.102
407.5000	394.275
408.0000	394.465
408.5000	394.633
409.0000	394.703
409.5000	394.798
410.0000	394.889
410.5000	395.025
411.0000	395.111
411.5000	395.215
412.0000	395.31
412.5000	395.433
413.0000	395.592
413.5000	395.672
414.0000	395.837
414.5000	395.909
415.0000	396.029
415.5000	396.181
416.0000	396.284
416.5000	396.445
417.0000	396.557
417.5000	396.654
418.0000	396.75
418.5000	396.847
419.0000	396.952
419.5000	397.031
420.0000	397.139
420.5000	397.217
421.0000	397.356
421.5000	397.55
422.0000	397.697
422.5000	397.795
423.0000	397.866
423.5000	397.995
424.0000	398.139
424.5000	398.273
425.0000	398.426
425.5000	398.493
426.0000	398.556
426.5000	398.725
427.0000	398.838
427.5000	398.982
428.0000	399.075
428.5000	399.096
429.0000	399.183
429.5000	399.296
430.0000	399.394
430.5000	399.591
431.0000	399.685
431.5000	399.743
432.0000	399.876
432.5000	399.97
433.0000	400.077
433.5000	400.215
434.0000	400.351
434.5000	400.443
435.0000	400.518
435.5000	400.637
436.0000	400.739
436.5000	400.905
437.0000	401.029
437.5000	401.149
438.0000	401.263
438.5000	401.272
439.0000	401.423
439.5000	401.52
440.0000	401.574
440.5000	401.653
441.0000	401.777
441.5000	401.92
442.0000	402.132
442.5000	402.245
443.0000	402.365
443.5000	402.414
444.0000	402.438
444.5000	402.537
445.0000	402.64
445.5000	402.825
446.0000	402.929
446.5000	403.103
447.0000	403.138
447.5000	403.177
448.0000	403.325
448.5000	403.456
449.0000	403.605
449.5000	403.716
450.0000	403.834
450.5000	403.95
451.0000	404.077
451.5000	404.126
452.0000	404.177
452.5000	404.206
453.0000	404.261
453.5000	404.453
454.0000	404.568
454.5000	404.704
455.0000	404.802
455.5000	404.876
456.0000	404.992
456.5000	405.12
457.0000	405.251
457.5000	405.367
458.0000	405.459
458.5000	405.525
459.0000	405.632
459.5000	405.695
460.0000	405.763
460.5000	405.86
461.0000	405.937
461.5000	406.047
462.0000	406.195
462.5000	406.306
463.0000	406.418
463.5000	406.569
464.0000	406.676
464.5000	406.793
465.0000	406.86
465.5000	406.961
466.0000	407.011
466.5000	407.123
467.0000	407.199
467.5000	407.226
468.0000	407.326
468.5000	407.43
469.0000	407.549
469.5000	407.655
470.0000	407.811
470.5000	407.876
471.0000	408.044
471.5000	408.163
472.0000	408.239
472.5000	408.39
473.0000	408.485
473.5000	408.581
474.0000	408.638
474.5000	408.703
475.0000	408.807
475.5000	408.923
476.0000	408.979
476.5000	409.07
477.0000	409.091
477.5000	409.19
478.0000	409.37
478.5000	409.451
479.0000	409.589
479.5000	409.662
480.0000	409.769
480.5000	409.906
481.0000	409.968
481.5000	410.106
482.0000	410.178
482.5000	410.25
483.0000	410.429
483.5000	410.533
484.0000	410.621
484.5000	410.762
485.0000	410.814
485.5000	410.96
486.0000	411.049
486.5000	411.134
487.0000	411.246
487.5000	411.189
488.0000	411.314
488.5000	411.386
489.0000	411.458
489.5000	411.648
490.0000	411.741
490.5000	411.854
491.0000	411.904
491.5000	411.933
492.0000	411.979
492.5000	412.04
493.0000	412.185
493.5000	412.313
494.0000	412.507
494.5000	412.642
495.0000	412.804
495.5000	412.873
496.0000	412.92
496.5000	412.972
497.0000	413.02
497.5000	413.193
498.0000	413.358
498.5000	413.429
499.0000	413.442
499.5000	413.529
500.0000	413.581
500.5000	413.71
501.0000	413.879
501.5000	413.963
502.0000	414.079
502.5000	414.16
503.0000	414.291
503.5000	414.371
504.0000	414.373
504.5000	414.449
505.0000	414.489
505.5000	414.595
506.0000	414.737
506.5000	414.867
507.0000	415.02
507.5000	415.077
508.0000	415.236
508.5000	415.273
509.0000	415.316
509.5000	415.398
510.0000	415.384
510.5000	415.512
511.0000	415.628
511.5000	415.722
512.0000	415.82
512.5000	415.889
513.0000	415.975
513.5000	416.112
514.0000	416.161
514.5000	416.228
515.0000	416.307
515.5000	416.337
516.0000	416.49
516.5000	416.587
517.0000	416.654
517.5000	416.722
518.0000	416.776
518.5000	416.962
519.0000	417.086
519.5000	417.181
520.0000	417.326
520.5000	417.348
521.0000	417.423
521.5000	417.553
522.0000	417.596
522.5000	417.711
523.0000	417.754
523.5000	417.85
524.0000	417.961
524.5000	418.037
525.0000	418.132
525.5000	418.165
526.0000	418.272
526.5000	418.36
527.0000	418.46
527.5000	418.641
528.0000	418.705
528.5000	418.803
529.0000	418.938
529.5000	418.978
530.0000	419.01
530.5000	419.1
531.0000	419.096
531.5000	419.134
532.0000	419.25
532.5000	419.348
533.0000	419.454
533.5000	419.547
534.0000	419.668
534.5000	419.739
535.0000	419.799
535.5000	419.977
536.0000	420.016
536.5000	420.124
537.0000	420.28
537.5000	420.307
538.0000	420.438
538.5000	420.401
539.0000	420.42
539.5000	420.497
540.0000	420.538
540.5000	420.683
541.0000	420.833
541.5000	420.988
542.0000	421.108
542.5000	421.203
543.0000	421.227
543.5000	421.273
544.0000	421.323
544.5000	421.477
545.0000	421.626
545.5000	421.697
546.0000	421.814
546.5000	421.829
547.0000	421.886
547.5000	421.945
548.0000	422.004
548.5000	422.147
549.0000	422.222
549.5000	422.3
550.0000	422.35
550.5000	422.401
551.0000	422.455
551.5000	422.587
552.0000	422.748
552.5000	422.807
553.0000	422.881
553.5000	422.867
554.0000	422.931
554.5000	422.969
555.0000	423.117
555.5000	423.22
556.0000	423.331
556.5000	423.437
557.0000	423.5
557.5000	423.644
558.0000	423.729
558.5000	423.796
559.0000	423.894
559.5000	423.943
560.0000	423.954
560.5000	424.047
561.0000	424.054
561.5000	424.117
562.0000	424.226
562.5000	424.292
563.0000	424.404
563.5000	424.531
564.0000	424.594
564.5000	424.621
565.0000	424.634
565.5000	424.675
566.0000	424.762
566.5000	424.871
567.0000	425.056
567.5000	425.128
568.0000	425.226
568.5000	425.395
569.0000	425.379
569.5000	425.348
570.0000	425.34
570.5000	425.429
571.0000	425.581
571.5000	425.829
572.0000	426.029
572.5000	426.029
573.0000	426.039
573.5000	426.044
574.0000	425.991
574.5000	426.078
575.0000	426.165
575.5000	426.287
576.0000	426.429
576.5000	426.496
577.0000	426.607
577.5000	426.623
578.0000	426.7
578.5000	426.741
579.0000	426.775
579.5000	426.859
580.0000	426.888
580.5000	426.941
581.0000	427.041
581.5000	427.126
582.0000	427.257
582.5000	427.405
583.0000	427.454
583.5000	427.523
584.0000	427.589
584.5000	427.691
585.0000	427.762
585.5000	427.884
586.0000	427.979
586.5000	427.985
587.0000	428.073
587.5000	428.15
588.0000	428.081
588.5000	428.159
589.0000	428.215
589.5000	428.229
590.0000	428.348
590.5000	428.412
591.0000	428.514
591.5000	428.605
592.0000	428.732
592.5000	428.808
593.0000	428.873
593.5000	428.927
594.0000	429.003
594.5000	429.119
595.0000	429.199
595.5000	429.293
596.0000	429.342
596.5000	429.404
597.0000	429.413
597.5000	429.434
598.0000	429.529
598.5000	429.565
599.0000	429.652
599.5000	429.805
600.0000	429.889
600.5000	429.986
601.0000	430.172
601.5000	430.24
602.0000	430.274
602.5000	430.325
603.0000	430.354
603.5000	430.418
604.0000	430.511
604.5000	430.561
605.0000	430.707
605.5000	430.772
606.0000	430.851
606.5000	430.953
607.0000	430.952
607.5000	431.022
608.0000	431.064
608.5000	431.177
609.0000	431.296
609.5000	431.378
610.0000	431.431
610.5000	431.472
611.0000	431.521
611.5000	431.514
612.0000	431.622
612.5000	431.71
613.0000	431.747
613.5000	431.842
614.0000	431.902
614.5000	432
615.0000	432.061
615.5000	432.177
616.0000	432.265
616.5000	432.297
617.0000	432.362
617.5000	432.454
618.0000	432.435
618.5000	432.587
619.0000	432.638
619.5000	432.671
620.0000	432.836
620.5000	432.872
621.0000	432.916
621.5000	432.955
622.0000	433.037
622.5000	433.074
623.0000	433.206
623.5000	433.283
624.0000	433.338
624.5000	433.426
625.0000	433.474
625.5000	433.526
626.0000	433.578
626.5000	433.62
627.0000	433.714
627.5000	433.842
628.0000	433.885
628.5000	433.957
629.0000	434.038
629.5000	434.11
630.0000	434.23
630.5000	434.266
631.0000	434.324
631.5000	434.389
632.0000	434.472
632.5000	434.562
633.0000	434.671
633.5000	434.693
634.0000	434.687
634.5000	434.817
635.0000	434.835
635.5000	434.823
636.0000	434.996
636.5000	435.008
637.0000	435.065
637.5000	435.234
638.0000	435.192
638.5000	435.242
639.0000	435.348
639.5000	435.454
640.0000	435.565
640.5000	435.667
641.0000	435.768
641.5000	435.882
642.0000	435.993
642.5000	436.064
643.0000	436.116
643.5000	436.13
644.0000	436.098
644.5000	436.116
645.0000	436.174
645.5000	436.269
646.0000	436.37
646.5000	436.403
647.0000	436.481
647.5000	436.519
648.0000	436.577
648.5000	436.669
649.0000	436.701
649.5000	436.754
650.0000	436.898
650.5000	437.035
651.0000	437.151
651.5000	437.157
652.0000	437.173
652.5000	437.21
653.0000	437.278
653.5000	437.419
654.0000	437.499
654.5000	437.571
655.0000	437.593
655.5000	437.649
656.0000	437.738
656.5000	437.854
657.0000	437.937
657.5000	438.042
658.0000	438.074
658.5000	438.044
659.0000	438.128
659.5000	438.114
660.0000	438.206
660.5000	438.276
661.0000	438.268
661.5000	438.425
662.0000	438.471
662.5000	438.598
663.0000	438.727
663.5000	438.68
664.0000	438.69
664.5000	438.711
665.0000	438.816
665.5000	438.911
666.0000	439.059
666.5000	439.123
667.0000	439.083
667.5000	439.152
668.0000	439.179
668.5000	439.261
669.0000	439.361
669.5000	439.477
670.0000	439.503
670.5000	439.605
671.0000	439.641
671.5000	439.701
672.0000	439.809
672.5000	439.771
673.0000	439.879
673.5000	439.925
674.0000	439.964
674.5000	440.063
675.0000	440.153
675.5000	440.216
676.0000	440.349
676.5000	440.418
677.0000	440.398
677.5000	440.451
678.0000	440.483
678.5000	440.604
679.0000	440.685
679.5000	440.791
680.0000	440.912
680.5000	440.89
681.0000	440.921
681.5000	440.949
682.0000	440.895
682.5000	441.025
683.0000	441.092
683.5000	441.135
684.0000	441.245
684.5000	441.314
685.0000	441.448
685.5000	441.482
686.0000	441.48
686.5000	441.512
687.0000	441.541
687.5000	441.587
688.0000	441.671
688.5000	441.7
689.0000	441.782
689.5000	441.892
690.0000	442.015
690.5000	442.05
691.0000	442.06
691.5000	442.046
692.0000	442.079
692.5000	442.161
693.0000	442.227
693.5000	442.32
694.0000	442.345
694.5000	442.405
695.0000	442.371
695.5000	442.447
696.0000	442.48
696.5000	442.52
697.0000	442.754
697.5000	442.845
698.0000	442.921
698.5000	442.995
699.0000	442.926
699.5000	442.952
700.0000	442.986
700.5000	443.086
701.0000	443.181
701.5000	443.236
702.0000	443.265
702.5000	443.226
703.0000	443.259
703.5000	443.357
704.0000	443.478
704.5000	443.557
705.0000	443.641
705.5000	443.647
706.0000	443.707
706.5000	443.768
707.0000	443.855
707.5000	443.965
708.0000	444.043
708.5000	444.169
709.0000	444.195
709.5000	444.196
710.0000	444.231
710.5000	444.338
711.0000	444.468
711.5000	444.505
712.0000	444.59
712.5000	444.552
713.0000	444.503
713.5000	444.631
714.0000	444.677
714.5000	444.804
715.0000	444.886
715.5000	444.905
716.0000	444.973
716.5000	444.964
717.0000	445.013
717.5000	445.132
718.0000	445.231
718.5000	445.267
719.0000	445.319
719.5000	445.317
720.0000	445.336
720.5000	445.415
721.0000	445.5
721.5000	445.507
722.0000	445.611
722.5000	445.658
723.0000	445.683
723.5000	445.795
724.0000	445.766
724.5000	445.853
725.0000	445.997
725.5000	446.04
726.0000	446.105
726.5000	446.142
727.0000	446.135
727.5000	446.181
728.0000	446.276
728.5000	446.329
729.0000	446.39
729.5000	446.453
730.0000	446.477
730.5000	446.527
731.0000	446.565
731.5000	446.596
732.0000	446.64
732.5000	446.651
733.0000	446.755
733.5000	446.891
734.0000	446.988
734.5000	447.094
735.0000	447.072
735.5000	447.002
736.0000	447.051
736.5000	447.12
737.0000	447.194
737.5000	447.277
738.0000	447.266
738.5000	447.327
739.0000	447.387
739.5000	447.512
740.0000	447.476
740.5000	447.5
741.0000	447.648
741.5000	447.693
742.0000	447.839
742.5000	447.93
743.0000	447.886
743.5000	447.9
744.0000	448.023
744.5000	448.102
745.0000	448.178
745.5000	448.251
746.0000	448.273
746.5000	448.315
747.0000	448.334
747.5000	448.351
748.0000	448.4
748.5000	448.425
749.0000	448.517
749.5000	448.682
750.0000	448.69
750.5000	448.729
751.0000	448.743
751.5000	448.729
752.0000	448.852
752.5000	448.849
753.0000	448.888
753.5000	448.941
754.0000	448.968
754.5000	449.112
755.0000	449.18
755.5000	449.233
756.0000	449.266
756.5000	449.322
757.0000	449.338
757.5000	449.371
758.0000	449.464
758.5000	449.473
759.0000	449.607
759.5000	449.661
760.0000	449.749
760.5000	449.837
761.0000	449.852
761.5000	449.899
762.0000	449.89
762.5000	449.929
763.0000	449.904
763.5000	449.996
764.0000	450.057
764.5000	450.049
765.0000	450.152
765.5000	450.194
766.0000	450.203
766.5000	450.334
767.0000	450.44
767.5000	450.479
768.0000	450.52
768.5000	450.571
769.0000	450.584
769.5000	450.626
770.0000	450.71
770.5000	450.721
771.0000	450.787
771.5000	450.829
772.0000	450.858
772.5000	450.854
773.0000	450.845
773.5000	450.886
774.0000	451.002
774.5000	451.083
775.0000	451.18
775.5000	451.19
776.0000	451.18
776.5000	451.199
777.0000	451.226
777.5000	451.291
778.0000	451.372
778.5000	451.488
779.0000	451.595
779.5000	451.633
780.0000	451.603
780.5000	451.556
781.0000	451.611
781.5000	451.737
782.0000	451.767
782.5000	451.889
783.0000	451.886
783.5000	451.865
784.0000	451.966
784.5000	452.039
785.0000	452.075
785.5000	452.144
786.0000	452.262
786.5000	452.305
787.0000	452.334
787.5000	452.387
788.0000	452.352
788.5000	452.328
789.0000	452.41
789.5000	452.445
790.0000	452.519
790.5000	452.602
791.0000	452.62
791.5000	452.661
792.0000	452.675
792.5000	452.805
793.0000	452.9
793.5000	452.947
794.0000	453.004
794.5000	453.012
795.0000	453.089
795.5000	453.161
796.0000	453.137
796.5000	453.193
797.0000	453.213
797.5000	453.223
798.0000	453.416
798.5000	453.422
799.0000	453.41
799.5000	453.548
800.0000	453.521
800.5000	453.63
801.0000	453.745
801.5000	453.713
802.0000	453.726
802.5000	453.688
803.0000	453.716
803.5000	453.799
804.0000	453.848
804.5000	453.921
805.0000	453.961
805.5000	454.026
806.0000	454.166
806.5000	454.234
807.0000	454.283
807.5000	454.324
808.0000	454.321
808.5000	454.307
809.0000	454.364
809.5000	454.401
810.0000	454.531
810.5000	454.578
811.0000	454.721
811.5000	454.778
812.0000	454.813
812.5000	454.864
813.0000	454.852
813.5000	454.894
814.0000	454.879
814.5000	454.987
815.0000	455.008
815.5000	454.982
816.0000	454.991
816.5000	455.016
817.0000	455.08
817.5000	455.221
818.0000	455.367
818.5000	455.394
819.0000	455.45
819.5000	455.475
820.0000	455.459
820.5000	455.524
821.0000	455.587
821.5000	455.699
822.0000	455.742
822.5000	455.85
823.0000	455.829
823.5000	455.784
824.0000	455.886
824.5000	455.949
825.0000	456.039
825.5000	456.144
826.0000	456.215
826.5000	456.251
827.0000	456.293
827.5000	456.264
828.0000	456.232
828.5000	456.248
829.0000	456.336
829.5000	456.465
830.0000	456.589
830.5000	456.665
831.0000	456.67
831.5000	456.727
832.0000	456.732
832.5000	456.782
833.0000	456.815
833.5000	456.814
834.0000	456.921
834.5000	456.947
835.0000	457.009
835.5000	457.033
836.0000	457.071
836.5000	457.081
837.0000	457.094
837.5000	457.187
838.0000	457.197
838.5000	457.299
839.0000	457.399
839.5000	457.407
840.0000	457.448
840.5000	457.446
841.0000	457.486
841.5000	457.54
842.0000	457.626
842.5000	457.743
843.0000	457.839
843.5000	457.915
844.0000	457.925
844.5000	457.927
845.0000	457.904
845.5000	458.008
846.0000	458.117
846.5000	458.18
847.0000	458.321
847.5000	458.346
848.0000	458.403
848.5000	458.418
849.0000	458.378
849.5000	458.433
850.0000	458.425
850.5000	458.516
851.0000	458.613
851.5000	458.596
852.0000	458.654
852.5000	458.677
853.0000	458.699
853.5000	458.828
854.0000	458.935
854.5000	458.995
855.0000	459.117
855.5000	459.141
856.0000	459.131
856.5000	459.157
857.0000	459.136
857.5000	459.172
858.0000	459.168
858.5000	459.277
859.0000	459.347
859.5000	459.403
860.0000	459.481
860.5000	459.54
861.0000	459.604
861.5000	459.625
862.0000	459.738
862.5000	459.77
863.0000	459.785
863.5000	459.81
864.0000	459.758
864.5000	459.762
865.0000	459.809
865.5000	459.904
866.0000	460.045
866.5000	460.052
867.0000	460.084
867.5000	460.159
868.0000	460.121
868.5000	460.26
869.0000	460.272
869.5000	460.296
870.0000	460.42
870.5000	460.407
871.0000	460.575
871.5000	460.521
872.0000	460.544
872.5000	460.632
873.0000	460.61
873.5000	460.727
874.0000	460.793
874.5000	460.839
875.0000	460.894
875.5000	460.937
876.0000	460.956
876.5000	461.038
877.0000	461.109
877.5000	461.101
878.0000	461.212
878.5000	461.258
879.0000	461.295
879.5000	461.358
880.0000	461.32
880.5000	461.346
881.0000	461.356
881.5000	461.459
882.0000	461.539
882.5000	461.566
883.0000	461.632
883.5000	461.718
884.0000	461.685
884.5000	461.722
885.0000	461.767
885.5000	461.774
886.0000	461.919
886.5000	461.923
887.0000	461.968
887.5000	462.008
888.0000	461.983
888.5000	462.075
889.0000	462.13
889.5000	462.143
890.0000	462.126
890.5000	462.185
891.0000	462.165
891.5000	462.235
892.0000	462.349
892.5000	462.3
893.0000	462.397
893.5000	462.404
894.0000	462.449
894.5000	462.539
895.0000	462.591
895.5000	462.704
896.0000	462.76
896.5000	462.786
897.0000	462.764
897.5000	462.721
898.0000	462.777
898.5000	462.884
899.0000	462.968
899.5000	463.1
900.0000	463.089
900.5000	463.082
901.0000	463.111
901.5000	463.13
902.0000	463.257
902.5000	463.302
903.0000	463.36
903.5000	463.368
904.0000	463.421
904.5000	463.49
905.0000	463.553
905.5000	463.627
906.0000	463.653
906.5000	463.717
907.0000	463.71
907.5000	463.768
908.0000	463.753
908.5000	463.755
909.0000	463.823
909.5000	463.846
910.0000	463.927
910.5000	463.921
911.0000	463.951
911.5000	463.987
912.0000	464.079
912.5000	464.132
913.0000	464.247
913.5000	464.315
914.0000	464.266
914.5000	464.34
915.0000	464.382
915.5000	464.428
916.0000	464.478
916.5000	464.557
917.0000	464.58
917.5000	464.664
918.0000	464.705
918.5000	464.755
919.0000	464.753
919.5000	464.782
920.0000	464.872
920.5000	464.945
921.0000	465.06
921.5000	465.074
922.0000	465.182
922.5000	465.187
923.0000	465.155
923.5000	465.205
924.0000	465.173
924.5000	465.223
925.0000	465.304
925.5000	465.352
926.0000	465.412
926.5000	465.475
927.0000	465.581
927.5000	465.617
928.0000	465.669
928.5000	465.714
929.0000	465.743
929.5000	465.75
930.0000	465.815
930.5000	465.86
931.0000	465.894
931.5000	465.969
932.0000	465.987
932.5000	465.977
933.0000	465.994
933.5000	466.031
934.0000	466.092
934.5000	466.161
935.0000	466.232
935.5000	466.32
936.0000	466.386
936.5000	466.502
937.0000	466.603
937.5000	466.639
938.0000	466.621
938.5000	466.615
939.0000	466.614
939.5000	466.669
940.0000	466.749
940.5000	466.812
941.0000	466.874
941.5000	466.929
942.0000	467.013
942.5000	467.122
943.0000	467.138
943.5000	467.178
944.0000	467.143
944.5000	467.196
945.0000	467.209
945.5000	467.287
946.0000	467.383
946.5000	467.326
947.0000	467.417
947.5000	467.399
948.0000	467.502
948.5000	467.598
949.0000	467.624
949.5000	467.741
950.0000	467.642
950.5000	467.648
951.0000	467.687
951.5000	467.727
952.0000	467.84
952.5000	467.874
953.0000	467.944
953.5000	467.916
954.0000	467.949
954.5000	467.985
955.0000	468.029
955.5000	468.08
956.0000	468.163
956.5000	468.248
957.0000	468.226
957.5000	468.294
958.0000	468.267
958.5000	468.301
959.0000	468.376
959.5000	468.441
960.0000	468.481
960.5000	468.574
961.0000	468.634
961.5000	468.673
962.0000	468.753
962.5000	468.77
963.0000	468.765
963.5000	468.811
964.0000	468.875
964.5000	468.87
965.0000	468.937
965.5000	468.972
966.0000	469.057
966.5000	469.077
967.0000	469.17
967.5000	469.202
968.0000	469.203
968.5000	469.254
969.0000	469.357
969.5000	469.36
970.0000	469.406
970.5000	469.568
971.0000	469.502
971.5000	469.584
972.0000	469.64
972.5000	469.59
973.0000	469.717
973.5000	469.76
974.0000	469.761
974.5000	469.792
975.0000	469.803
975.5000	469.831
976.0000	469.867
976.5000	469.946
977.0000	470.043
977.5000	470.115
978.0000	470.224
978.5000	470.258
979.0000	470.181
979.5000	470.167
980.0000	470.179
980.5000	470.148
981.0000	470.219
981.5000	470.259
982.0000	470.259
982.5000	470.409
983.0000	470.434
983.5000	470.536
984.0000	470.58
984.5000	470.535
985.0000	470.636
985.5000	470.658
986.0000	470.745
986.5000	470.776
987.0000	470.73
987.5000	470.816
988.0000	470.814
988.5000	470.898
989.0000	471.008
989.5000	470.99
990.0000	471.072
990.5000	471.174
991.0000	471.193
991.5000	471.223
992.0000	471.219
992.5000	471.226
993.0000	471.272
993.5000	471.324
994.0000	471.381
994.5000	471.408
995.0000	471.451
995.5000	471.589
996.0000	471.645
996.5000	471.739
997.0000	471.774
997.5000	471.787
998.0000	471.83
998.5000	471.821
999.0000	471.877
999.5000	471.885
1000.0000	471.989
1000.5000	472.065
1001.0000	472.124
1001.5000	472.202
1002.0000	472.184
1002.5000	472.24
1003.0000	472.226
1003.5000	472.236
1004.0000	472.274
1004.5000	472.267
1005.0000	472.299
1005.5000	472.288
1006.0000	472.287
1006.5000	472.41
1007.0000	472.517
1007.5000	472.645
1008.0000	472.755
1008.5000	472.766
1009.0000	472.737
1009.5000	472.751
1010.0000	472.757
1010.5000	472.69
1011.0000	472.752
1011.5000	472.774
1012.0000	472.801
1012.5000	472.91
1013.0000	472.995
1013.5000	473.066
1014.0000	473.185
1014.5000	473.207
1015.0000	473.247
1015.5000	473.281
1016.0000	473.379
1016.5000	473.476
1017.0000	473.447
1017.5000	473.422
1018.0000	473.342
1018.5000	473.384
1019.0000	473.482
1019.5000	473.592
1020.0000	473.669
1020.5000	473.683
1021.0000	473.739
1021.5000	473.815
1022.0000	473.807
1022.5000	473.886
1023.0000	473.977
1023.5000	473.99
1024.0000	474.033
1024.5000	474.048
1025.0000	474.065
1025.5000	474.098
1026.0000	474.178
1026.5000	474.233
1027.0000	474.263
1027.5000	474.339
1028.0000	474.444
1028.5000	474.452
1029.0000	474.517
1029.5000	474.541
1030.0000	474.526
1030.5000	474.558
1031.0000	474.577
1031.5000	474.606
1032.0000	474.689
1032.5000	474.83
1033.0000	474.945
1033.5000	474.937
1034.0000	474.967
1034.5000	475.002
1035.0000	474.959
1035.5000	475.1
1036.0000	475.046
1036.5000	474.949
1037.0000	474.966
1037.5000	474.987
1038.0000	475.119
1038.5000	475.284
1039.0000	475.392
1039.5000	475.455
1040.0000	475.506
1040.5000	475.526
1041.0000	475.524
1041.5000	475.555
1042.0000	475.609
1042.5000	475.611
1043.0000	475.591
1043.5000	475.655
1044.0000	475.74
1044.5000	475.832
1045.0000	475.939
1045.5000	475.946
1046.0000	475.917
1046.5000	475.96
1047.0000	476.067
1047.5000	476.104
1048.0000	476.14
1048.5000	476.169
1049.0000	476.157
1049.5000	476.153
1050.0000	476.191
1050.5000	476.23
1051.0000	476.251
1051.5000	476.322
1052.0000	476.317
1052.5000	476.303
1053.0000	476.373
1053.5000	476.438
1054.0000	476.487
1054.5000	476.527
1055.0000	476.519
1055.5000	476.501
1056.0000	476.596
1056.5000	476.733
1057.0000	476.864
1057.5000	476.886
1058.0000	476.938
1058.5000	476.922
1059.0000	476.879
1059.5000	476.953
1060.0000	476.957
1060.5000	476.892
1061.0000	476.967
1061.5000	476.987
1062.0000	476.993
1062.5000	477.137
1063.0000	477.118
1063.5000	477.17
1064.0000	477.249
1064.5000	477.267
1065.0000	477.3
1065.5000	477.403
1066.0000	477.457
1066.5000	477.489
1067.0000	477.598
1067.5000	477.506
1068.0000	477.51
1068.5000	477.549
1069.0000	477.53
1069.5000	477.628
1070.0000	477.682
1070.5000	477.694
1071.0000	477.793
1071.5000	477.825
1072.0000	477.788
1072.5000	477.954
1073.0000	477.974
1073.5000	478.037
1074.0000	478.167
1074.5000	478.102
1075.0000	478.096
1075.5000	478.135
1076.0000	478.165
1076.5000	478.221
1077.0000	478.256
1077.5000	478.225
1078.0000	478.175
1078.5000	478.146
1079.0000	478.137
1079.5000	478.28
1080.0000	478.357
1080.5000	478.483
1081.0000	478.528
1081.5000	478.476
1082.0000	478.477
1082.5000	478.48
1083.0000	478.559
1083.5000	478.649
1084.0000	478.747
1084.5000	478.754
1085.0000	478.796
1085.5000	478.841
1086.0000	478.823
1086.5000	478.877
1087.0000	478.916
1087.5000	478.897
1088.0000	478.947
1088.5000	478.99
1089.0000	478.979
1089.5000	479.019
1090.0000	479.131
1090.5000	479.172
1091.0000	479.315
1091.5000	479.382
1092.0000	479.402
1092.5000	479.486
1093.0000	479.424
1093.5000	479.489
1094.0000	479.487
1094.5000	479.415
1095.0000	479.4
1095.5000	479.452
1096.0000	479.423
1096.5000	479.458
1097.0000	479.521
1097.5000	479.474
1098.0000	479.622
1098.5000	479.688
1099.0000	479.746
1099.5000	479.826
1100.0000	479.798
1100.5000	479.811
1101.0000	479.869
1101.5000	479.823
1102.0000	479.805
1102.5000	479.878
1103.0000	479.873
1103.5000	479.929
1104.0000	480.003
1104.5000	480.056
1105.0000	480.096
1105.5000	480.12
1106.0000	480.14
1106.5000	480.184
1107.0000	480.314
1107.5000	480.307
1108.0000	480.245
1108.5000	480.241
1109.0000	480.199
1109.5000	480.282
1110.0000	480.389
1110.5000	480.451
1111.0000	480.43
1111.5000	480.485
1112.0000	480.51
1112.5000	480.51
1113.0000	480.603
1113.5000	480.596
1114.0000	480.694
1114.5000	480.724
1115.0000	480.682
1115.5000	480.713
1116.0000	480.785
1116.5000	480.779
1117.0000	480.861
1117.5000	480.901
1118.0000	480.857
1118.5000	480.839
1119.0000	480.888
1119.5000	480.885
1120.0000	480.869
1120.5000	480.913
1121.0000	481
1121.5000	481.083
1122.0000	481.204
1122.5000	481.293
1123.0000	481.228
1123.5000	481.182
1124.0000	481.148
1124.5000	481.161
1125.0000	481.157
1125.5000	481.266
1126.0000	481.344
1126.5000	481.325
1127.0000	481.371
1127.5000	481.339
1128.0000	481.37
1128.5000	481.454
1129.0000	481.544
1129.5000	481.545
1130.0000	481.537
1130.5000	481.534
1131.0000	481.506
1131.5000	481.572
1132.0000	481.609
1132.5000	481.695
1133.0000	481.687
1133.5000	481.728
1134.0000	481.745
1134.5000	481.744
1135.0000	481.803
1135.5000	481.848
1136.0000	481.857
1136.5000	481.855
1137.0000	481.958
1137.5000	481.977
1138.0000	482.049
1138.5000	482.101
1139.0000	482.064
1139.5000	482.091
1140.0000	482.073
1140.5000	482.103
1141.0000	482.052
1141.5000	482.07
1142.0000	482.099
1142.5000	482.108
1143.0000	482.272
1143.5000	482.319
1144.0000	482.313
1144.5000	482.305
1145.0000	482.273
1145.5000	482.257
1146.0000	482.32
1146.5000	482.391
1147.0000	482.421
1147.5000	482.473
1148.0000	482.549
1148.5000	482.572
1149.0000	482.578
1149.5000	482.605
1150.0000	482.567
1150.5000	482.603
1151.0000	482.589
1151.5000	482.624
1152.0000	482.719
1152.5000	482.692
1153.0000	482.807
1153.5000	482.816
1154.0000	482.825
1154.5000	482.926
1155.0000	482.918
1155.5000	482.951
1156.0000	482.964
1156.5000	482.968
1157.0000	483.016
1157.5000	483.049
1158.0000	483.109
1158.5000	483.129
1159.0000	483.133
1159.5000	483.119
1160.0000	483.167
1160.5000	483.204
1161.0000	483.227
1161.5000	483.3
1162.0000	483.272
1162.5000	483.335
1163.0000	483.387
1163.5000	483.345
1164.0000	483.305
1164.5000	483.272
1165.0000	483.293
1165.5000	483.407
1166.0000	483.476
1166.5000	483.465
1167.0000	483.49
1167.5000	483.499
1168.0000	483.536
1168.5000	483.532
1169.0000	483.557
1169.5000	483.541
1170.0000	483.62
1170.5000	483.703
1171.0000	483.709
1171.5000	483.741
1172.0000	483.69
1172.5000	483.719
1173.0000	483.789
1173.5000	483.736
1174.0000	483.765
1174.5000	483.778
1175.0000	483.791
1175.5000	483.954
1176.0000	483.983
1176.5000	484.063
1177.0000	484.092
1177.5000	484.079
1178.0000	484.037
1178.5000	483.956
1179.0000	484.003
1179.5000	484.059
1180.0000	484.178
1180.5000	484.286
1181.0000	484.26
1181.5000	484.309
1182.0000	484.291
1182.5000	484.33
1183.0000	484.321
1183.5000	484.224
1184.0000	484.238
1184.5000	484.263
1185.0000	484.285
1185.5000	484.414
1186.0000	484.559
1186.5000	484.618
1187.0000	484.742
1187.5000	484.738
1188.0000	484.693
1188.5000	484.689
1189.0000	484.711
1189.5000	484.668
1190.0000	484.633
1190.5000	484.668
1191.0000	484.613
1191.5000	484.711
1192.0000	484.812
1192.5000	484.821
1193.0000	484.843
1193.5000	484.819
1194.0000	484.792
1194.5000	484.817
1195.0000	484.939
1195.5000	485.009
1196.0000	485.071
1196.5000	485.098
1197.0000	485.109
1197.5000	485.213
1198.0000	485.237
1198.5000	485.284
1199.0000	485.295
1199.5000	485.224
1200.0000	485.279
1200.5000	485.249
1201.0000	485.252
1201.5000	485.284
1202.0000	485.322
1202.5000	485.44
1203.0000	485.436
1203.5000	485.502
1204.0000	485.542
1204.5000	485.483
1205.0000	485.603
1205.5000	485.616
1206.0000	485.634
1206.5000	485.669
1207.0000	485.641
1207.5000	485.749
1208.0000	485.743
1208.5000	485.714
1209.0000	485.779
1209.5000	485.752
1210.0000	485.762
1210.5000	485.843
1211.0000	485.852
1211.5000	485.788
1212.0000	485.819
1212.5000	485.876
1213.0000	485.876
1213.5000	485.975
1214.0000	486.061
1214.5000	486.046
1215.0000	486.05
1215.5000	486.052
1216.0000	486.02
1216.5000	486.108
1217.0000	486.198
1217.5000	486.286
1218.0000	486.287
1218.5000	486.199
1219.0000	486.183
1219.5000	486.187
1220.0000	486.272
1220.5000	486.307
1221.0000	486.331
1221.5000	486.365
1222.0000	486.389
1222.5000	486.436
1223.0000	486.449
1223.5000	486.425
1224.0000	486.429
1224.5000	486.48
1225.0000	486.457
1225.5000	486.543
1226.0000	486.526
1226.5000	486.644
1227.0000	486.681
1227.5000	486.671
1228.0000	486.746
1228.5000	486.696
1229.0000	486.728
1229.5000	486.769
1230.0000	486.798
1230.5000	486.828
1231.0000	486.824
1231.5000	486.846
1232.0000	486.858
1232.5000	486.877
1233.0000	486.957
1233.5000	487.028
1234.0000	487.022
1234.5000	487.04
1235.0000	487.071
1235.5000	486.987
1236.0000	487.006
1236.5000	487.074
1237.0000	487.091
1237.5000	487.182
1238.0000	487.265
1238.5000	487.249
1239.0000	487.19
1239.5000	487.224
1240.0000	487.267
1240.5000	487.259
1241.0000	487.356
1241.5000	487.382
1242.0000	487.426
1242.5000	487.519
1243.0000	487.574
1243.5000	487.635
1244.0000	487.617
1244.5000	487.628
1245.0000	487.677
1245.5000	487.648
1246.0000	487.581
1246.5000	487.581
1247.0000	487.637
1247.5000	487.63
1248.0000	487.678
1248.5000	487.772
1249.0000	487.742
1249.5000	487.729
1250.0000	487.816
1250.5000	487.817
1251.0000	487.858
1251.5000	487.924
1252.0000	487.915
1252.5000	487.865
1253.0000	487.831
1253.5000	487.828
1254.0000	487.923
1254.5000	488.053
1255.0000	488.151
1255.5000	488.174
1256.0000	488.095
1256.5000	488.15
1257.0000	488.103
1257.5000	488.07
1258.0000	488.109
1258.5000	488.077
1259.0000	488.137
1259.5000	488.177
1260.0000	488.19
1260.5000	488.229
1261.0000	488.266
1261.5000	488.304
1262.0000	488.326
1262.5000	488.329
1263.0000	488.38
1263.5000	488.489
1264.0000	488.482
1264.5000	488.457
1265.0000	488.404
1265.5000	488.422
1266.0000	488.507
1266.5000	488.541
1267.0000	488.53
1267.5000	488.543
1268.0000	488.537
1268.5000	488.559
1269.0000	488.638
1269.5000	488.649
1270.0000	488.632
1270.5000	488.656
1271.0000	488.708
1271.5000	488.706
1272.0000	488.817
1272.5000	488.886
1273.0000	488.872
1273.5000	488.871
1274.0000	488.891
1274.5000	488.858
1275.0000	488.837
1275.5000	488.872
1276.0000	488.887
1276.5000	488.86
1277.0000	488.929
1277.5000	488.997
1278.0000	489.075
1278.5000	489.162
1279.0000	489.162
1279.5000	489.172
1280.0000	489.134
1280.5000	489.131
1281.0000	489.189
1281.5000	489.176
1282.0000	489.178
1282.5000	489.211
1283.0000	489.251
1283.5000	489.275
1284.0000	489.323
1284.5000	489.333
1285.0000	489.319
1285.5000	489.314
1286.0000	489.327
1286.5000	489.337
1287.0000	489.367
1287.5000	489.435
1288.0000	489.465
1288.5000	489.475
1289.0000	489.497
1289.5000	489.432
1290.0000	489.491
1290.5000	489.532
1291.0000	489.487
1291.5000	489.57
1292.0000	489.51
1292.5000	489.52
1293.0000	489.636
1293.5000	489.695
1294.0000	489.723
1294.5000	489.667
1295.0000	489.588
1295.5000	489.551
1296.0000	489.52
1296.5000	489.72
1297.0000	489.812
1297.5000	489.797
1298.0000	489.862
1298.5000	489.742
1299.0000	489.718
1299.5000	489.823
1300.0000	489.907
1300.5000	489.947
1301.0000	489.936
1301.5000	489.887
1302.0000	489.913
1302.5000	489.951
1303.0000	490.057
1303.5000	490.128
1304.0000	490.092
1304.5000	490.104
1305.0000	490.122
1305.5000	490.098
1306.0000	490.085
1306.5000	490.109
1307.0000	490.138
1307.5000	490.167
1308.0000	490.237
1308.5000	490.235
1309.0000	490.191
1309.5000	490.184
1310.0000	490.193
1310.5000	490.24
1311.0000	490.244
1311.5000	490.353
1312.0000	490.383
1312.5000	490.418
1313.0000	490.466
1313.5000	490.438
1314.0000	490.439
1314.5000	490.386
1315.0000	490.384
1315.5000	490.437
1316.0000	490.473
1316.5000	490.522
1317.0000	490.596
1317.5000	490.554
1318.0000	490.477
1318.5000	490.448
1319.0000	490.456
1319.5000	490.504
1320.0000	490.537
1320.5000	490.621
1321.0000	490.588
1321.5000	490.632
1322.0000	490.66
1322.5000	490.614
1323.0000	490.709
1323.5000	490.665
1324.0000	490.66
1324.5000	490.764
1325.0000	490.71
1325.5000	490.72
1326.0000	490.749
1326.5000	490.726
1327.0000	490.725
1327.5000	490.734
1328.0000	490.789
1328.5000	490.824
1329.0000	490.834
1329.5000	490.902
1330.0000	490.904
1330.5000	490.894
1331.0000	490.933
1331.5000	490.975
1332.0000	490.949
1332.5000	490.954
1333.0000	491.01
1333.5000	490.981
1334.0000	491.091
1334.5000	491.1
1335.0000	491.055
1335.5000	491.081
1336.0000	491.024
1336.5000	491.004
1337.0000	491.012
1337.5000	490.997
1338.0000	491.007
1338.5000	491.129
1339.0000	491.165
1339.5000	491.127
1340.0000	491.174
1340.5000	491.157
1341.0000	491.197
1341.5000	491.276
1342.0000	491.275
1342.5000	491.273
1343.0000	491.262
1343.5000	491.342
1344.0000	491.388
1344.5000	491.397
1345.0000	491.393
1345.5000	491.344
1346.0000	491.307
1346.5000	491.419
1347.0000	491.497
1347.5000	491.47
1348.0000	491.543
1348.5000	491.483
1349.0000	491.463
1349.5000	491.526
1350.0000	491.563
1350.5000	491.54
1351.0000	491.498
1351.5000	491.536
1352.0000	491.506
1352.5000	491.542
1353.0000	491.623
1353.5000	491.529
1354.0000	491.552
1354.5000	491.535
1355.0000	491.564
1355.5000	491.65
1356.0000	491.694
1356.5000	491.8
1357.0000	491.753
1357.5000	491.756
1358.0000	491.757
1358.5000	491.675
1359.0000	491.673
1359.5000	491.783
1360.0000	491.723
1360.5000	491.784
1361.0000	491.903
1361.5000	491.86
1362.0000	491.985
1362.5000	491.971
1363.0000	491.87
1363.5000	491.953
1364.0000	491.884
1364.5000	491.929
1365.0000	492.022
1365.5000	491.955
1366.0000	492.001
1366.5000	492.008
1367.0000	492.039
1367.5000	492.089
1368.0000	492.131
1368.5000	492.196
1369.0000	492.191
1369.5000	492.193
1370.0000	492.168
1370.5000	492.116
1371.0000	492.056
1371.5000	491.995
1372.0000	491.967
1372.5000	491.943
1373.0000	492.002
1373.5000	492.039
1374.0000	492.053
1374.5000	492.072
1375.0000	492.082
1375.5000	492.066
1376.0000	492.115
1376.5000	492.152
1377.0000	492.141
1377.5000	492.202
1378.0000	492.228
1378.5000	492.208
1379.0000	492.273
1379.5000	492.308
1380.0000	492.302
1380.5000	492.375
1381.0000	492.304
1381.5000	492.28
1382.0000	492.261
1382.5000	492.305
1383.0000	492.305
1383.5000	492.265
1384.0000	492.308
1384.5000	492.263
1385.0000	492.393
1385.5000	492.496
1386.0000	492.537
1386.5000	492.575
1387.0000	492.491
1387.5000	492.418
1388.0000	492.403
1388.5000	492.376
1389.0000	492.394
1389.5000	492.474
1390.0000	492.439
1390.5000	492.465
1391.0000	492.457
1391.5000	492.472
1392.0000	492.486
1392.5000	492.46
1393.0000	492.522
1393.5000	492.555
1394.0000	492.562
1394.5000	492.607
1395.0000	492.622
1395.5000	492.53
1396.0000	492.508
1396.5000	492.547
1397.0000	492.466
1397.5000	492.548
1398.0000	492.584
1398.5000	492.575
1399.0000	492.644
1399.5000	492.574
1400.0000	492.607
1400.5000	492.584
1401.0000	492.621
1401.5000	492.672
1402.0000	492.716
1402.5000	492.775
1403.0000	492.732
1403.5000	492.734
1404.0000	492.711
1404.5000	492.671
1405.0000	492.741
1405.5000	492.743
1406.0000	492.703
1406.5000	492.777
1407.0000	492.709
1407.5000	492.781
1408.0000	492.889
1408.5000	492.828
1409.0000	492.916
1409.5000	492.873
1410.0000	492.828
1410.5000	492.809
1411.0000	492.735
1411.5000	492.74
1412.0000	492.738
1412.5000	492.812
1413.0000	492.948
1413.5000	492.943
1414.0000	492.98
1414.5000	492.993
1415.0000	492.903
1415.5000	492.917
1416.0000	492.889
1416.5000	492.893
1417.0000	492.963
1417.5000	492.958
1418.0000	492.963
1418.5000	492.983
1419.0000	492.98
1419.5000	493.033
1420.0000	493.064
1420.5000	493.03
1421.0000	493.041
1421.5000	493.069
1422.0000	493.109
1422.5000	493.054
1423.0000	493
1423.5000	492.874
1424.0000	492.868
1424.5000	492.944
1425.0000	493.081
1425.5000	493.222
1426.0000	493.188
1426.5000	493.199
1427.0000	493.138
1427.5000	493.084
1428.0000	493.161
1428.5000	493.209
1429.0000	493.191
1429.5000	493.26
1430.0000	493.265
1430.5000	493.185
1431.0000	493.212
1431.5000	493.17
1432.0000	493.142
1432.5000	493.152
1433.0000	493.117
1433.5000	493.107
1434.0000	493.152
1434.5000	493.212
1435.0000	493.217
1435.5000	493.29
1436.0000	493.321
1436.5000	493.395
1437.0000	493.372
1437.5000	493.398
1438.0000	493.353
1438.5000	493.272
1439.0000	493.341
1439.5000	493.31
1440.0000	493.299
1440.5000	493.327
1441.0000	493.36
1441.5000	493.407
1442.0000	493.418
1442.5000	493.383
1443.0000	493.405
1443.5000	493.351
1444.0000	493.37
1444.5000	493.505
1445.0000	493.505
1445.5000	493.479
1446.0000	493.495
1446.5000	493.462
1447.0000	493.444
1447.5000	493.496
1448.0000	493.481
1448.5000	493.461
1449.0000	493.53
1449.5000	493.518
1450.0000	493.535
1450.5000	493.569
1451.0000	493.539
1451.5000	493.561
1452.0000	493.553
1452.5000	493.529
1453.0000	493.506
1453.5000	493.532
1454.0000	493.583
1454.5000	493.579
1455.0000	493.593
1455.5000	493.581
1456.0000	493.601
1456.5000	493.636
1457.0000	493.663
1457.5000	493.672
1458.0000	493.646
1458.5000	493.644
1459.0000	493.653
1459.5000	493.674
1460.0000	493.68
1460.5000	493.69
1461.0000	493.691
1461.5000	493.67
1462.0000	493.724
1462.5000	493.747
1463.0000	493.784
1463.5000	493.899
1464.0000	493.867
1464.5000	493.888
1465.0000	493.908
1465.5000	493.798
1466.0000	493.887
1466.5000	493.895
1467.0000	493.883
1467.5000	493.862
1468.0000	493.88
1468.5000	493.902
1469.0000	493.861
1469.5000	494.026
1470.0000	493.926
1470.5000	493.872
1471.0000	493.913
1471.5000	493.824
1472.0000	493.864
1472.5000	493.857
1473.0000	493.863
1473.5000	493.837
1474.0000	493.843
1474.5000	493.87
1475.0000	493.822
1475.5000	493.805
1476.0000	493.8
1476.5000	493.804
1477.0000	493.911
1477.5000	493.95
1478.0000	493.95
1478.5000	493.985
1479.0000	493.912
1479.5000	493.928
1480.0000	494.011
1480.5000	493.99
1481.0000	494.081
1481.5000	494.163
1482.0000	494.124
1482.5000	494.125
1483.0000	494.067
1483.5000	493.991
1484.0000	494.06
1484.5000	493.996
1485.0000	494.037
1485.5000	494.071
1486.0000	494.005
1486.5000	494.044
1487.0000	493.96
1487.5000	493.972
1488.0000	493.945
1488.5000	494.016
1489.0000	494.055
1489.5000	494.025
1490.0000	494.047
1490.5000	493.967
1491.0000	493.937
1491.5000	494.007
1492.0000	494.005
1492.5000	494.144
1493.0000	494.232
1493.5000	494.209
1494.0000	494.254
1494.5000	494.238
1495.0000	494.143
1495.5000	494.118
1496.0000	494.121
1496.5000	494.094
1497.0000	494.147
1497.5000	494.138
1498.0000	494.106
1498.5000	494.045
1499.0000	494.047
1499.5000	494.07
1500.0000	494.053
1500.5000	494.123
1501.0000	494.114
1501.5000	494.104
1502.0000	494.185
1502.5000	494.148
1503.0000	494.243
1503.5000	494.292
1504.0000	494.215
1504.5000	494.289
1505.0000	494.318
1505.5000	494.29
1506.0000	494.264
1506.5000	494.19
1507.0000	494.106
1507.5000	494.07
1508.0000	494.034
1508.5000	494.069
1509.0000	494.048
1509.5000	494.084
1510.0000	494.219
1510.5000	494.209
1511.0000	494.24
1511.5000	494.285
1512.0000	494.223
1512.5000	494.253
1513.0000	494.252
1513.5000	494.2
1514.0000	494.173
1514.5000	494.063
1515.0000	494.043
1515.5000	494.045
1516.0000	494.093
1516.5000	494.226
1517.0000	494.247
1517.5000	494.306
1518.0000	494.323
1518.5000	494.21
1519.0000	494.23
1519.5000	494.207
1520.0000	494.161
1520.5000	494.275
1521.0000	494.282
1521.5000	494.247
1522.0000	494.28
1522.5000	494.228
1523.0000	494.253
1523.5000	494.303
1524.0000	494.281
1524.5000	494.339
1525.0000	494.264
1525.5000	494.28
1526.0000	494.281
1526.5000	494.194
1527.0000	494.229
1527.5000	494.122
1528.0000	494.098
1528.5000	494.055
1529.0000	494.079
1529.5000	494.218
1530.0000	494.252
1530.5000	494.343
1531.0000	494.293
1531.5000	494.27
1532.0000	494.224
1532.5000	494.257
1533.0000	494.348
1533.5000	494.28
1534.0000	494.361
1534.5000	494.289
1535.0000	494.189
1535.5000	494.143
1536.0000	494.109
1536.5000	494.065
1537.0000	494.094
1537.5000	494.242
1538.0000	494.256
1538.5000	494.315
1539.0000	494.384
1539.5000	494.287
1540.0000	494.284
1540.5000	494.267
1541.0000	494.217
1541.5000	494.29
1542.0000	494.26
1542.5000	494.269
1543.0000	494.227
1543.5000	494.212
1544.0000	494.251
1544.5000	494.315
1545.0000	494.302
1545.5000	494.252
1546.0000	494.203
1546.5000	494.219
1547.0000	494.268
1547.5000	494.233
1548.0000	494.275
1548.5000	494.219
1549.0000	494.22
1549.5000	494.308
1550.0000	494.343
1550.5000	494.317
1551.0000	494.36
1551.5000	494.313
1552.0000	494.23
1552.5000	494.218
1553.0000	494.181
1553.5000	494.186
1554.0000	494.27
1554.5000	494.333
1555.0000	494.353
1555.5000	494.319
1556.0000	494.309
1556.5000	494.277
1557.0000	494.27
1557.5000	494.311
1558.0000	494.249
1558.5000	494.345
1559.0000	494.301
1559.5000	494.263
1560.0000	494.347
1560.5000	494.277
1561.0000	494.266
1561.5000	494.36
1562.0000	494.313
1562.5000	494.227
1563.0000	494.215
1563.5000	494.21
1564.0000	494.219
1564.5000	494.263
1565.0000	494.202
1565.5000	494.167
1566.0000	494.134
1566.5000	494.118
1567.0000	494.154
1567.5000	494.102
1568.0000	494.158
1568.5000	494.208
1569.0000	494.254
1569.5000	494.299
1570.0000	494.188
1570.5000	494.171
