TITLE	
DATA TYPE	
ORIGIN	JASCO
OWNER	
DATE	22/08/25
TIME	13:20:50
SPECTROMETER/DATA SYSTEM	
RESOLUTION	
DELTAX	0.5
XUNITS	SEC
YUNITS	INTENSITY
FIRSTX	0.0000
LASTX	1579.0000
NPOINTS	3159
FIRSTY	376.96857
MAXY	552.53876
MINY	-81.11872
XYDATA
0.0000	376.969
0.5000	376.978
1.0000	376.96
1.5000	376.975
2.0000	376.919
2.5000	376.846
3.0000	376.805
3.5000	376.768
4.0000	376.738
4.5000	376.72
5.0000	376.668
5.5000	376.615
6.0000	376.564
6.5000	376.621
7.0000	376.66
7.5000	376.65
8.0000	376.62
8.5000	376.542
9.0000	376.511
9.5000	376.553
10.0000	376.602
10.5000	376.616
11.0000	376.564
11.5000	376.565
12.0000	376.575
12.5000	376.55
13.0000	376.579
13.5000	376.522
14.0000	376.496
14.5000	376.422
15.0000	376.42
15.5000	376.402
16.0000	376.401
16.5000	376.407
17.0000	376.369
17.5000	376.292
18.0000	376.248
18.5000	376.298
19.0000	375.304
19.5000	365.961
20.0000	349.906
20.5000	302.56
21.0000	-81.1187
21.5000	-41.6863
22.0000	-32.6293
22.5000	-30.1542
23.0000	-28.9587
23.5000	-28.4946
24.0000	-28.0246
24.5000	-27.8076
25.0000	-27.4682
25.5000	-27.1639
26.0000	-26.7941
26.5000	174.952
27.0000	292.527
27.5000	293.318
28.0000	293.399
28.5000	284.216
29.0000	278.571
29.5000	278.479
30.0000	278.619
30.5000	278.797
31.0000	279.073
31.5000	279.393
32.0000	279.7
32.5000	280.033
33.0000	280.374
33.5000	280.677
34.0000	281.033
34.5000	281.356
35.0000	281.706
35.5000	282.068
36.0000	282.415
36.5000	282.761
37.0000	283.078
37.5000	283.428
38.0000	283.745
38.5000	284.04
39.0000	284.405
39.5000	284.726
40.0000	285.099
40.5000	285.449
41.0000	285.75
41.5000	286.084
42.0000	286.397
42.5000	286.818
43.0000	287.207
43.5000	287.578
44.0000	287.952
44.5000	288.266
45.0000	288.6
45.5000	288.979
46.0000	289.342
46.5000	289.673
47.0000	290.046
47.5000	290.374
48.0000	290.701
48.5000	291.089
49.0000	291.422
49.5000	291.729
50.0000	292.074
50.5000	292.377
51.0000	292.737
51.5000	293.156
52.0000	293.506
52.5000	293.867
53.0000	294.254
53.5000	294.564
54.0000	294.918
54.5000	295.291
55.0000	295.577
55.5000	295.906
56.0000	296.255
56.5000	296.608
57.0000	297.011
57.5000	297.372
58.0000	297.766
58.5000	298.164
59.0000	298.5
59.5000	298.9
60.0000	299.166
60.5000	299.471
61.0000	299.851
61.5000	300.205
62.0000	300.633
62.5000	300.997
63.0000	301.329
63.5000	301.672
64.0000	301.982
64.5000	302.349
65.0000	302.694
65.5000	303.017
66.0000	303.399
66.5000	303.739
67.0000	304.103
67.5000	304.473
68.0000	304.786
68.5000	305.101
69.0000	305.463
69.5000	305.875
70.0000	306.288
70.5000	306.681
71.0000	307.008
71.5000	307.338
72.0000	307.697
72.5000	308.041
73.0000	308.404
73.5000	308.72
74.0000	309.023
74.5000	309.407
75.0000	309.722
75.5000	310.081
76.0000	310.453
76.5000	310.742
77.0000	311.14
77.5000	311.466
78.0000	311.799
78.5000	312.168
79.0000	312.505
79.5000	312.9
80.0000	313.254
80.5000	313.6
81.0000	313.939
81.5000	314.301
82.0000	314.647
82.5000	315.02
83.0000	315.366
83.5000	315.649
84.0000	316.004
84.5000	316.344
85.0000	316.699
85.5000	317.067
86.0000	317.401
86.5000	317.743
87.0000	318.122
87.5000	318.444
88.0000	318.817
88.5000	319.16
89.0000	319.428
89.5000	319.755
90.0000	320.071
90.5000	320.411
91.0000	320.769
91.5000	321.173
92.0000	321.488
92.5000	321.835
93.0000	322.202
93.5000	322.511
94.0000	322.861
94.5000	323.211
95.0000	323.588
95.5000	323.937
96.0000	324.332
96.5000	324.603
97.0000	324.949
97.5000	325.333
98.0000	325.654
98.5000	326.051
99.0000	326.297
99.5000	326.597
100.0000	326.917
100.5000	327.265
101.0000	327.664
101.5000	328.015
102.0000	328.33
102.5000	328.656
103.0000	328.965
103.5000	329.31
104.0000	329.667
104.5000	329.99
105.0000	330.389
105.5000	330.705
106.0000	331.006
106.5000	331.379
107.0000	331.665
107.5000	332.028
108.0000	332.453
108.5000	332.813
109.0000	333.167
109.5000	333.514
110.0000	333.818
110.5000	334.1
111.0000	334.468
111.5000	334.778
112.0000	335.051
112.5000	335.397
113.0000	335.722
113.5000	336.012
114.0000	336.382
114.5000	336.696
115.0000	337.019
115.5000	337.395
116.0000	337.707
116.5000	338.043
117.0000	338.319
117.5000	338.636
118.0000	338.966
118.5000	339.287
119.0000	339.616
119.5000	339.941
120.0000	340.246
120.5000	340.601
121.0000	340.929
121.5000	341.21
122.0000	341.567
122.5000	341.908
123.0000	342.261
123.5000	342.613
124.0000	342.924
124.5000	343.236
125.0000	343.516
125.5000	343.869
126.0000	344.211
126.5000	344.519
127.0000	344.85
127.5000	345.131
128.0000	345.448
128.5000	345.748
129.0000	346.088
129.5000	346.414
130.0000	346.72
130.5000	347.039
131.0000	347.325
131.5000	347.678
132.0000	348.003
132.5000	348.293
133.0000	348.61
133.5000	348.864
134.0000	349.124
134.5000	349.45
135.0000	349.755
135.5000	350.074
136.0000	350.394
136.5000	350.694
137.0000	350.984
137.5000	351.303
138.0000	351.64
138.5000	351.999
139.0000	352.366
139.5000	352.622
140.0000	352.892
140.5000	353.154
141.0000	353.413
141.5000	353.754
142.0000	354.142
142.5000	354.423
143.0000	354.745
143.5000	355.098
144.0000	355.376
144.5000	355.663
145.0000	355.937
145.5000	356.171
146.0000	356.459
146.5000	356.819
147.0000	357.144
147.5000	357.474
148.0000	357.777
148.5000	358.083
149.0000	358.34
149.5000	358.61
150.0000	358.904
150.5000	359.14
151.0000	359.507
151.5000	359.821
152.0000	360.065
152.5000	360.374
153.0000	360.628
153.5000	360.947
154.0000	361.2
154.5000	361.513
155.0000	361.86
155.5000	362.153
156.0000	362.494
156.5000	362.804
157.0000	363.047
157.5000	363.322
158.0000	363.648
158.5000	363.832
159.0000	364.095
159.5000	364.383
160.0000	364.736
160.5000	365.112
161.0000	365.432
161.5000	365.703
162.0000	365.937
162.5000	366.226
163.0000	366.505
163.5000	366.805
164.0000	367.026
164.5000	367.36
165.0000	367.672
165.5000	367.938
166.0000	368.298
166.5000	368.487
167.0000	368.714
167.5000	368.965
168.0000	369.187
168.5000	369.468
169.0000	369.758
169.5000	370.071
170.0000	370.367
170.5000	370.616
171.0000	370.904
171.5000	371.131
172.0000	371.387
172.5000	371.733
173.0000	371.981
173.5000	372.27
174.0000	372.521
174.5000	372.763
175.0000	373.031
175.5000	373.317
176.0000	373.571
176.5000	373.83
177.0000	374.112
177.5000	374.399
178.0000	374.709
178.5000	374.942
179.0000	375.174
179.5000	375.435
180.0000	375.671
180.5000	375.994
181.0000	376.306
181.5000	376.526
182.0000	376.839
182.5000	377.127
183.0000	377.354
183.5000	377.669
184.0000	377.924
184.5000	378.134
185.0000	378.417
185.5000	378.667
186.0000	378.904
186.5000	379.181
187.0000	379.414
187.5000	379.673
188.0000	379.942
188.5000	380.172
189.0000	380.428
189.5000	380.683
190.0000	380.932
190.5000	381.218
191.0000	381.507
191.5000	381.716
192.0000	381.956
192.5000	382.18
193.0000	382.435
193.5000	382.713
194.0000	382.934
194.5000	383.208
195.0000	383.432
195.5000	383.653
196.0000	383.923
196.5000	384.157
197.0000	384.421
197.5000	384.696
198.0000	384.957
198.5000	385.186
199.0000	385.417
199.5000	385.657
200.0000	385.913
200.5000	386.138
201.0000	386.411
201.5000	386.606
202.0000	386.827
202.5000	387.117
203.0000	387.34
203.5000	387.613
204.0000	387.89
204.5000	388.075
205.0000	388.3
205.5000	388.601
206.0000	388.76
206.5000	389.034
207.0000	389.275
207.5000	389.482
208.0000	389.768
208.5000	389.962
209.0000	390.2
209.5000	390.407
210.0000	390.642
210.5000	390.874
211.0000	391.099
211.5000	391.328
212.0000	391.509
212.5000	391.767
213.0000	391.987
213.5000	392.232
214.0000	392.51
214.5000	392.731
215.0000	392.967
215.5000	393.108
216.0000	393.333
216.5000	393.598
217.0000	393.846
217.5000	394.205
218.0000	394.463
218.5000	394.698
219.0000	394.86
219.5000	395.026
220.0000	395.242
220.5000	395.401
221.0000	395.677
221.5000	395.926
222.0000	396.149
222.5000	396.416
223.0000	396.634
223.5000	396.832
224.0000	397.055
224.5000	397.252
225.0000	397.476
225.5000	397.7
226.0000	397.904
226.5000	398.14
227.0000	398.323
227.5000	398.623
228.0000	398.82
228.5000	399.096
229.0000	399.346
229.5000	399.485
230.0000	399.741
230.5000	399.938
231.0000	400.136
231.5000	400.355
232.0000	400.586
232.5000	400.746
233.0000	400.999
233.5000	401.195
234.0000	401.343
234.5000	401.599
235.0000	401.827
235.5000	402.012
236.0000	402.223
236.5000	402.433
237.0000	402.628
237.5000	402.883
238.0000	403.149
238.5000	403.331
239.0000	403.573
239.5000	403.79
240.0000	403.953
240.5000	404.12
241.0000	404.279
241.5000	404.463
242.0000	404.654
242.5000	404.955
243.0000	405.153
243.5000	405.383
244.0000	405.655
244.5000	405.77
245.0000	406
245.5000	406.196
246.0000	406.376
246.5000	406.639
247.0000	406.812
247.5000	406.938
248.0000	407.078
248.5000	407.296
249.0000	407.467
249.5000	407.764
250.0000	408.027
250.5000	408.184
251.0000	408.445
251.5000	408.607
252.0000	408.797
252.5000	408.989
253.0000	409.095
253.5000	409.331
254.0000	409.54
254.5000	409.74
255.0000	410.006
255.5000	410.123
256.0000	410.299
256.5000	410.471
257.0000	410.651
257.5000	410.84
258.0000	411.052
258.5000	411.228
259.0000	411.39
259.5000	411.65
260.0000	411.782
260.5000	412.017
261.0000	412.275
261.5000	412.471
262.0000	412.694
262.5000	412.888
263.0000	413.046
263.5000	413.196
264.0000	413.418
264.5000	413.544
265.0000	413.769
265.5000	414.029
266.0000	414.205
266.5000	414.481
267.0000	414.584
267.5000	414.756
268.0000	414.972
268.5000	415.083
269.0000	415.27
269.5000	415.446
270.0000	415.527
270.5000	415.699
271.0000	415.892
271.5000	416.069
272.0000	416.328
272.5000	416.553
273.0000	416.778
273.5000	416.915
274.0000	417.051
274.5000	417.255
275.0000	417.373
275.5000	417.581
276.0000	417.782
276.5000	417.888
277.0000	418.083
277.5000	418.195
278.0000	418.355
278.5000	418.549
279.0000	418.771
279.5000	418.932
280.0000	419.096
280.5000	419.274
281.0000	419.451
281.5000	419.704
282.0000	419.886
282.5000	420.08
283.0000	420.248
283.5000	420.378
284.0000	420.526
284.5000	420.741
285.0000	420.876
285.5000	421.094
286.0000	421.347
286.5000	421.483
287.0000	421.623
287.5000	421.773
288.0000	421.9
288.5000	422.061
289.0000	422.263
289.5000	422.429
290.0000	422.535
290.5000	422.716
291.0000	422.91
291.5000	423.065
292.0000	423.298
292.5000	423.432
293.0000	423.626
293.5000	423.806
294.0000	423.897
294.5000	424.023
295.0000	424.116
295.5000	424.284
296.0000	424.528
296.5000	424.716
297.0000	424.871
297.5000	425.016
298.0000	425.166
298.5000	425.325
299.0000	425.488
299.5000	425.631
300.0000	425.735
300.5000	425.902
301.0000	426.077
301.5000	426.281
302.0000	426.463
302.5000	426.669
303.0000	426.814
303.5000	426.947
304.0000	427.112
304.5000	427.221
305.0000	427.364
305.5000	427.509
306.0000	427.693
306.5000	427.935
307.0000	428.137
307.5000	428.368
308.0000	428.449
308.5000	428.543
309.0000	428.694
309.5000	428.827
310.0000	429.052
310.5000	429.248
311.0000	429.405
311.5000	429.527
312.0000	429.681
312.5000	429.83
313.0000	429.987
313.5000	430.173
314.0000	430.389
314.5000	430.591
315.0000	430.734
315.5000	430.862
316.0000	430.937
316.5000	431.01
317.0000	431.162
317.5000	431.304
318.0000	431.464
318.5000	431.659
319.0000	431.819
319.5000	431.968
320.0000	432.086
320.5000	432.188
321.0000	432.353
321.5000	432.449
322.0000	432.649
322.5000	432.788
323.0000	432.96
323.5000	433.166
324.0000	433.276
324.5000	433.434
325.0000	433.545
325.5000	433.662
326.0000	433.824
326.5000	434.033
327.0000	434.168
327.5000	434.308
328.0000	434.474
328.5000	434.535
329.0000	434.672
329.5000	434.862
330.0000	435.014
330.5000	435.215
331.0000	435.335
331.5000	435.39
332.0000	435.505
332.5000	435.634
333.0000	435.815
333.5000	436.057
334.0000	436.199
334.5000	436.258
335.0000	436.417
335.5000	436.527
336.0000	436.657
336.5000	436.82
337.0000	436.97
337.5000	437.137
338.0000	437.254
338.5000	437.433
339.0000	437.501
339.5000	437.588
340.0000	437.747
340.5000	437.868
341.0000	438.076
341.5000	438.188
342.0000	438.366
342.5000	438.537
343.0000	438.573
343.5000	438.793
344.0000	438.905
344.5000	439.042
345.0000	439.257
345.5000	439.405
346.0000	439.556
346.5000	439.681
347.0000	439.872
347.5000	439.962
348.0000	440.118
348.5000	440.292
349.0000	440.351
349.5000	440.513
350.0000	440.573
350.5000	440.726
351.0000	440.94
351.5000	441.035
352.0000	441.208
352.5000	441.237
353.0000	441.286
353.5000	441.471
354.0000	441.628
354.5000	441.796
355.0000	442.004
355.5000	442.105
356.0000	442.148
356.5000	442.271
357.0000	442.373
357.5000	442.502
358.0000	442.736
358.5000	442.914
359.0000	443.054
359.5000	443.221
360.0000	443.368
360.5000	443.478
361.0000	443.582
361.5000	443.651
362.0000	443.724
362.5000	443.893
363.0000	444.029
363.5000	444.193
364.0000	444.374
364.5000	444.43
365.0000	444.516
365.5000	444.651
366.0000	444.773
366.5000	444.947
367.0000	445.098
367.5000	445.181
368.0000	445.257
368.5000	445.343
369.0000	445.46
369.5000	445.62
370.0000	445.79
370.5000	445.991
371.0000	446.135
371.5000	446.277
372.0000	446.35
372.5000	446.422
373.0000	446.537
373.5000	446.677
374.0000	446.804
374.5000	446.921
375.0000	447.041
375.5000	447.129
376.0000	447.23
376.5000	447.321
377.0000	447.527
377.5000	447.606
378.0000	447.781
378.5000	447.924
379.0000	448.014
379.5000	448.159
380.0000	448.266
380.5000	448.439
381.0000	448.532
381.5000	448.666
382.0000	448.784
382.5000	448.938
383.0000	449.055
383.5000	449.131
384.0000	449.224
384.5000	449.307
385.0000	449.447
385.5000	449.671
386.0000	449.788
386.5000	449.934
387.0000	450.068
387.5000	450.131
388.0000	450.289
388.5000	450.338
389.0000	450.407
389.5000	450.575
390.0000	450.767
390.5000	450.921
391.0000	451.013
391.5000	451.096
392.0000	451.189
392.5000	451.286
393.0000	451.433
393.5000	451.55
394.0000	451.603
394.5000	451.737
395.0000	451.824
395.5000	451.912
396.0000	451.979
396.5000	452.029
397.0000	452.129
397.5000	452.31
398.0000	452.476
398.5000	452.638
399.0000	452.827
399.5000	452.862
400.0000	452.943
400.5000	453.015
401.0000	453.104
401.5000	453.281
402.0000	453.431
402.5000	453.609
403.0000	453.713
403.5000	453.82
404.0000	453.977
404.5000	454.072
405.0000	454.203
405.5000	454.282
406.0000	454.345
406.5000	454.457
407.0000	454.516
407.5000	454.62
408.0000	454.705
408.5000	454.884
409.0000	454.995
409.5000	455.137
410.0000	455.31
410.5000	455.339
411.0000	455.52
411.5000	455.574
412.0000	455.727
412.5000	455.879
413.0000	455.932
413.5000	456.055
414.0000	456.115
414.5000	456.238
415.0000	456.388
415.5000	456.54
416.0000	456.627
416.5000	456.702
417.0000	456.792
417.5000	456.913
418.0000	457.028
418.5000	457.101
419.0000	457.205
419.5000	457.244
420.0000	457.316
420.5000	457.379
421.0000	457.431
421.5000	457.569
422.0000	457.695
422.5000	457.841
423.0000	457.949
423.5000	458.004
424.0000	458.116
424.5000	458.258
425.0000	458.484
425.5000	458.677
426.0000	458.842
426.5000	458.906
427.0000	458.998
427.5000	459.042
428.0000	459.12
428.5000	459.239
429.0000	459.284
429.5000	459.402
430.0000	459.469
430.5000	459.56
431.0000	459.701
431.5000	459.861
432.0000	460.007
432.5000	460.123
433.0000	460.215
433.5000	460.322
434.0000	460.371
434.5000	460.515
435.0000	460.617
435.5000	460.678
436.0000	460.871
436.5000	460.924
437.0000	461.006
437.5000	461.179
438.0000	461.168
438.5000	461.395
439.0000	461.552
439.5000	461.541
440.0000	461.727
440.5000	461.722
441.0000	461.763
441.5000	461.812
442.0000	461.907
442.5000	462.037
443.0000	462.146
443.5000	462.401
444.0000	462.446
444.5000	462.556
445.0000	462.695
445.5000	462.748
446.0000	462.948
446.5000	462.991
447.0000	463.056
447.5000	463.139
448.0000	463.168
448.5000	463.329
449.0000	463.437
449.5000	463.566
450.0000	463.645
450.5000	463.707
451.0000	463.739
451.5000	463.762
452.0000	463.878
452.5000	463.932
453.0000	464.096
453.5000	464.278
454.0000	464.366
454.5000	464.483
455.0000	464.57
455.5000	464.623
456.0000	464.694
456.5000	464.75
457.0000	464.88
457.5000	464.979
458.0000	465.069
458.5000	465.222
459.0000	465.263
459.5000	465.359
460.0000	465.479
460.5000	465.56
461.0000	465.634
461.5000	465.752
462.0000	465.803
462.5000	465.886
463.0000	466.001
463.5000	466.052
464.0000	466.233
464.5000	466.352
465.0000	466.427
465.5000	466.54
466.0000	466.622
466.5000	466.72
467.0000	466.799
467.5000	466.872
468.0000	466.943
468.5000	467.032
469.0000	467.21
469.5000	467.287
470.0000	467.241
470.5000	467.292
471.0000	467.351
471.5000	467.464
472.0000	467.59
472.5000	467.671
473.0000	467.78
473.5000	467.82
474.0000	467.963
474.5000	468.066
475.0000	468.126
475.5000	468.218
476.0000	468.325
476.5000	468.453
477.0000	468.516
477.5000	468.63
478.0000	468.733
478.5000	468.83
479.0000	468.979
479.5000	469.144
480.0000	469.161
480.5000	469.241
481.0000	469.293
481.5000	469.304
482.0000	469.451
482.5000	469.489
483.0000	469.538
483.5000	469.653
484.0000	469.778
484.5000	469.885
485.0000	470.046
485.5000	470.149
486.0000	470.187
486.5000	470.302
487.0000	470.325
487.5000	470.371
488.0000	470.43
488.5000	470.464
489.0000	470.577
489.5000	470.687
490.0000	470.741
490.5000	470.864
491.0000	470.996
491.5000	471.012
492.0000	471.159
492.5000	471.27
493.0000	471.287
493.5000	471.464
494.0000	471.54
494.5000	471.584
495.0000	471.6
495.5000	471.604
496.0000	471.674
496.5000	471.83
497.0000	471.987
497.5000	472.081
498.0000	472.183
498.5000	472.154
499.0000	472.182
499.5000	472.274
500.0000	472.433
500.5000	472.597
501.0000	472.753
501.5000	472.83
502.0000	472.892
502.5000	472.979
503.0000	473.069
503.5000	473.204
504.0000	473.271
504.5000	473.301
505.0000	473.304
505.5000	473.355
506.0000	473.394
506.5000	473.455
507.0000	473.588
507.5000	473.696
508.0000	473.779
508.5000	473.918
509.0000	474.022
509.5000	474.11
510.0000	474.181
510.5000	474.204
511.0000	474.301
511.5000	474.416
512.0000	474.499
512.5000	474.644
513.0000	474.678
513.5000	474.7
514.0000	474.794
514.5000	474.813
515.0000	474.824
515.5000	474.859
516.0000	474.945
516.5000	475.089
517.0000	475.202
517.5000	475.308
518.0000	475.48
518.5000	475.495
519.0000	475.593
519.5000	475.692
520.0000	475.693
520.5000	475.779
521.0000	475.855
521.5000	475.893
522.0000	475.866
522.5000	475.936
523.0000	476.008
523.5000	476.062
524.0000	476.19
524.5000	476.23
525.0000	476.318
525.5000	476.409
526.0000	476.494
526.5000	476.598
527.0000	476.684
527.5000	476.753
528.0000	476.843
528.5000	476.936
529.0000	476.981
529.5000	477.023
530.0000	477.093
530.5000	477.155
531.0000	477.189
531.5000	477.264
532.0000	477.302
532.5000	477.378
533.0000	477.495
533.5000	477.621
534.0000	477.741
534.5000	477.948
535.0000	478.026
535.5000	478.079
536.0000	478.182
536.5000	478.185
537.0000	478.258
537.5000	478.351
538.0000	478.351
538.5000	478.372
539.0000	478.454
539.5000	478.481
540.0000	478.516
540.5000	478.58
541.0000	478.586
541.5000	478.729
542.0000	478.865
542.5000	478.889
543.0000	478.988
543.5000	478.991
544.0000	479.062
544.5000	479.129
545.0000	479.207
545.5000	479.305
546.0000	479.414
546.5000	479.489
547.0000	479.614
547.5000	479.68
548.0000	479.7
548.5000	479.815
549.0000	479.875
549.5000	479.998
550.0000	480.115
550.5000	480.242
551.0000	480.219
551.5000	480.236
552.0000	480.276
552.5000	480.303
553.0000	480.493
553.5000	480.547
554.0000	480.624
554.5000	480.708
555.0000	480.769
555.5000	480.864
556.0000	480.936
556.5000	480.943
557.0000	481.004
557.5000	481.057
558.0000	481.107
558.5000	481.22
559.0000	481.26
559.5000	481.288
560.0000	481.317
560.5000	481.365
561.0000	481.46
561.5000	481.568
562.0000	481.633
562.5000	481.733
563.0000	481.708
563.5000	481.681
564.0000	481.74
564.5000	481.754
565.0000	481.896
565.5000	482.045
566.0000	482.22
566.5000	482.295
567.0000	482.3
567.5000	482.369
568.0000	482.427
568.5000	482.525
569.0000	482.599
569.5000	482.685
570.0000	482.677
570.5000	482.71
571.0000	482.752
571.5000	482.772
572.0000	482.873
572.5000	482.93
573.0000	483.027
573.5000	483.142
574.0000	483.24
574.5000	483.338
575.0000	483.419
575.5000	483.463
576.0000	483.457
576.5000	483.491
577.0000	483.523
577.5000	483.603
578.0000	483.705
578.5000	483.817
579.0000	483.947
579.5000	484.015
580.0000	484.049
580.5000	484.05
581.0000	484.045
581.5000	484.117
582.0000	484.134
582.5000	484.208
583.0000	484.352
583.5000	484.421
584.0000	484.505
584.5000	484.566
585.0000	484.596
585.5000	484.675
586.0000	484.799
586.5000	484.901
587.0000	484.861
587.5000	484.847
588.0000	484.883
588.5000	484.949
589.0000	485.145
589.5000	485.257
590.0000	485.292
590.5000	485.313
591.0000	485.334
591.5000	485.408
592.0000	485.481
592.5000	485.59
593.0000	485.623
593.5000	485.645
594.0000	485.688
594.5000	485.709
595.0000	485.787
595.5000	485.866
596.0000	485.956
596.5000	486
597.0000	486.06
597.5000	486.081
598.0000	486.117
598.5000	486.152
599.0000	486.169
599.5000	486.324
600.0000	486.401
600.5000	486.507
601.0000	486.559
601.5000	486.579
602.0000	486.62
602.5000	486.657
603.0000	486.76
603.5000	486.791
604.0000	486.877
604.5000	486.94
605.0000	487.034
605.5000	487.116
606.0000	487.154
606.5000	487.256
607.0000	487.258
607.5000	487.252
608.0000	487.33
608.5000	487.373
609.0000	487.457
609.5000	487.522
610.0000	487.556
610.5000	487.584
611.0000	487.659
611.5000	487.756
612.0000	487.848
612.5000	487.932
613.0000	487.962
613.5000	487.961
614.0000	488.006
614.5000	487.982
615.0000	488.051
615.5000	488.131
616.0000	488.148
616.5000	488.215
617.0000	488.293
617.5000	488.337
618.0000	488.422
618.5000	488.507
619.0000	488.474
619.5000	488.558
620.0000	488.558
620.5000	488.617
621.0000	488.745
621.5000	488.771
622.0000	488.779
622.5000	488.849
623.0000	488.906
623.5000	488.902
624.0000	489.051
624.5000	489.103
625.0000	489.126
625.5000	489.214
626.0000	489.219
626.5000	489.245
627.0000	489.296
627.5000	489.337
628.0000	489.452
628.5000	489.508
629.0000	489.573
629.5000	489.652
630.0000	489.619
630.5000	489.698
631.0000	489.695
631.5000	489.748
632.0000	489.89
632.5000	489.935
633.0000	490.006
633.5000	490.111
634.0000	490.154
634.5000	490.215
635.0000	490.365
635.5000	490.386
636.0000	490.424
636.5000	490.441
637.0000	490.441
637.5000	490.419
638.0000	490.489
638.5000	490.606
639.0000	490.725
639.5000	490.841
640.0000	490.943
640.5000	490.955
641.0000	490.918
641.5000	491.01
642.0000	490.936
642.5000	490.939
643.0000	490.944
643.5000	490.971
644.0000	491.107
644.5000	491.181
645.0000	491.317
645.5000	491.309
646.0000	491.327
646.5000	491.372
647.0000	491.384
647.5000	491.489
648.0000	491.549
648.5000	491.642
649.0000	491.651
649.5000	491.705
650.0000	491.74
650.5000	491.744
651.0000	491.77
651.5000	491.745
652.0000	491.795
652.5000	491.818
653.0000	491.908
653.5000	491.982
654.0000	492.031
654.5000	492.109
655.0000	492.174
655.5000	492.214
656.0000	492.301
656.5000	492.365
657.0000	492.375
657.5000	492.443
658.0000	492.448
658.5000	492.466
659.0000	492.532
659.5000	492.618
660.0000	492.616
660.5000	492.68
661.0000	492.73
661.5000	492.741
662.0000	492.754
662.5000	492.799
663.0000	492.798
663.5000	492.825
664.0000	492.989
664.5000	493.118
665.0000	493.189
665.5000	493.266
666.0000	493.2
666.5000	493.129
667.0000	493.237
667.5000	493.308
668.0000	493.371
668.5000	493.459
669.0000	493.465
669.5000	493.499
670.0000	493.612
670.5000	493.715
671.0000	493.787
671.5000	493.745
672.0000	493.757
672.5000	493.753
673.0000	493.799
673.5000	493.934
674.0000	494.02
674.5000	494.009
675.0000	494.043
675.5000	494.14
676.0000	494.19
676.5000	494.293
677.0000	494.385
677.5000	494.424
678.0000	494.389
678.5000	494.44
679.0000	494.429
679.5000	494.455
680.0000	494.576
680.5000	494.643
681.0000	494.73
681.5000	494.711
682.0000	494.689
682.5000	494.731
683.0000	494.737
683.5000	494.806
684.0000	494.907
684.5000	494.953
685.0000	494.989
685.5000	494.987
686.0000	495
686.5000	494.967
687.0000	494.991
687.5000	495.054
688.0000	495.094
688.5000	495.143
689.0000	495.211
689.5000	495.264
690.0000	495.351
690.5000	495.39
691.0000	495.423
691.5000	495.446
692.0000	495.447
692.5000	495.498
693.0000	495.549
693.5000	495.685
694.0000	495.746
694.5000	495.759
695.0000	495.799
695.5000	495.83
696.0000	495.858
696.5000	495.941
697.0000	495.996
697.5000	496.001
698.0000	496.064
698.5000	496.091
699.0000	496.144
699.5000	496.161
700.0000	496.122
700.5000	496.158
701.0000	496.153
701.5000	496.185
702.0000	496.339
702.5000	496.4
703.0000	496.413
703.5000	496.399
704.0000	496.402
704.5000	496.422
705.0000	496.447
705.5000	496.591
706.0000	496.517
706.5000	496.568
707.0000	496.714
707.5000	496.64
708.0000	496.779
708.5000	496.831
709.0000	496.799
709.5000	496.916
710.0000	496.934
710.5000	496.961
711.0000	497.044
711.5000	496.975
712.0000	497.031
712.5000	497.071
713.0000	497.037
713.5000	497.094
714.0000	497.129
714.5000	497.18
715.0000	497.29
715.5000	497.362
716.0000	497.36
716.5000	497.385
717.0000	497.367
717.5000	497.445
718.0000	497.525
718.5000	497.609
719.0000	497.702
719.5000	497.733
720.0000	497.706
720.5000	497.647
721.0000	497.608
721.5000	497.607
722.0000	497.694
722.5000	497.77
723.0000	497.789
723.5000	497.881
724.0000	497.852
724.5000	497.832
725.0000	497.896
725.5000	497.938
726.0000	498.043
726.5000	498.073
727.0000	498.134
727.5000	498.09
728.0000	498.013
728.5000	498.135
729.0000	498.088
729.5000	498.183
730.0000	498.261
730.5000	498.236
731.0000	498.31
731.5000	498.264
732.0000	498.307
732.5000	498.355
733.0000	498.36
733.5000	498.416
734.0000	498.507
734.5000	498.561
735.0000	498.605
735.5000	498.647
736.0000	498.614
736.5000	498.601
737.0000	498.65
737.5000	498.676
738.0000	498.74
738.5000	498.776
739.0000	498.812
739.5000	498.897
740.0000	498.914
740.5000	498.98
741.0000	499
741.5000	498.946
742.0000	498.978
742.5000	498.948
743.0000	498.992
743.5000	499.102
744.0000	499.134
744.5000	499.125
745.0000	499.142
745.5000	499.088
746.0000	499.088
746.5000	499.125
747.0000	499.21
747.5000	499.284
748.0000	499.269
748.5000	499.448
749.0000	499.406
749.5000	499.409
750.0000	499.482
750.5000	499.426
751.0000	499.448
751.5000	499.476
752.0000	499.487
752.5000	499.545
753.0000	499.608
753.5000	499.675
754.0000	499.706
754.5000	499.677
755.0000	499.681
755.5000	499.729
756.0000	499.812
756.5000	499.84
757.0000	499.877
757.5000	499.816
758.0000	499.862
758.5000	499.853
759.0000	499.878
759.5000	499.95
760.0000	500.013
760.5000	500.129
761.0000	500.082
761.5000	500.114
762.0000	500.085
762.5000	500.009
763.0000	500.147
763.5000	500.191
764.0000	500.177
764.5000	500.316
765.0000	500.245
765.5000	500.268
766.0000	500.288
766.5000	500.279
767.0000	500.346
767.5000	500.296
768.0000	500.364
768.5000	500.389
769.0000	500.395
769.5000	500.465
770.0000	500.468
770.5000	500.461
771.0000	500.529
771.5000	500.608
772.0000	500.627
772.5000	500.726
773.0000	500.742
773.5000	500.678
774.0000	500.732
774.5000	500.779
775.0000	500.819
775.5000	500.864
776.0000	500.861
776.5000	500.81
777.0000	500.833
777.5000	500.968
778.0000	501.013
778.5000	500.989
779.0000	501.024
779.5000	501.026
780.0000	501.084
780.5000	501.23
781.0000	501.222
781.5000	501.255
782.0000	501.247
782.5000	501.212
783.0000	501.297
783.5000	501.245
784.0000	501.207
784.5000	501.254
785.0000	501.235
785.5000	501.226
786.0000	501.294
786.5000	501.364
787.0000	501.405
787.5000	501.447
788.0000	501.491
788.5000	501.443
789.0000	501.497
789.5000	501.576
790.0000	501.642
790.5000	501.669
791.0000	501.701
791.5000	501.765
792.0000	501.796
792.5000	501.798
793.0000	501.823
793.5000	501.83
794.0000	501.77
794.5000	501.856
795.0000	501.894
795.5000	501.967
796.0000	502.009
796.5000	502.058
797.0000	502.049
797.5000	502.034
798.0000	502.092
798.5000	502.073
799.0000	502.084
799.5000	502.162
800.0000	502.197
800.5000	502.249
801.0000	502.317
801.5000	502.254
802.0000	502.287
802.5000	502.289
803.0000	502.336
803.5000	502.402
804.0000	502.413
804.5000	502.494
805.0000	502.486
805.5000	502.503
806.0000	502.556
806.5000	502.562
807.0000	502.602
807.5000	502.644
808.0000	502.66
808.5000	502.742
809.0000	502.815
809.5000	502.834
810.0000	502.86
810.5000	502.788
811.0000	502.794
811.5000	502.868
812.0000	502.921
812.5000	503.153
813.0000	503.172
813.5000	503.15
814.0000	503.209
814.5000	503.038
815.0000	503.111
815.5000	503.118
816.0000	503.091
816.5000	503.246
817.0000	503.188
817.5000	503.252
818.0000	503.293
818.5000	503.288
819.0000	503.355
819.5000	503.367
820.0000	503.484
820.5000	503.523
821.0000	503.546
821.5000	503.634
822.0000	503.566
822.5000	503.54
823.0000	503.602
823.5000	503.606
824.0000	503.767
824.5000	503.839
825.0000	503.88
825.5000	503.909
826.0000	503.904
826.5000	503.9
827.0000	503.925
827.5000	503.946
828.0000	503.947
828.5000	503.992
829.0000	504.032
829.5000	504.087
830.0000	504.118
830.5000	504.19
831.0000	504.175
831.5000	504.269
832.0000	504.384
832.5000	504.401
833.0000	504.516
833.5000	504.481
834.0000	504.352
834.5000	504.391
835.0000	504.378
835.5000	504.467
836.0000	504.58
836.5000	504.599
837.0000	504.66
837.5000	504.604
838.0000	504.619
838.5000	504.627
839.0000	504.595
839.5000	504.616
840.0000	504.625
840.5000	504.643
841.0000	504.677
841.5000	504.788
842.0000	504.866
842.5000	504.901
843.0000	504.979
843.5000	504.963
844.0000	504.942
844.5000	505.03
845.0000	505.068
845.5000	505.136
846.0000	505.215
846.5000	505.203
847.0000	505.298
847.5000	505.357
848.0000	505.406
848.5000	505.473
849.0000	505.45
849.5000	505.441
850.0000	505.44
850.5000	505.566
851.0000	505.633
851.5000	505.579
852.0000	505.619
852.5000	505.501
853.0000	505.42
853.5000	505.595
854.0000	505.7
854.5000	505.765
855.0000	505.905
855.5000	505.926
856.0000	505.869
856.5000	505.915
857.0000	505.873
857.5000	505.945
858.0000	505.988
858.5000	506.055
859.0000	506.081
859.5000	506.063
860.0000	506.099
860.5000	506.085
861.0000	506.141
861.5000	506.076
862.0000	506.158
862.5000	506.234
863.0000	506.294
863.5000	506.332
864.0000	506.352
864.5000	506.361
865.0000	506.403
865.5000	506.538
866.0000	506.543
866.5000	506.556
867.0000	506.581
867.5000	506.504
868.0000	506.576
868.5000	506.604
869.0000	506.601
869.5000	506.721
870.0000	506.745
870.5000	506.874
871.0000	506.902
871.5000	506.925
872.0000	506.894
872.5000	506.766
873.0000	506.783
873.5000	506.805
874.0000	506.882
874.5000	507.001
875.0000	507.112
875.5000	507.17
876.0000	507.228
876.5000	507.273
877.0000	507.228
877.5000	507.24
878.0000	507.178
878.5000	507.219
879.0000	507.337
879.5000	507.382
880.0000	507.468
880.5000	507.535
881.0000	507.581
881.5000	507.598
882.0000	507.685
882.5000	507.623
883.0000	507.608
883.5000	507.676
884.0000	507.678
884.5000	507.757
885.0000	507.874
885.5000	507.891
886.0000	507.964
886.5000	508.012
887.0000	507.993
887.5000	508.07
888.0000	508.032
888.5000	508.062
889.0000	508.035
889.5000	508.019
890.0000	508.097
890.5000	508.058
891.0000	508.174
891.5000	508.242
892.0000	508.271
892.5000	508.313
893.0000	508.279
893.5000	508.313
894.0000	508.384
894.5000	508.474
895.0000	508.526
895.5000	508.546
896.0000	508.524
896.5000	508.575
897.0000	508.607
897.5000	508.691
898.0000	508.736
898.5000	508.721
899.0000	508.773
899.5000	508.776
900.0000	508.813
900.5000	508.873
901.0000	508.884
901.5000	508.876
902.0000	508.998
902.5000	509.044
903.0000	509.125
903.5000	509.155
904.0000	509.104
904.5000	509.175
905.0000	509.158
905.5000	509.245
906.0000	509.223
906.5000	509.188
907.0000	509.281
907.5000	509.281
908.0000	509.382
908.5000	509.36
909.0000	509.422
909.5000	509.458
910.0000	509.46
910.5000	509.604
911.0000	509.622
911.5000	509.602
912.0000	509.641
912.5000	509.582
913.0000	509.552
913.5000	509.54
914.0000	509.532
914.5000	509.601
915.0000	509.59
915.5000	509.794
916.0000	509.83
916.5000	509.889
917.0000	509.982
917.5000	509.898
918.0000	509.94
918.5000	509.923
919.0000	509.893
919.5000	509.976
920.0000	510.066
920.5000	510.103
921.0000	510.185
921.5000	510.2
922.0000	510.207
922.5000	510.237
923.0000	510.226
923.5000	510.167
924.0000	510.188
924.5000	510.289
925.0000	510.329
925.5000	510.448
926.0000	510.508
926.5000	510.41
927.0000	510.366
927.5000	510.363
928.0000	510.362
928.5000	510.474
929.0000	510.547
929.5000	510.583
930.0000	510.607
930.5000	510.654
931.0000	510.764
931.5000	510.758
932.0000	510.782
932.5000	510.743
933.0000	510.808
933.5000	510.894
934.0000	510.922
934.5000	510.999
935.0000	510.93
935.5000	510.934
936.0000	510.966
936.5000	510.977
937.0000	511.04
937.5000	511.008
938.0000	511.047
938.5000	511.09
939.0000	511.085
939.5000	511.222
940.0000	511.184
940.5000	511.283
941.0000	511.333
941.5000	511.39
942.0000	511.493
942.5000	511.426
943.0000	511.475
943.5000	511.429
944.0000	511.465
944.5000	511.535
945.0000	511.522
945.5000	511.541
946.0000	511.518
946.5000	511.517
947.0000	511.608
947.5000	511.613
948.0000	511.602
948.5000	511.658
949.0000	511.62
949.5000	511.656
950.0000	511.775
950.5000	511.755
951.0000	511.846
951.5000	511.919
952.0000	511.882
952.5000	511.932
953.0000	511.836
953.5000	511.883
954.0000	511.946
954.5000	511.971
955.0000	512.072
955.5000	512.105
956.0000	512.107
956.5000	512.196
957.0000	512.197
957.5000	512.213
958.0000	512.255
958.5000	512.304
959.0000	512.259
959.5000	512.316
960.0000	512.294
960.5000	512.285
961.0000	512.424
961.5000	512.415
962.0000	512.481
962.5000	512.469
963.0000	512.551
963.5000	512.536
964.0000	512.515
964.5000	512.566
965.0000	512.533
965.5000	512.587
966.0000	512.732
966.5000	512.731
967.0000	512.78
967.5000	512.793
968.0000	512.729
968.5000	512.756
969.0000	512.799
969.5000	512.844
970.0000	512.905
970.5000	512.967
971.0000	512.987
971.5000	512.999
972.0000	513.062
972.5000	513.085
973.0000	513.106
973.5000	513.177
974.0000	513.191
974.5000	513.209
975.0000	513.199
975.5000	513.221
976.0000	513.31
976.5000	513.308
977.0000	513.37
977.5000	513.354
978.0000	513.34
978.5000	513.395
979.0000	513.473
979.5000	513.495
980.0000	513.462
980.5000	513.498
981.0000	513.422
981.5000	513.545
982.0000	513.613
982.5000	513.602
983.0000	513.646
983.5000	513.553
984.0000	513.583
984.5000	513.646
985.0000	513.764
985.5000	513.842
986.0000	513.915
986.5000	513.941
987.0000	513.976
987.5000	514.038
988.0000	514.018
988.5000	514.063
989.0000	514.005
989.5000	514.087
990.0000	514.105
990.5000	514.128
991.0000	514.182
991.5000	514.13
992.0000	514.213
992.5000	514.187
993.0000	514.214
993.5000	514.255
994.0000	514.192
994.5000	514.297
995.0000	514.32
995.5000	514.36
996.0000	514.444
996.5000	514.35
997.0000	514.434
997.5000	514.344
998.0000	514.327
998.5000	514.418
999.0000	514.352
999.5000	514.44
1000.0000	514.486
1000.5000	514.563
1001.0000	514.613
1001.5000	514.654
1002.0000	514.665
1002.5000	514.654
1003.0000	514.756
1003.5000	514.757
1004.0000	514.836
1004.5000	514.848
1005.0000	514.808
1005.5000	514.825
1006.0000	514.834
1006.5000	514.823
1007.0000	514.938
1007.5000	515.025
1008.0000	515.059
1008.5000	515.188
1009.0000	515.081
1009.5000	515.134
1010.0000	515.093
1010.5000	515.008
1011.0000	515.063
1011.5000	515.126
1012.0000	515.177
1012.5000	515.262
1013.0000	515.291
1013.5000	515.196
1014.0000	515.335
1014.5000	515.412
1015.0000	515.413
1015.5000	515.503
1016.0000	515.476
1016.5000	515.419
1017.0000	515.479
1017.5000	515.463
1018.0000	515.476
1018.5000	515.57
1019.0000	515.624
1019.5000	515.62
1020.0000	515.655
1020.5000	515.698
1021.0000	515.625
1021.5000	515.663
1022.0000	515.702
1022.5000	515.663
1023.0000	515.772
1023.5000	515.848
1024.0000	515.829
1024.5000	515.894
1025.0000	515.949
1025.5000	515.982
1026.0000	515.996
1026.5000	515.985
1027.0000	515.985
1027.5000	516.003
1028.0000	516.009
1028.5000	516.061
1029.0000	516.088
1029.5000	516.16
1030.0000	516.214
1030.5000	516.196
1031.0000	516.226
1031.5000	516.208
1032.0000	516.299
1032.5000	516.317
1033.0000	516.347
1033.5000	516.333
1034.0000	516.345
1034.5000	516.413
1035.0000	516.414
1035.5000	516.451
1036.0000	516.428
1036.5000	516.434
1037.0000	516.521
1037.5000	516.506
1038.0000	516.567
1038.5000	516.693
1039.0000	516.679
1039.5000	516.829
1040.0000	516.831
1040.5000	516.807
1041.0000	516.802
1041.5000	516.774
1042.0000	516.81
1042.5000	516.81
1043.0000	516.822
1043.5000	516.818
1044.0000	516.883
1044.5000	516.899
1045.0000	516.902
1045.5000	516.95
1046.0000	516.966
1046.5000	516.955
1047.0000	516.956
1047.5000	516.978
1048.0000	516.984
1048.5000	517.055
1049.0000	517.122
1049.5000	517.22
1050.0000	517.219
1050.5000	517.284
1051.0000	517.274
1051.5000	517.2
1052.0000	517.239
1052.5000	517.257
1053.0000	517.347
1053.5000	517.397
1054.0000	517.472
1054.5000	517.541
1055.0000	517.591
1055.5000	517.636
1056.0000	517.62
1056.5000	517.648
1057.0000	517.694
1057.5000	517.735
1058.0000	517.763
1058.5000	517.744
1059.0000	517.721
1059.5000	517.707
1060.0000	517.837
1060.5000	517.805
1061.0000	517.883
1061.5000	517.929
1062.0000	517.912
1062.5000	518.012
1063.0000	518.059
1063.5000	518.137
1064.0000	518.087
1064.5000	518.133
1065.0000	518.164
1065.5000	518.174
1066.0000	518.247
1066.5000	518.235
1067.0000	518.266
1067.5000	518.326
1068.0000	518.345
1068.5000	518.452
1069.0000	518.452
1069.5000	518.498
1070.0000	518.56
1070.5000	518.506
1071.0000	518.594
1071.5000	518.611
1072.0000	518.662
1072.5000	518.764
1073.0000	518.729
1073.5000	518.618
1074.0000	518.666
1074.5000	518.646
1075.0000	518.696
1075.5000	518.847
1076.0000	518.836
1076.5000	518.839
1077.0000	518.848
1077.5000	518.834
1078.0000	518.875
1078.5000	518.921
1079.0000	519.054
1079.5000	519.147
1080.0000	519.154
1080.5000	519.26
1081.0000	519.22
1081.5000	519.14
1082.0000	519.166
1082.5000	519.182
1083.0000	519.203
1083.5000	519.296
1084.0000	519.372
1084.5000	519.359
1085.0000	519.49
1085.5000	519.532
1086.0000	519.602
1086.5000	519.683
1087.0000	519.652
1087.5000	519.719
1088.0000	519.779
1088.5000	519.908
1089.0000	520.018
1089.5000	520.083
1090.0000	520.036
1090.5000	519.973
1091.0000	519.975
1091.5000	520.002
1092.0000	520.021
1092.5000	520.053
1093.0000	520.045
1093.5000	520.098
1094.0000	520.147
1094.5000	520.229
1095.0000	520.274
1095.5000	520.318
1096.0000	520.444
1096.5000	520.48
1097.0000	520.546
1097.5000	520.552
1098.0000	520.565
1098.5000	520.563
1099.0000	520.524
1099.5000	520.52
1100.0000	520.566
1100.5000	520.615
1101.0000	520.7
1101.5000	520.8
1102.0000	520.773
1102.5000	520.78
1103.0000	520.869
1103.5000	520.994
1104.0000	521.128
1104.5000	521.202
1105.0000	521.213
1105.5000	521.087
1106.0000	521.033
1106.5000	521.098
1107.0000	521.139
1107.5000	521.221
1108.0000	521.342
1108.5000	521.344
1109.0000	521.364
1109.5000	521.379
1110.0000	521.437
1110.5000	521.479
1111.0000	521.528
1111.5000	521.59
1112.0000	521.551
1112.5000	521.56
1113.0000	521.552
1113.5000	521.542
1114.0000	521.608
1114.5000	521.652
1115.0000	521.744
1115.5000	521.83
1116.0000	521.794
1116.5000	521.864
1117.0000	521.886
1117.5000	521.91
1118.0000	522.029
1118.5000	522.022
1119.0000	522.136
1119.5000	522.182
1120.0000	522.131
1120.5000	522.23
1121.0000	522.156
1121.5000	522.239
1122.0000	522.299
1122.5000	522.275
1123.0000	522.386
1123.5000	522.45
1124.0000	522.544
1124.5000	522.579
1125.0000	522.519
1125.5000	522.525
1126.0000	522.496
1126.5000	522.534
1127.0000	522.593
1127.5000	522.568
1128.0000	522.611
1128.5000	522.711
1129.0000	522.707
1129.5000	522.828
1130.0000	522.912
1130.5000	522.873
1131.0000	522.984
1131.5000	522.907
1132.0000	522.941
1132.5000	523.005
1133.0000	522.994
1133.5000	523.048
1134.0000	523.085
1134.5000	523.186
1135.0000	523.286
1135.5000	523.399
1136.0000	523.455
1136.5000	523.353
1137.0000	523.291
1137.5000	523.306
1138.0000	523.31
1138.5000	523.372
1139.0000	523.481
1139.5000	523.482
1140.0000	523.533
1140.5000	523.564
1141.0000	523.597
1141.5000	523.676
1142.0000	523.705
1142.5000	523.812
1143.0000	523.898
1143.5000	523.952
1144.0000	524.015
1144.5000	524.083
1145.0000	524.086
1145.5000	524.141
1146.0000	524.132
1146.5000	524.124
1147.0000	524.081
1147.5000	524.081
1148.0000	524.097
1148.5000	524.177
1149.0000	524.328
1149.5000	524.326
1150.0000	524.407
1150.5000	524.374
1151.0000	524.378
1151.5000	524.463
1152.0000	524.504
1152.5000	524.537
1153.0000	524.595
1153.5000	524.621
1154.0000	524.63
1154.5000	524.656
1155.0000	524.735
1155.5000	524.82
1156.0000	524.794
1156.5000	524.911
1157.0000	524.89
1157.5000	524.872
1158.0000	525.031
1158.5000	525.085
1159.0000	525.124
1159.5000	525.185
1160.0000	525.178
1160.5000	525.229
1161.0000	525.273
1161.5000	525.322
1162.0000	525.412
1162.5000	525.447
1163.0000	525.461
1163.5000	525.479
1164.0000	525.506
1164.5000	525.554
1165.0000	525.61
1165.5000	525.667
1166.0000	525.635
1166.5000	525.732
1167.0000	525.75
1167.5000	525.782
1168.0000	525.957
1168.5000	525.844
1169.0000	525.947
1169.5000	526.006
1170.0000	525.991
1170.5000	526.071
1171.0000	526.147
1171.5000	526.224
1172.0000	526.24
1172.5000	526.298
1173.0000	526.301
1173.5000	526.308
1174.0000	526.368
1174.5000	526.368
1175.0000	526.332
1175.5000	526.344
1176.0000	526.399
1176.5000	526.483
1177.0000	526.587
1177.5000	526.579
1178.0000	526.592
1178.5000	526.694
1179.0000	526.689
1179.5000	526.736
1180.0000	526.788
1180.5000	526.767
1181.0000	526.822
1181.5000	526.858
1182.0000	526.777
1182.5000	526.836
1183.0000	526.879
1183.5000	526.95
1184.0000	527.109
1184.5000	527.122
1185.0000	527.118
1185.5000	527.169
1186.0000	527.212
1186.5000	527.22
1187.0000	527.315
1187.5000	527.317
1188.0000	527.312
1188.5000	527.393
1189.0000	527.477
1189.5000	527.53
1190.0000	527.599
1190.5000	527.628
1191.0000	527.544
1191.5000	527.587
1192.0000	527.64
1192.5000	527.694
1193.0000	527.707
1193.5000	527.667
1194.0000	527.622
1194.5000	527.697
1195.0000	527.795
1195.5000	527.96
1196.0000	527.984
1196.5000	527.993
1197.0000	528.107
1197.5000	528.15
1198.0000	528.209
1198.5000	528.244
1199.0000	528.205
1199.5000	528.208
1200.0000	528.271
1200.5000	528.337
1201.0000	528.43
1201.5000	528.496
1202.0000	528.501
1202.5000	528.493
1203.0000	528.495
1203.5000	528.469
1204.0000	528.548
1204.5000	528.517
1205.0000	528.582
1205.5000	528.632
1206.0000	528.64
1206.5000	528.69
1207.0000	528.707
1207.5000	528.741
1208.0000	528.796
1208.5000	528.874
1209.0000	528.91
1209.5000	528.962
1210.0000	528.956
1210.5000	528.923
1211.0000	528.943
1211.5000	529.029
1212.0000	529.114
1212.5000	529.178
1213.0000	529.279
1213.5000	529.224
1214.0000	529.195
1214.5000	529.238
1215.0000	529.252
1215.5000	529.314
1216.0000	529.464
1216.5000	529.55
1217.0000	529.583
1217.5000	529.628
1218.0000	529.67
1218.5000	529.735
1219.0000	529.763
1219.5000	529.803
1220.0000	529.861
1220.5000	529.84
1221.0000	529.884
1221.5000	529.949
1222.0000	529.926
1222.5000	530.004
1223.0000	530.019
1223.5000	530.03
1224.0000	529.993
1224.5000	529.984
1225.0000	530.005
1225.5000	530.049
1226.0000	530.157
1226.5000	530.253
1227.0000	530.33
1227.5000	530.351
1228.0000	530.398
1228.5000	530.422
1229.0000	530.518
1229.5000	530.549
1230.0000	530.583
1230.5000	530.607
1231.0000	530.637
1231.5000	530.717
1232.0000	530.797
1232.5000	530.829
1233.0000	530.826
1233.5000	530.809
1234.0000	530.807
1234.5000	530.83
1235.0000	530.826
1235.5000	530.948
1236.0000	530.99
1236.5000	531.005
1237.0000	531.113
1237.5000	531.161
1238.0000	531.099
1238.5000	531.231
1239.0000	531.269
1239.5000	531.308
1240.0000	531.394
1240.5000	531.344
1241.0000	531.352
1241.5000	531.295
1242.0000	531.335
1242.5000	531.356
1243.0000	531.339
1243.5000	531.459
1244.0000	531.559
1244.5000	531.731
1245.0000	531.823
1245.5000	531.832
1246.0000	531.86
1246.5000	531.765
1247.0000	531.822
1247.5000	531.845
1248.0000	531.913
1248.5000	531.955
1249.0000	531.878
1249.5000	531.986
1250.0000	532.068
1250.5000	532.168
1251.0000	532.28
1251.5000	532.214
1252.0000	532.234
1252.5000	532.28
1253.0000	532.318
1253.5000	532.368
1254.0000	532.436
1254.5000	532.426
1255.0000	532.451
1255.5000	532.479
1256.0000	532.405
1256.5000	532.469
1257.0000	532.564
1257.5000	532.711
1258.0000	532.753
1258.5000	532.741
1259.0000	532.707
1259.5000	532.711
1260.0000	532.825
1260.5000	532.86
1261.0000	532.953
1261.5000	533.002
1262.0000	533.009
1262.5000	533.162
1263.0000	533.204
1263.5000	533.271
1264.0000	533.333
1264.5000	533.387
1265.0000	533.394
1265.5000	533.394
1266.0000	533.361
1266.5000	533.31
1267.0000	533.33
1267.5000	533.381
1268.0000	533.445
1268.5000	533.557
1269.0000	533.638
1269.5000	533.729
1270.0000	533.767
1270.5000	533.79
1271.0000	533.864
1271.5000	533.88
1272.0000	533.931
1272.5000	533.902
1273.0000	533.935
1273.5000	533.93
1274.0000	534.002
1274.5000	534.071
1275.0000	534.088
1275.5000	534.164
1276.0000	534.21
1276.5000	534.284
1277.0000	534.352
1277.5000	534.319
1278.0000	534.349
1278.5000	534.389
1279.0000	534.401
1279.5000	534.504
1280.0000	534.48
1280.5000	534.505
1281.0000	534.572
1281.5000	534.624
1282.0000	534.747
1282.5000	534.828
1283.0000	534.839
1283.5000	534.887
1284.0000	534.914
1284.5000	534.886
1285.0000	534.99
1285.5000	534.974
1286.0000	534.951
1286.5000	535.012
1287.0000	535.118
1287.5000	535.146
1288.0000	535.304
1288.5000	535.376
1289.0000	535.212
1289.5000	535.286
1290.0000	535.266
1290.5000	535.251
1291.0000	535.399
1291.5000	535.445
1292.0000	535.452
1292.5000	535.583
1293.0000	535.62
1293.5000	535.617
1294.0000	535.656
1294.5000	535.669
1295.0000	535.767
1295.5000	535.874
1296.0000	535.946
1296.5000	535.97
1297.0000	535.968
1297.5000	536.005
1298.0000	536.045
1298.5000	536.094
1299.0000	536.156
1299.5000	536.163
1300.0000	536.222
1300.5000	536.212
1301.0000	536.263
1301.5000	536.332
1302.0000	536.387
1302.5000	536.476
1303.0000	536.484
1303.5000	536.491
1304.0000	536.565
1304.5000	536.624
1305.0000	536.68
1305.5000	536.722
1306.0000	536.712
1306.5000	536.758
1307.0000	536.717
1307.5000	536.802
1308.0000	536.758
1308.5000	536.734
1309.0000	536.896
1309.5000	536.849
1310.0000	536.951
1310.5000	536.988
1311.0000	536.972
1311.5000	537.064
1312.0000	537.091
1312.5000	537.179
1313.0000	537.305
1313.5000	537.356
1314.0000	537.397
1314.5000	537.405
1315.0000	537.334
1315.5000	537.36
1316.0000	537.465
1316.5000	537.526
1317.0000	537.546
1317.5000	537.701
1318.0000	537.767
1318.5000	537.819
1319.0000	537.961
1319.5000	537.845
1320.0000	537.773
1320.5000	537.864
1321.0000	537.831
1321.5000	537.925
1322.0000	538.017
1322.5000	538.025
1323.0000	538.045
1323.5000	538.084
1324.0000	538.094
1324.5000	538.13
1325.0000	538.178
1325.5000	538.186
1326.0000	538.233
1326.5000	538.199
1327.0000	538.227
1327.5000	538.307
1328.0000	538.373
1328.5000	538.448
1329.0000	538.553
1329.5000	538.595
1330.0000	538.615
1330.5000	538.741
1331.0000	538.758
1331.5000	538.74
1332.0000	538.837
1332.5000	538.802
1333.0000	538.86
1333.5000	538.854
1334.0000	538.766
1334.5000	538.792
1335.0000	538.719
1335.5000	538.932
1336.0000	539.083
1336.5000	539.176
1337.0000	539.253
1337.5000	539.232
1338.0000	539.187
1338.5000	539.179
1339.0000	539.202
1339.5000	539.208
1340.0000	539.259
1340.5000	539.27
1341.0000	539.318
1341.5000	539.382
1342.0000	539.458
1342.5000	539.531
1343.0000	539.582
1343.5000	539.583
1344.0000	539.534
1344.5000	539.572
1345.0000	539.633
1345.5000	539.677
1346.0000	539.765
1346.5000	539.77
1347.0000	539.797
1347.5000	539.947
1348.0000	540.001
1348.5000	540.05
1349.0000	540.108
1349.5000	540.078
1350.0000	540.091
1350.5000	540.152
1351.0000	540.229
1351.5000	540.184
1352.0000	540.279
1352.5000	540.317
1353.0000	540.344
1353.5000	540.461
1354.0000	540.46
1354.5000	540.52
1355.0000	540.573
1355.5000	540.555
1356.0000	540.632
1356.5000	540.697
1357.0000	540.689
1357.5000	540.745
1358.0000	540.776
1358.5000	540.778
1359.0000	540.758
1359.5000	540.837
1360.0000	540.869
1360.5000	540.983
1361.0000	541.114
1361.5000	541.099
1362.0000	541.077
1362.5000	541.037
1363.0000	541.034
1363.5000	541.05
1364.0000	541.153
1364.5000	541.095
1365.0000	541.165
1365.5000	541.33
1366.0000	541.353
1366.5000	541.489
1367.0000	541.539
1367.5000	541.503
1368.0000	541.569
1368.5000	541.56
1369.0000	541.527
1369.5000	541.612
1370.0000	541.571
1370.5000	541.71
1371.0000	541.784
1371.5000	541.783
1372.0000	541.887
1372.5000	541.899
1373.0000	541.994
1373.5000	542.042
1374.0000	542.06
1374.5000	542.124
1375.0000	542.105
1375.5000	542.075
1376.0000	542.147
1376.5000	542.149
1377.0000	542.221
1377.5000	542.229
1378.0000	542.297
1378.5000	542.288
1379.0000	542.272
1379.5000	542.355
1380.0000	542.396
1380.5000	542.502
1381.0000	542.585
1381.5000	542.621
1382.0000	542.645
1382.5000	542.674
1383.0000	542.749
1383.5000	542.799
1384.0000	542.914
1384.5000	542.922
1385.0000	542.844
1385.5000	542.881
1386.0000	542.76
1386.5000	542.756
1387.0000	542.855
1387.5000	542.958
1388.0000	543.07
1388.5000	543.164
1389.0000	543.148
1389.5000	543.077
1390.0000	543.107
1390.5000	543.135
1391.0000	543.195
1391.5000	543.366
1392.0000	543.37
1392.5000	543.373
1393.0000	543.379
1393.5000	543.332
1394.0000	543.358
1394.5000	543.351
1395.0000	543.418
1395.5000	543.442
1396.0000	543.504
1396.5000	543.624
1397.0000	543.681
1397.5000	543.747
1398.0000	543.801
1398.5000	543.752
1399.0000	543.736
1399.5000	543.792
1400.0000	543.772
1400.5000	543.863
1401.0000	543.89
1401.5000	543.874
1402.0000	543.923
1402.5000	544.022
1403.0000	544.079
1403.5000	544.18
1404.0000	544.201
1404.5000	544.152
1405.0000	544.228
1405.5000	544.208
1406.0000	544.279
1406.5000	544.371
1407.0000	544.346
1407.5000	544.425
1408.0000	544.472
1408.5000	544.527
1409.0000	544.589
1409.5000	544.557
1410.0000	544.527
1410.5000	544.502
1411.0000	544.564
1411.5000	544.646
1412.0000	544.732
1412.5000	544.76
1413.0000	544.789
1413.5000	544.845
1414.0000	544.808
1414.5000	544.711
1415.0000	544.684
1415.5000	544.648
1416.0000	544.696
1416.5000	544.853
1417.0000	544.836
1417.5000	544.852
1418.0000	544.93
1418.5000	544.922
1419.0000	545.026
1419.5000	545.127
1420.0000	545.06
1420.5000	545.109
1421.0000	545.148
1421.5000	545.068
1422.0000	545.203
1422.5000	545.169
1423.0000	545.15
1423.5000	545.204
1424.0000	545.142
1424.5000	545.26
1425.0000	545.419
1425.5000	545.507
1426.0000	545.568
1426.5000	545.594
1427.0000	545.571
1427.5000	545.595
1428.0000	545.588
1428.5000	545.556
1429.0000	545.509
1429.5000	545.434
1430.0000	545.519
1430.5000	545.644
1431.0000	545.651
1431.5000	545.799
1432.0000	545.811
1432.5000	545.745
1433.0000	545.821
1433.5000	545.807
1434.0000	545.893
1434.5000	545.902
1435.0000	545.908
1435.5000	545.941
1436.0000	545.955
1436.5000	546.149
1437.0000	546.254
1437.5000	546.258
1438.0000	546.243
1438.5000	546.109
1439.0000	546.166
1439.5000	546.238
1440.0000	546.243
1440.5000	546.25
1441.0000	546.246
1441.5000	546.299
1442.0000	546.302
1442.5000	546.355
1443.0000	546.377
1443.5000	546.384
1444.0000	546.466
1444.5000	546.561
1445.0000	546.602
1445.5000	546.601
1446.0000	546.66
1446.5000	546.619
1447.0000	546.601
1447.5000	546.629
1448.0000	546.633
1448.5000	546.708
1449.0000	546.745
1449.5000	546.707
1450.0000	546.689
1450.5000	546.819
1451.0000	546.824
1451.5000	546.969
1452.0000	547.085
1452.5000	546.923
1453.0000	546.889
1453.5000	546.847
1454.0000	546.803
1454.5000	546.876
1455.0000	546.946
1455.5000	547.056
1456.0000	547.07
1456.5000	547.218
1457.0000	547.26
1457.5000	547.231
1458.0000	547.275
1458.5000	547.254
1459.0000	547.274
1459.5000	547.282
1460.0000	547.342
1460.5000	547.289
1461.0000	547.255
1461.5000	547.197
1462.0000	547.206
1462.5000	547.237
1463.0000	547.398
1463.5000	547.468
1464.0000	547.465
1464.5000	547.527
1465.0000	547.474
1465.5000	547.525
1466.0000	547.559
1466.5000	547.559
1467.0000	547.567
1467.5000	547.654
1468.0000	547.691
1468.5000	547.675
1469.0000	547.766
1469.5000	547.651
1470.0000	547.634
1470.5000	547.709
1471.0000	547.694
1471.5000	547.82
1472.0000	547.865
1472.5000	547.868
1473.0000	547.904
1473.5000	547.789
1474.0000	547.831
1474.5000	547.868
1475.0000	547.825
1475.5000	547.902
1476.0000	547.868
1476.5000	547.824
1477.0000	547.805
1477.5000	547.778
1478.0000	547.871
1478.5000	547.889
1479.0000	548.032
1479.5000	548.181
1480.0000	548.256
1480.5000	548.363
1481.0000	548.368
1481.5000	548.36
1482.0000	548.337
1482.5000	548.355
1483.0000	548.372
1483.5000	548.336
1484.0000	548.249
1484.5000	548.243
1485.0000	548.263
1485.5000	548.284
1486.0000	548.377
1486.5000	548.409
1487.0000	548.398
1487.5000	548.502
1488.0000	548.545
1488.5000	548.626
1489.0000	548.598
1489.5000	548.53
1490.0000	548.482
1490.5000	548.55
1491.0000	548.676
1491.5000	548.779
1492.0000	548.783
1492.5000	548.718
1493.0000	548.656
1493.5000	548.687
1494.0000	548.78
1494.5000	548.768
1495.0000	548.846
1495.5000	548.843
1496.0000	548.886
1496.5000	548.987
1497.0000	549.045
1497.5000	549.051
1498.0000	549.021
1498.5000	549.041
1499.0000	549.118
1499.5000	549.162
1500.0000	549.238
1500.5000	549.238
1501.0000	549.241
1501.5000	549.23
1502.0000	549.244
1502.5000	549.269
1503.0000	549.106
1503.5000	549.247
1504.0000	549.296
1504.5000	549.379
1505.0000	549.572
1505.5000	549.52
1506.0000	549.513
1506.5000	549.452
1507.0000	549.449
1507.5000	549.459
1508.0000	549.518
1508.5000	549.554
1509.0000	549.568
1509.5000	549.599
1510.0000	549.555
1510.5000	549.652
1511.0000	549.688
1511.5000	549.78
1512.0000	549.862
1512.5000	549.782
1513.0000	549.797
1513.5000	549.767
1514.0000	549.705
1514.5000	549.766
1515.0000	549.837
1515.5000	549.8
1516.0000	549.862
1516.5000	549.874
1517.0000	549.962
1517.5000	550.009
1518.0000	550.082
1518.5000	550.071
1519.0000	550.038
1519.5000	550.125
1520.0000	550.213
1520.5000	550.266
1521.0000	550.212
1521.5000	550.242
1522.0000	550.164
1522.5000	550.125
1523.0000	550.133
1523.5000	550.135
1524.0000	550.221
1524.5000	550.326
1525.0000	550.359
1525.5000	550.399
1526.0000	550.386
1526.5000	550.358
1527.0000	550.427
1527.5000	550.453
1528.0000	550.464
1528.5000	550.499
1529.0000	550.511
1529.5000	550.54
1530.0000	550.572
1530.5000	550.616
1531.0000	550.627
1531.5000	550.615
1532.0000	550.684
1532.5000	550.732
1533.0000	550.755
1533.5000	550.804
1534.0000	550.778
1534.5000	550.744
1535.0000	550.777
1535.5000	550.78
1536.0000	550.751
1536.5000	550.954
1537.0000	550.967
1537.5000	550.93
1538.0000	551.038
1538.5000	550.965
1539.0000	550.938
1539.5000	551.04
1540.0000	551.041
1540.5000	550.993
1541.0000	551.036
1541.5000	550.989
1542.0000	550.972
1542.5000	551.001
1543.0000	551.106
1543.5000	551.223
1544.0000	551.223
1544.5000	551.262
1545.0000	551.253
1545.5000	551.2
1546.0000	551.266
1546.5000	551.275
1547.0000	551.16
1547.5000	551.146
1548.0000	551.191
1548.5000	551.251
1549.0000	551.303
1549.5000	551.343
1550.0000	551.354
1550.5000	551.312
1551.0000	551.379
1551.5000	551.454
1552.0000	551.452
1552.5000	551.472
1553.0000	551.507
1553.5000	551.488
1554.0000	551.473
1554.5000	551.521
1555.0000	551.505
1555.5000	551.507
1556.0000	551.527
1556.5000	551.604
1557.0000	551.68
1557.5000	551.756
1558.0000	551.846
1558.5000	551.797
1559.0000	551.813
1559.5000	551.809
1560.0000	551.76
1560.5000	551.827
1561.0000	551.855
1561.5000	551.892
1562.0000	551.913
1562.5000	551.981
1563.0000	551.968
1563.5000	552.018
1564.0000	552.061
1564.5000	552.002
1565.0000	551.998
1565.5000	552.07
1566.0000	552.1
1566.5000	552.131
1567.0000	552.196
1567.5000	552.136
1568.0000	552.148
1568.5000	552.171
1569.0000	552.219
1569.5000	552.18
1570.0000	552.161
1570.5000	552.111
1571.0000	552.107
1571.5000	552.214
1572.0000	552.266
1572.5000	552.297
1573.0000	552.266
1573.5000	552.249
1574.0000	552.307
1574.5000	552.396
1575.0000	552.436
1575.5000	552.462
1576.0000	552.399
1576.5000	552.395
1577.0000	552.494
1577.5000	552.465
1578.0000	552.539
1578.5000	552.53
1579.0000	552.475
