TITLE	
DATA TYPE	
ORIGIN	JASCO
OWNER	
DATE	22/08/25
TIME	14:54:52
SPECTROMETER/DATA SYSTEM	
RESOLUTION	
DELTAX	0.5
XUNITS	SEC
YUNITS	INTENSITY
FIRSTX	0.0000
LASTX	1666.5000
NPOINTS	3334
FIRSTY	581.81262
MAXY	668.24957
MINY	-69.41758
XYDATA
0.0000	581.813
0.5000	581.767
1.0000	581.775
1.5000	581.865
2.0000	581.8
2.5000	581.778
3.0000	581.636
3.5000	581.49
4.0000	581.488
4.5000	581.429
5.0000	581.538
5.5000	581.606
6.0000	581.628
6.5000	581.594
7.0000	581.537
7.5000	581.402
8.0000	581.311
8.5000	581.314
9.0000	581.131
9.5000	581.104
10.0000	581.195
10.5000	581.238
11.0000	581.439
11.5000	581.522
12.0000	581.417
12.5000	581.375
13.0000	581.268
13.5000	581.246
14.0000	581.31
14.5000	581.287
15.0000	581.228
15.5000	581.276
16.0000	581.33
16.5000	581.377
17.0000	578.028
17.5000	562.868
18.0000	530.752
18.5000	385.647
19.0000	-69.4176
19.5000	-39.1923
20.0000	-33.0409
20.5000	-30.8291
21.0000	-29.6684
21.5000	-29.0678
22.0000	-28.6837
22.5000	-28.4366
23.0000	-28.0939
23.5000	-27.8346
24.0000	-27.4596
24.5000	-27.2381
25.0000	-27.062
25.5000	-27.0339
26.0000	-26.9163
26.5000	76.1676
27.0000	347.825
27.5000	342.55
28.0000	340.807
28.5000	334.91
29.0000	319.77
29.5000	319.932
30.0000	320.07
30.5000	320.314
31.0000	320.673
31.5000	321.126
32.0000	321.578
32.5000	322.074
33.0000	322.508
33.5000	322.905
34.0000	323.418
34.5000	323.832
35.0000	324.337
35.5000	324.8
36.0000	325.203
36.5000	325.747
37.0000	326.123
37.5000	326.602
38.0000	327.101
38.5000	327.483
39.0000	327.913
39.5000	328.387
40.0000	328.815
40.5000	329.312
41.0000	329.86
41.5000	330.267
42.0000	330.698
42.5000	331.191
43.0000	331.629
43.5000	332.104
44.0000	332.538
44.5000	332.988
45.0000	333.383
45.5000	333.851
46.0000	334.386
46.5000	334.803
47.0000	335.29
47.5000	335.727
48.0000	336.16
48.5000	336.623
49.0000	337.076
49.5000	337.523
50.0000	337.98
50.5000	338.432
51.0000	338.907
51.5000	339.394
52.0000	339.863
52.5000	340.277
53.0000	340.701
53.5000	341.152
54.0000	341.551
54.5000	341.997
55.0000	342.456
55.5000	342.864
56.0000	343.349
56.5000	343.886
57.0000	344.387
57.5000	344.834
58.0000	345.245
58.5000	345.653
59.0000	346.052
59.5000	346.515
60.0000	347.005
60.5000	347.425
61.0000	347.897
61.5000	348.386
62.0000	348.814
62.5000	349.286
63.0000	349.729
63.5000	350.092
64.0000	350.543
64.5000	350.959
65.0000	351.426
65.5000	351.957
66.0000	352.387
66.5000	352.844
67.0000	353.292
67.5000	353.709
68.0000	354.214
68.5000	354.652
69.0000	355.099
69.5000	355.512
70.0000	355.897
70.5000	356.332
71.0000	356.773
71.5000	357.28
72.0000	357.661
72.5000	358.104
73.0000	358.526
73.5000	358.961
74.0000	359.467
74.5000	359.963
75.0000	360.374
75.5000	360.833
76.0000	361.249
76.5000	361.717
77.0000	362.164
77.5000	362.569
78.0000	363.029
78.5000	363.404
79.0000	363.866
79.5000	364.251
80.0000	364.732
80.5000	365.118
81.0000	365.543
81.5000	366.012
82.0000	366.402
82.5000	366.873
83.0000	367.275
83.5000	367.745
84.0000	368.191
84.5000	368.64
85.0000	369.151
85.5000	369.565
86.0000	370.038
86.5000	370.459
87.0000	370.86
87.5000	371.294
88.0000	371.714
88.5000	372.171
89.0000	372.639
89.5000	373.133
90.0000	373.544
90.5000	373.972
91.0000	374.342
91.5000	374.701
92.0000	375.152
92.5000	375.584
93.0000	376.04
93.5000	376.49
94.0000	376.842
94.5000	377.24
95.0000	377.626
95.5000	378.018
96.0000	378.505
96.5000	378.981
97.0000	379.414
97.5000	379.889
98.0000	380.333
98.5000	380.694
99.0000	381.064
99.5000	381.498
100.0000	381.898
100.5000	382.329
101.0000	382.863
101.5000	383.201
102.0000	383.644
102.5000	384.072
103.0000	384.455
103.5000	384.843
104.0000	385.222
104.5000	385.688
105.0000	386.132
105.5000	386.643
106.0000	387.03
106.5000	387.396
107.0000	387.812
107.5000	388.194
108.0000	388.654
108.5000	389.047
109.0000	389.4
109.5000	389.827
110.0000	390.224
110.5000	390.69
111.0000	391.143
111.5000	391.53
112.0000	391.95
112.5000	392.341
113.0000	392.724
113.5000	393.092
114.0000	393.466
114.5000	393.877
115.0000	394.259
115.5000	394.692
116.0000	395.139
116.5000	395.556
117.0000	395.989
117.5000	396.4
118.0000	396.815
118.5000	397.205
119.0000	397.551
119.5000	397.992
120.0000	398.372
120.5000	398.796
121.0000	399.259
121.5000	399.626
122.0000	400.046
122.5000	400.404
123.0000	400.781
123.5000	401.127
124.0000	401.491
124.5000	401.874
125.0000	402.319
125.5000	402.748
126.0000	403.098
126.5000	403.525
127.0000	403.9
127.5000	404.291
128.0000	404.715
128.5000	405.05
129.0000	405.439
129.5000	405.805
130.0000	406.23
130.5000	406.61
131.0000	406.957
131.5000	407.349
132.0000	407.683
132.5000	408.097
133.0000	408.499
133.5000	408.918
134.0000	409.301
134.5000	409.702
135.0000	410.071
135.5000	410.448
136.0000	410.818
136.5000	411.182
137.0000	411.62
137.5000	412.044
138.0000	412.476
138.5000	412.83
139.0000	413.145
139.5000	413.417
140.0000	413.726
140.5000	414.092
141.0000	414.509
141.5000	414.96
142.0000	415.324
142.5000	415.732
143.0000	416.025
143.5000	416.359
144.0000	416.796
144.5000	417.142
145.0000	417.571
145.5000	417.973
146.0000	418.332
146.5000	418.702
147.0000	419.061
147.5000	419.398
148.0000	419.733
148.5000	420.126
149.0000	420.49
149.5000	420.828
150.0000	421.191
150.5000	421.542
151.0000	421.899
151.5000	422.325
152.0000	422.698
152.5000	423.065
153.0000	423.394
153.5000	423.734
154.0000	424.093
154.5000	424.446
155.0000	424.822
155.5000	425.164
156.0000	425.552
156.5000	425.908
157.0000	426.224
157.5000	426.586
158.0000	426.907
158.5000	427.265
159.0000	427.675
159.5000	428.017
160.0000	428.393
160.5000	428.716
161.0000	429.07
161.5000	429.431
162.0000	429.778
162.5000	430.07
163.0000	430.368
163.5000	430.737
164.0000	431.079
164.5000	431.475
165.0000	431.866
165.5000	432.181
166.0000	432.466
166.5000	432.809
167.0000	433.125
167.5000	433.463
168.0000	433.866
168.5000	434.258
169.0000	434.584
169.5000	434.969
170.0000	435.337
170.5000	435.656
171.0000	435.99
171.5000	436.276
172.0000	436.56
172.5000	436.859
173.0000	437.238
173.5000	437.58
174.0000	437.887
174.5000	438.227
175.0000	438.577
175.5000	438.876
176.0000	439.205
176.5000	439.558
177.0000	439.803
177.5000	440.155
178.0000	440.573
178.5000	440.811
179.0000	441.156
179.5000	441.511
180.0000	441.738
180.5000	442.171
181.0000	442.562
181.5000	442.872
182.0000	443.234
182.5000	443.524
183.0000	443.818
183.5000	444.122
184.0000	444.395
184.5000	444.698
185.0000	444.979
185.5000	445.246
186.0000	445.556
186.5000	445.919
187.0000	446.23
187.5000	446.583
188.0000	446.988
188.5000	447.241
189.0000	447.566
189.5000	447.891
190.0000	448.2
190.5000	448.563
191.0000	448.815
191.5000	449.113
192.0000	449.388
192.5000	449.717
193.0000	450.092
193.5000	450.411
194.0000	450.679
194.5000	450.87
195.0000	451.202
195.5000	451.495
196.0000	451.907
196.5000	452.319
197.0000	452.598
197.5000	452.867
198.0000	453.097
198.5000	453.36
199.0000	453.688
199.5000	454.045
200.0000	454.398
200.5000	454.633
201.0000	454.897
201.5000	455.189
202.0000	455.439
202.5000	455.82
203.0000	456.101
203.5000	456.375
204.0000	456.671
204.5000	457.01
205.0000	457.331
205.5000	457.665
206.0000	457.9
206.5000	458.125
207.0000	458.426
207.5000	458.677
208.0000	458.99
208.5000	459.292
209.0000	459.537
209.5000	459.847
210.0000	460.174
210.5000	460.445
211.0000	460.819
211.5000	461.057
212.0000	461.341
212.5000	461.659
213.0000	461.922
213.5000	462.279
214.0000	462.589
214.5000	462.832
215.0000	463.097
215.5000	463.315
216.0000	463.61
216.5000	463.957
217.0000	464.253
217.5000	464.567
218.0000	464.838
218.5000	465.076
219.0000	465.334
219.5000	465.621
220.0000	465.899
220.5000	466.196
221.0000	466.482
221.5000	466.745
222.0000	467.015
222.5000	467.293
223.0000	467.567
223.5000	467.849
224.0000	468.091
224.5000	468.396
225.0000	468.662
225.5000	468.951
226.0000	469.209
226.5000	469.392
227.0000	469.653
227.5000	469.912
228.0000	470.262
228.5000	470.543
229.0000	470.796
229.5000	471.078
230.0000	471.241
230.5000	471.54
231.0000	471.863
231.5000	472.131
232.0000	472.468
232.5000	472.807
233.0000	473.051
233.5000	473.321
234.0000	473.597
234.5000	473.862
235.0000	474.068
235.5000	474.353
236.0000	474.546
236.5000	474.768
237.0000	475.091
237.5000	475.318
238.0000	475.685
238.5000	475.953
239.0000	476.226
239.5000	476.571
240.0000	476.762
240.5000	477.071
241.0000	477.288
241.5000	477.486
242.0000	477.762
242.5000	478.049
243.0000	478.346
243.5000	478.597
244.0000	478.816
244.5000	478.951
245.0000	479.144
245.5000	479.414
246.0000	479.736
246.5000	479.975
247.0000	480.275
247.5000	480.528
248.0000	480.753
248.5000	481.002
249.0000	481.245
249.5000	481.48
250.0000	481.728
250.5000	481.993
251.0000	482.301
251.5000	482.538
252.0000	482.796
252.5000	483.062
253.0000	483.34
253.5000	483.671
254.0000	483.894
254.5000	484.124
255.0000	484.256
255.5000	484.386
256.0000	484.681
256.5000	485.065
257.0000	485.366
257.5000	485.679
258.0000	485.827
258.5000	486.005
259.0000	486.253
259.5000	486.476
260.0000	486.816
260.5000	487.044
261.0000	487.298
261.5000	487.563
262.0000	487.783
262.5000	487.995
263.0000	488.252
263.5000	488.485
264.0000	488.675
264.5000	488.989
265.0000	489.204
265.5000	489.446
266.0000	489.756
266.5000	489.918
267.0000	490.175
267.5000	490.428
268.0000	490.619
268.5000	490.874
269.0000	491.105
269.5000	491.334
270.0000	491.638
270.5000	491.861
271.0000	492.039
271.5000	492.306
272.0000	492.582
272.5000	492.853
273.0000	493.161
273.5000	493.313
274.0000	493.515
274.5000	493.761
275.0000	494.022
275.5000	494.28
276.0000	494.488
276.5000	494.721
277.0000	494.939
277.5000	495.233
278.0000	495.467
278.5000	495.645
279.0000	495.846
279.5000	496.05
280.0000	496.274
280.5000	496.55
281.0000	496.844
281.5000	497.125
282.0000	497.316
282.5000	497.51
283.0000	497.68
283.5000	497.803
284.0000	498.042
284.5000	498.313
285.0000	498.481
285.5000	498.784
286.0000	499.039
286.5000	499.314
287.0000	499.635
287.5000	499.802
288.0000	500.052
288.5000	500.243
289.0000	500.528
289.5000	500.72
290.0000	500.927
290.5000	501.149
291.0000	501.279
291.5000	501.525
292.0000	501.791
292.5000	501.979
293.0000	502.183
293.5000	502.474
294.0000	502.624
294.5000	502.891
295.0000	503.125
295.5000	503.411
296.0000	503.673
296.5000	503.913
297.0000	504.196
297.5000	504.368
298.0000	504.568
298.5000	504.754
299.0000	504.959
299.5000	505.103
300.0000	505.386
300.5000	505.648
301.0000	505.785
301.5000	506.017
302.0000	506.185
302.5000	506.339
303.0000	506.63
303.5000	506.964
304.0000	507.232
304.5000	507.488
305.0000	507.718
305.5000	507.842
306.0000	507.982
306.5000	508.172
307.0000	508.334
307.5000	508.604
308.0000	508.843
308.5000	509.081
309.0000	509.335
309.5000	509.568
310.0000	509.825
310.5000	509.997
311.0000	510.191
311.5000	510.419
312.0000	510.628
312.5000	510.906
313.0000	511.108
313.5000	511.255
314.0000	511.38
314.5000	511.543
315.0000	511.729
315.5000	511.847
316.0000	512.163
316.5000	512.363
317.0000	512.66
317.5000	512.918
318.0000	513.063
318.5000	513.267
319.0000	513.438
319.5000	513.731
320.0000	513.923
320.5000	514.101
321.0000	514.399
321.5000	514.545
322.0000	514.749
322.5000	515.046
323.0000	515.162
323.5000	515.376
324.0000	515.622
324.5000	515.767
325.0000	516.035
325.5000	516.255
326.0000	516.494
326.5000	516.774
327.0000	516.852
327.5000	517.14
328.0000	517.349
328.5000	517.488
329.0000	517.741
329.5000	517.933
330.0000	518.084
330.5000	518.282
331.0000	518.508
331.5000	518.616
332.0000	518.84
332.5000	519.125
333.0000	519.371
333.5000	519.594
334.0000	519.803
334.5000	519.956
335.0000	520.148
335.5000	520.361
336.0000	520.542
336.5000	520.745
337.0000	520.915
337.5000	521.115
338.0000	521.328
338.5000	521.536
339.0000	521.705
339.5000	521.866
340.0000	522.088
340.5000	522.25
341.0000	522.427
341.5000	522.664
342.0000	522.81
342.5000	523.037
343.0000	523.316
343.5000	523.465
344.0000	523.61
344.5000	523.81
345.0000	524.026
345.5000	524.247
346.0000	524.524
346.5000	524.727
347.0000	524.875
347.5000	525.086
348.0000	525.33
348.5000	525.507
349.0000	525.699
349.5000	525.876
350.0000	526.04
350.5000	526.2
351.0000	526.414
351.5000	526.6
352.0000	526.801
352.5000	527.098
353.0000	527.26
353.5000	527.457
354.0000	527.709
354.5000	527.822
355.0000	527.924
355.5000	528.178
356.0000	528.261
356.5000	528.441
357.0000	528.714
357.5000	528.831
358.0000	529.05
358.5000	529.21
359.0000	529.393
359.5000	529.634
360.0000	529.836
360.5000	530.176
361.0000	530.385
361.5000	530.547
362.0000	530.722
362.5000	530.776
363.0000	530.975
363.5000	531.159
364.0000	531.323
364.5000	531.598
365.0000	531.766
365.5000	531.888
366.0000	532.122
366.5000	532.234
367.0000	532.414
367.5000	532.649
368.0000	532.739
368.5000	532.999
369.0000	533.203
369.5000	533.446
370.0000	533.679
370.5000	533.796
371.0000	534.042
371.5000	534.247
372.0000	534.54
372.5000	534.71
373.0000	534.812
373.5000	534.894
374.0000	534.981
374.5000	535.213
375.0000	535.436
375.5000	535.721
376.0000	535.914
376.5000	536.033
377.0000	536.141
377.5000	536.249
378.0000	536.401
378.5000	536.622
379.0000	536.921
379.5000	537.113
380.0000	537.359
380.5000	537.578
381.0000	537.708
381.5000	537.879
382.0000	538.024
382.5000	538.097
383.0000	538.234
383.5000	538.401
384.0000	538.594
384.5000	538.872
385.0000	539.029
385.5000	539.218
386.0000	539.321
386.5000	539.501
387.0000	539.758
387.5000	539.978
388.0000	540.213
388.5000	540.394
389.0000	540.632
389.5000	540.834
390.0000	541.01
390.5000	541.099
391.0000	541.172
391.5000	541.331
392.0000	541.479
392.5000	541.757
393.0000	541.937
393.5000	542.102
394.0000	542.268
394.5000	542.347
395.0000	542.585
395.5000	542.675
396.0000	542.932
396.5000	543.181
397.0000	543.253
397.5000	543.497
398.0000	543.666
398.5000	543.817
399.0000	544.049
399.5000	544.188
400.0000	544.361
400.5000	544.519
401.0000	544.683
401.5000	544.851
402.0000	544.972
402.5000	545.159
403.0000	545.307
403.5000	545.605
404.0000	545.852
404.5000	546.083
405.0000	546.294
405.5000	546.387
406.0000	546.518
406.5000	546.527
407.0000	546.653
407.5000	546.793
408.0000	546.954
408.5000	547.247
409.0000	547.499
409.5000	547.726
410.0000	547.885
410.5000	548.007
411.0000	548.194
411.5000	548.284
412.0000	548.495
412.5000	548.65
413.0000	548.667
413.5000	548.882
414.0000	549.043
414.5000	549.206
415.0000	549.414
415.5000	549.596
416.0000	549.796
416.5000	550.036
417.0000	550.238
417.5000	550.46
418.0000	550.55
418.5000	550.722
419.0000	550.941
419.5000	551.03
420.0000	551.209
420.5000	551.358
421.0000	551.502
421.5000	551.68
422.0000	551.822
422.5000	552.061
423.0000	552.284
423.5000	552.536
424.0000	552.759
424.5000	552.86
425.0000	553.039
425.5000	553.115
426.0000	553.298
426.5000	553.482
427.0000	553.568
427.5000	553.674
428.0000	553.831
428.5000	554.01
429.0000	554.163
429.5000	554.39
430.0000	554.517
430.5000	554.751
431.0000	554.935
431.5000	555.046
432.0000	555.172
432.5000	555.217
433.0000	555.43
433.5000	555.689
434.0000	555.992
434.5000	556.161
435.0000	556.295
435.5000	556.482
436.0000	556.68
436.5000	556.808
437.0000	556.913
437.5000	557.074
438.0000	557.08
438.5000	557.329
439.0000	557.567
439.5000	557.597
440.0000	557.828
440.5000	557.99
441.0000	558.078
441.5000	558.329
442.0000	558.48
442.5000	558.616
443.0000	558.813
443.5000	558.967
444.0000	559.176
444.5000	559.322
445.0000	559.397
445.5000	559.529
446.0000	559.712
446.5000	559.924
447.0000	560.189
447.5000	560.385
448.0000	560.484
448.5000	560.537
449.0000	560.635
449.5000	560.843
450.0000	561.01
450.5000	561.198
451.0000	561.396
451.5000	561.488
452.0000	561.668
452.5000	561.86
453.0000	562.006
453.5000	562.236
454.0000	562.382
454.5000	562.514
455.0000	562.696
455.5000	562.795
456.0000	562.966
456.5000	563.206
457.0000	563.353
457.5000	563.537
458.0000	563.58
458.5000	563.7
459.0000	563.801
459.5000	563.895
460.0000	564.128
460.5000	564.317
461.0000	564.496
461.5000	564.677
462.0000	564.807
462.5000	564.942
463.0000	565.107
463.5000	565.262
464.0000	565.413
464.5000	565.509
465.0000	565.697
465.5000	565.86
466.0000	566.078
466.5000	566.238
467.0000	566.29
467.5000	566.49
468.0000	566.578
468.5000	566.705
469.0000	566.988
469.5000	567.087
470.0000	567.337
470.5000	567.488
471.0000	567.672
471.5000	567.876
472.0000	567.919
472.5000	568.055
473.0000	568.133
473.5000	568.282
474.0000	568.374
474.5000	568.607
475.0000	568.788
475.5000	568.879
476.0000	569.051
476.5000	569.199
477.0000	569.316
477.5000	569.485
478.0000	569.643
478.5000	569.733
479.0000	569.893
479.5000	570.026
480.0000	570.356
480.5000	570.607
481.0000	570.776
481.5000	570.925
482.0000	570.977
482.5000	571.059
483.0000	571.149
483.5000	571.254
484.0000	571.395
484.5000	571.45
485.0000	571.677
485.5000	571.847
486.0000	571.932
486.5000	572.061
487.0000	572.156
487.5000	572.29
488.0000	572.479
488.5000	572.676
489.0000	572.842
489.5000	573.028
490.0000	573.111
490.5000	573.28
491.0000	573.381
491.5000	573.532
492.0000	573.666
492.5000	573.898
493.0000	573.972
493.5000	574.017
494.0000	574.204
494.5000	574.236
495.0000	574.535
495.5000	574.693
496.0000	574.824
496.5000	574.973
497.0000	574.991
497.5000	575.07
498.0000	575.155
498.5000	575.325
499.0000	575.498
499.5000	575.62
500.0000	575.818
500.5000	575.891
501.0000	575.921
501.5000	576.199
502.0000	576.26
502.5000	576.397
503.0000	576.567
503.5000	576.667
504.0000	576.792
504.5000	576.922
505.0000	577.165
505.5000	577.266
506.0000	577.487
506.5000	577.705
507.0000	577.803
507.5000	578.103
508.0000	578.212
508.5000	578.233
509.0000	578.268
509.5000	578.301
510.0000	578.365
510.5000	578.505
511.0000	578.609
511.5000	578.622
512.0000	578.87
512.5000	579.001
513.0000	579.188
513.5000	579.382
514.0000	579.415
514.5000	579.548
515.0000	579.625
515.5000	579.745
516.0000	579.896
516.5000	580.029
517.0000	580.237
517.5000	580.414
518.0000	580.581
518.5000	580.704
519.0000	580.82
519.5000	580.928
520.0000	581.028
520.5000	581.179
521.0000	581.324
521.5000	581.451
522.0000	581.567
522.5000	581.656
523.0000	581.782
523.5000	581.891
524.0000	582.031
524.5000	582.153
525.0000	582.343
525.5000	582.56
526.0000	582.599
526.5000	582.753
527.0000	582.722
527.5000	582.721
528.0000	582.824
528.5000	583.039
529.0000	583.266
529.5000	583.475
530.0000	583.64
530.5000	583.669
531.0000	583.753
531.5000	583.77
532.0000	583.889
532.5000	584.068
533.0000	584.166
533.5000	584.253
534.0000	584.393
534.5000	584.412
535.0000	584.44
535.5000	584.625
536.0000	584.737
536.5000	584.874
537.0000	585.096
537.5000	585.185
538.0000	585.328
538.5000	585.379
539.0000	585.482
539.5000	585.555
540.0000	585.713
540.5000	585.859
541.0000	585.968
541.5000	586.183
542.0000	586.204
542.5000	586.392
543.0000	586.542
543.5000	586.589
544.0000	586.728
544.5000	586.872
545.0000	586.99
545.5000	587.037
546.0000	587.165
546.5000	587.227
547.0000	587.357
547.5000	587.574
548.0000	587.66
548.5000	587.763
549.0000	587.887
549.5000	587.978
550.0000	588.162
550.5000	588.308
551.0000	588.433
551.5000	588.628
552.0000	588.785
552.5000	588.932
553.0000	588.969
553.5000	588.997
554.0000	588.99
554.5000	589.036
555.0000	589.189
555.5000	589.388
556.0000	589.598
556.5000	589.707
557.0000	589.885
557.5000	589.873
558.0000	589.894
558.5000	590.046
559.0000	589.973
559.5000	590.145
560.0000	590.258
560.5000	590.346
561.0000	590.564
561.5000	590.63
562.0000	590.685
562.5000	590.902
563.0000	591.038
563.5000	591.226
564.0000	591.469
564.5000	591.516
565.0000	591.576
565.5000	591.608
566.0000	591.695
566.5000	591.73
567.0000	591.85
567.5000	592.056
568.0000	592.112
568.5000	592.268
569.0000	592.366
569.5000	592.446
570.0000	592.633
570.5000	592.679
571.0000	592.819
571.5000	592.979
572.0000	593.025
572.5000	593.113
573.0000	593.204
573.5000	593.196
574.0000	593.304
574.5000	593.486
575.0000	593.575
575.5000	593.739
576.0000	593.824
576.5000	593.951
577.0000	594.095
577.5000	594.253
578.0000	594.42
578.5000	594.488
579.0000	594.513
579.5000	594.527
580.0000	594.644
580.5000	594.765
581.0000	594.891
581.5000	595.002
582.0000	595.115
582.5000	595.203
583.0000	595.355
583.5000	595.491
584.0000	595.464
584.5000	595.575
585.0000	595.612
585.5000	595.73
586.0000	595.976
586.5000	596.091
587.0000	596.265
587.5000	596.334
588.0000	596.339
588.5000	596.42
589.0000	596.488
589.5000	596.596
590.0000	596.707
590.5000	596.753
591.0000	596.867
591.5000	597.007
592.0000	597.108
592.5000	597.238
593.0000	597.357
593.5000	597.393
594.0000	597.519
594.5000	597.707
595.0000	597.808
595.5000	597.937
596.0000	598.025
596.5000	598.012
597.0000	598.121
597.5000	598.258
598.0000	598.385
598.5000	598.489
599.0000	598.514
599.5000	598.568
600.0000	598.595
600.5000	598.749
601.0000	598.913
601.5000	598.988
602.0000	599.103
602.5000	599.176
603.0000	599.235
603.5000	599.36
604.0000	599.581
604.5000	599.776
605.0000	599.841
605.5000	599.975
606.0000	599.962
606.5000	599.951
607.0000	600.092
607.5000	600.208
608.0000	600.336
608.5000	600.44
609.0000	600.558
609.5000	600.607
610.0000	600.651
610.5000	600.781
611.0000	600.8
611.5000	600.935
612.0000	601.013
612.5000	601.102
613.0000	601.254
613.5000	601.347
614.0000	601.474
614.5000	601.571
615.0000	601.671
615.5000	601.76
616.0000	601.876
616.5000	601.93
617.0000	601.998
617.5000	602.048
618.0000	602.117
618.5000	602.234
619.0000	602.381
619.5000	602.47
620.0000	602.559
620.5000	602.684
621.0000	602.721
621.5000	602.823
622.0000	602.89
622.5000	602.943
623.0000	603.043
623.5000	603.13
624.0000	603.297
624.5000	603.468
625.0000	603.593
625.5000	603.693
626.0000	603.681
626.5000	603.695
627.0000	603.769
627.5000	603.849
628.0000	604.067
628.5000	604.183
629.0000	604.305
629.5000	604.403
630.0000	604.454
630.5000	604.618
631.0000	604.67
631.5000	604.723
632.0000	604.789
632.5000	604.788
633.0000	604.952
633.5000	605.129
634.0000	605.29
634.5000	605.44
635.0000	605.499
635.5000	605.535
636.0000	605.6
636.5000	605.564
637.0000	605.613
637.5000	605.717
638.0000	605.78
638.5000	605.967
639.0000	606.197
639.5000	606.325
640.0000	606.375
640.5000	606.323
641.0000	606.254
641.5000	606.292
642.0000	606.474
642.5000	606.794
643.0000	606.854
643.5000	606.99
644.0000	607.052
644.5000	607.104
645.0000	607.214
645.5000	607.227
646.0000	607.261
646.5000	607.202
647.0000	607.384
647.5000	607.495
648.0000	607.693
648.5000	607.835
649.0000	607.957
649.5000	608.067
650.0000	608.117
650.5000	608.213
651.0000	608.238
651.5000	608.243
652.0000	608.339
652.5000	608.418
653.0000	608.443
653.5000	608.598
654.0000	608.612
654.5000	608.72
655.0000	608.837
655.5000	608.871
656.0000	608.979
656.5000	608.999
657.0000	609.11
657.5000	609.205
658.0000	609.395
658.5000	609.538
659.0000	609.556
659.5000	609.682
660.0000	609.729
660.5000	609.912
661.0000	610.109
661.5000	610.239
662.0000	610.269
662.5000	610.263
663.0000	610.295
663.5000	610.308
664.0000	610.399
664.5000	610.385
665.0000	610.458
665.5000	610.594
666.0000	610.601
666.5000	610.768
667.0000	610.874
667.5000	610.854
668.0000	611.014
668.5000	611.143
669.0000	611.127
669.5000	611.32
670.0000	611.373
670.5000	611.379
671.0000	611.556
671.5000	611.529
672.0000	611.636
672.5000	611.704
673.0000	611.695
673.5000	611.824
674.0000	611.849
674.5000	612.02
675.0000	612.206
675.5000	612.336
676.0000	612.472
676.5000	612.54
677.0000	612.58
677.5000	612.61
678.0000	612.708
678.5000	612.718
679.0000	612.781
679.5000	612.943
680.0000	612.903
680.5000	612.965
681.0000	613.103
681.5000	613.034
682.0000	613.176
682.5000	613.32
683.0000	613.354
683.5000	613.447
684.0000	613.508
684.5000	613.586
685.0000	613.72
685.5000	613.873
686.0000	614.042
686.5000	614.085
687.0000	614.094
687.5000	614.117
688.0000	614.13
688.5000	614.254
689.0000	614.319
689.5000	614.436
690.0000	614.465
690.5000	614.466
691.0000	614.533
691.5000	614.675
692.0000	614.872
692.5000	614.93
693.0000	615.021
693.5000	614.982
694.0000	614.945
694.5000	615.082
695.0000	615.161
695.5000	615.32
696.0000	615.434
696.5000	615.542
697.0000	615.662
697.5000	615.693
698.0000	615.824
698.5000	615.937
699.0000	616.021
699.5000	616.063
700.0000	616.129
700.5000	616.105
701.0000	616.174
701.5000	616.239
702.0000	616.197
702.5000	616.27
703.0000	616.318
703.5000	616.497
704.0000	616.594
704.5000	616.556
705.0000	616.623
705.5000	616.698
706.0000	616.74
706.5000	616.868
707.0000	616.857
707.5000	616.942
708.0000	617.091
708.5000	617.231
709.0000	617.333
709.5000	617.336
710.0000	617.32
710.5000	617.518
711.0000	617.654
711.5000	617.735
712.0000	617.951
712.5000	617.917
713.0000	618.023
713.5000	618.077
714.0000	618.079
714.5000	618.091
715.0000	618.07
715.5000	618.158
716.0000	618.201
716.5000	618.382
717.0000	618.413
717.5000	618.411
718.0000	618.563
718.5000	618.491
719.0000	618.551
719.5000	618.7
720.0000	618.794
720.5000	618.958
721.0000	619.138
721.5000	619.211
722.0000	619.213
722.5000	619.348
723.0000	619.333
723.5000	619.396
724.0000	619.506
724.5000	619.514
725.0000	619.698
725.5000	619.627
726.0000	619.674
726.5000	619.779
727.0000	619.774
727.5000	620.011
728.0000	620.062
728.5000	620.079
729.0000	620.167
729.5000	620.241
730.0000	620.311
730.5000	620.396
731.0000	620.458
731.5000	620.495
732.0000	620.461
732.5000	620.5
733.0000	620.602
733.5000	620.646
734.0000	620.837
734.5000	620.876
735.0000	620.852
735.5000	620.826
736.0000	620.934
736.5000	621.071
737.0000	621.156
737.5000	621.266
738.0000	621.276
738.5000	621.263
739.0000	621.293
739.5000	621.48
740.0000	621.514
740.5000	621.651
741.0000	621.879
741.5000	621.889
742.0000	621.98
742.5000	621.982
743.0000	621.945
743.5000	621.979
744.0000	622.097
744.5000	622.106
745.0000	622.168
745.5000	622.242
746.0000	622.211
746.5000	622.433
747.0000	622.668
747.5000	622.663
748.0000	622.851
748.5000	622.858
749.0000	622.786
749.5000	622.853
750.0000	622.805
750.5000	622.891
751.0000	622.911
751.5000	623.038
752.0000	623.14
752.5000	623.137
753.0000	623.197
753.5000	623.206
754.0000	623.212
754.5000	623.283
755.0000	623.319
755.5000	623.472
756.0000	623.597
756.5000	623.68
757.0000	623.774
757.5000	623.864
758.0000	623.961
758.5000	624.008
759.0000	624.078
759.5000	624.119
760.0000	624.147
760.5000	624.204
761.0000	624.291
761.5000	624.331
762.0000	624.452
762.5000	624.612
763.0000	624.636
763.5000	624.732
764.0000	624.765
764.5000	624.744
765.0000	624.821
765.5000	624.878
766.0000	624.854
766.5000	624.996
767.0000	625.08
767.5000	625.189
768.0000	625.297
768.5000	625.293
769.0000	625.416
769.5000	625.408
770.0000	625.538
770.5000	625.624
771.0000	625.678
771.5000	625.737
772.0000	625.815
772.5000	625.768
773.0000	625.778
773.5000	625.834
774.0000	625.893
774.5000	626.071
775.0000	626.206
775.5000	626.28
776.0000	626.274
776.5000	626.233
777.0000	626.258
777.5000	626.327
778.0000	626.412
778.5000	626.584
779.0000	626.603
779.5000	626.635
780.0000	626.606
780.5000	626.619
781.0000	626.698
781.5000	626.915
782.0000	627.047
782.5000	627.103
783.0000	627.152
783.5000	627.08
784.0000	627.074
784.5000	627.189
785.0000	627.235
785.5000	627.372
786.0000	627.548
786.5000	627.595
787.0000	627.664
787.5000	627.751
788.0000	627.747
788.5000	627.813
789.0000	627.862
789.5000	627.806
790.0000	627.911
790.5000	627.907
791.0000	628.019
791.5000	628.186
792.0000	628.323
792.5000	628.391
793.0000	628.381
793.5000	628.327
794.0000	628.274
794.5000	628.412
795.0000	628.478
795.5000	628.569
796.0000	628.69
796.5000	628.713
797.0000	628.758
797.5000	628.86
798.0000	628.883
798.5000	628.921
799.0000	629.034
799.5000	629.042
800.0000	629.098
800.5000	629.275
801.0000	629.371
801.5000	629.455
802.0000	629.532
802.5000	629.51
803.0000	629.482
803.5000	629.52
804.0000	629.581
804.5000	629.627
805.0000	629.7
805.5000	629.735
806.0000	629.731
806.5000	629.813
807.0000	629.92
807.5000	629.97
808.0000	630.013
808.5000	629.99
809.0000	630.078
809.5000	630.08
810.0000	630.15
810.5000	630.237
811.0000	630.276
811.5000	630.431
812.0000	630.553
812.5000	630.588
813.0000	630.673
813.5000	630.694
814.0000	630.579
814.5000	630.749
815.0000	630.893
815.5000	630.951
816.0000	631.198
816.5000	631.215
817.0000	631.163
817.5000	631.193
818.0000	631.19
818.5000	631.232
819.0000	631.181
819.5000	631.356
820.0000	631.377
820.5000	631.425
821.0000	631.574
821.5000	631.582
822.0000	631.602
822.5000	631.61
823.0000	631.665
823.5000	631.703
824.0000	631.815
824.5000	631.973
825.0000	632.089
825.5000	632.092
826.0000	632.156
826.5000	632.168
827.0000	632.085
827.5000	632.171
828.0000	632.222
828.5000	632.281
829.0000	632.269
829.5000	632.264
830.0000	632.314
830.5000	632.22
831.0000	632.332
831.5000	632.459
832.0000	632.486
832.5000	632.62
833.0000	632.746
833.5000	632.781
834.0000	632.899
834.5000	632.937
835.0000	632.82
835.5000	632.839
836.0000	632.834
836.5000	632.921
837.0000	633.007
837.5000	633.135
838.0000	633.183
838.5000	633.249
839.0000	633.317
839.5000	633.319
840.0000	633.361
840.5000	633.393
841.0000	633.457
841.5000	633.463
842.0000	633.479
842.5000	633.45
843.0000	633.501
843.5000	633.599
844.0000	633.628
844.5000	633.7
845.0000	633.764
845.5000	633.744
846.0000	633.71
846.5000	633.746
847.0000	633.749
847.5000	633.768
848.0000	633.911
848.5000	633.98
849.0000	634.039
849.5000	634.11
850.0000	634.143
850.5000	634.215
851.0000	634.23
851.5000	634.253
852.0000	634.373
852.5000	634.366
853.0000	634.401
853.5000	634.423
854.0000	634.404
854.5000	634.422
855.0000	634.555
855.5000	634.692
856.0000	634.695
856.5000	634.839
857.0000	634.943
857.5000	634.928
858.0000	634.969
858.5000	634.931
859.0000	634.879
859.5000	634.879
860.0000	634.998
860.5000	635.035
861.0000	635.022
861.5000	635.169
862.0000	635.109
862.5000	635.147
863.0000	635.188
863.5000	635.185
864.0000	635.306
864.5000	635.438
865.0000	635.509
865.5000	635.485
866.0000	635.469
866.5000	635.456
867.0000	635.486
867.5000	635.581
868.0000	635.779
868.5000	635.791
869.0000	635.958
869.5000	636.021
870.0000	635.95
870.5000	636.091
871.0000	636.133
871.5000	636.179
872.0000	636.259
872.5000	636.233
873.0000	636.185
873.5000	636.273
874.0000	636.276
874.5000	636.407
875.0000	636.545
875.5000	636.534
876.0000	636.616
876.5000	636.736
877.0000	636.687
877.5000	636.748
878.0000	636.706
878.5000	636.518
879.0000	636.554
879.5000	636.58
880.0000	636.697
880.5000	636.847
881.0000	636.948
881.5000	637.003
882.0000	636.994
882.5000	636.961
883.0000	637.024
883.5000	637.066
884.0000	637.108
884.5000	637.196
885.0000	637.138
885.5000	637.276
886.0000	637.385
886.5000	637.53
887.0000	637.67
887.5000	637.705
888.0000	637.799
888.5000	637.841
889.0000	637.859
889.5000	637.931
890.0000	638.006
890.5000	637.93
891.0000	638.097
891.5000	638.008
892.0000	637.918
892.5000	638.014
893.0000	637.948
893.5000	638.082
894.0000	638.212
894.5000	638.24
895.0000	638.182
895.5000	638.18
896.0000	638.14
896.5000	638.165
897.0000	638.306
897.5000	638.263
898.0000	638.334
898.5000	638.466
899.0000	638.45
899.5000	638.638
900.0000	638.653
900.5000	638.639
901.0000	638.766
901.5000	638.689
902.0000	638.783
902.5000	638.766
903.0000	638.756
903.5000	638.825
904.0000	638.862
904.5000	639.022
905.0000	639.027
905.5000	639.046
906.0000	639.14
906.5000	639.131
907.0000	639.11
907.5000	639.247
908.0000	639.208
908.5000	639.332
909.0000	639.466
909.5000	639.508
910.0000	639.612
910.5000	639.522
911.0000	639.607
911.5000	639.596
912.0000	639.593
912.5000	639.654
913.0000	639.593
913.5000	639.638
914.0000	639.617
914.5000	639.656
915.0000	639.794
915.5000	639.756
916.0000	639.861
916.5000	639.9
917.0000	639.879
917.5000	640.031
918.0000	640.058
918.5000	640.182
919.0000	640.193
919.5000	640.215
920.0000	640.302
920.5000	640.276
921.0000	640.313
921.5000	640.371
922.0000	640.359
922.5000	640.371
923.0000	640.52
923.5000	640.579
924.0000	640.732
924.5000	640.737
925.0000	640.861
925.5000	640.839
926.0000	640.76
926.5000	640.827
927.0000	640.773
927.5000	640.802
928.0000	640.877
928.5000	640.915
929.0000	640.958
929.5000	641.07
930.0000	641.173
930.5000	641.149
931.0000	641.199
931.5000	641.185
932.0000	641.055
932.5000	641.227
933.0000	641.241
933.5000	641.281
934.0000	641.455
934.5000	641.404
935.0000	641.458
935.5000	641.489
936.0000	641.487
936.5000	641.56
937.0000	641.583
937.5000	641.647
938.0000	641.711
938.5000	641.802
939.0000	641.94
939.5000	641.925
940.0000	641.97
940.5000	641.969
941.0000	641.854
941.5000	641.947
942.0000	641.918
942.5000	641.932
943.0000	641.896
943.5000	641.933
944.0000	642.038
944.5000	642.203
945.0000	642.38
945.5000	642.382
946.0000	642.31
946.5000	642.281
947.0000	642.269
947.5000	642.345
948.0000	642.547
948.5000	642.591
949.0000	642.558
949.5000	642.609
950.0000	642.569
950.5000	642.516
951.0000	642.662
951.5000	642.697
952.0000	642.663
952.5000	642.804
953.0000	642.923
953.5000	642.903
954.0000	643.051
954.5000	643.033
955.0000	642.994
955.5000	643.129
956.0000	643.051
956.5000	643.079
957.0000	643.103
957.5000	643.125
958.0000	643.259
958.5000	643.287
959.0000	643.406
959.5000	643.389
960.0000	643.36
960.5000	643.489
961.0000	643.44
961.5000	643.52
962.0000	643.621
962.5000	643.554
963.0000	643.578
963.5000	643.62
964.0000	643.615
964.5000	643.745
965.0000	643.797
965.5000	643.859
966.0000	643.943
966.5000	643.925
967.0000	643.97
967.5000	643.993
968.0000	644.009
968.5000	644.023
969.0000	644.123
969.5000	644.206
970.0000	644.219
970.5000	644.319
971.0000	644.36
971.5000	644.38
972.0000	644.434
972.5000	644.445
973.0000	644.436
973.5000	644.418
974.0000	644.474
974.5000	644.595
975.0000	644.677
975.5000	644.709
976.0000	644.798
976.5000	644.737
977.0000	644.739
977.5000	644.774
978.0000	644.716
978.5000	644.832
979.0000	644.862
979.5000	644.968
980.0000	645.046
980.5000	645.07
981.0000	645.061
981.5000	645.061
982.0000	644.959
982.5000	644.906
983.0000	644.972
983.5000	645.018
984.0000	645.164
984.5000	645.177
985.0000	645.275
985.5000	645.243
986.0000	645.294
986.5000	645.312
987.0000	645.3
987.5000	645.448
988.0000	645.527
988.5000	645.596
989.0000	645.542
989.5000	645.514
990.0000	645.496
990.5000	645.533
991.0000	645.64
991.5000	645.716
992.0000	645.79
992.5000	645.909
993.0000	645.973
993.5000	645.938
994.0000	645.884
994.5000	645.941
995.0000	645.953
995.5000	645.977
996.0000	646.206
996.5000	646.203
997.0000	646.279
997.5000	646.436
998.0000	646.369
998.5000	646.376
999.0000	646.459
999.5000	646.45
1000.0000	646.455
1000.5000	646.575
1001.0000	646.486
1001.5000	646.508
1002.0000	646.528
1002.5000	646.567
1003.0000	646.69
1003.5000	646.704
1004.0000	646.738
1004.5000	646.7
1005.0000	646.672
1005.5000	646.752
1006.0000	646.816
1006.5000	646.938
1007.0000	647.034
1007.5000	646.981
1008.0000	647.067
1008.5000	647.017
1009.0000	646.952
1009.5000	647.022
1010.0000	647.059
1010.5000	647.075
1011.0000	647.219
1011.5000	647.271
1012.0000	647.257
1012.5000	647.336
1013.0000	647.337
1013.5000	647.339
1014.0000	647.369
1014.5000	647.391
1015.0000	647.422
1015.5000	647.447
1016.0000	647.468
1016.5000	647.554
1017.0000	647.478
1017.5000	647.505
1018.0000	647.593
1018.5000	647.585
1019.0000	647.718
1019.5000	647.806
1020.0000	647.729
1020.5000	647.658
1021.0000	647.598
1021.5000	647.625
1022.0000	647.742
1022.5000	647.843
1023.0000	647.918
1023.5000	647.815
1024.0000	647.751
1024.5000	647.804
1025.0000	647.786
1025.5000	647.923
1026.0000	648.036
1026.5000	648.004
1027.0000	648.089
1027.5000	648.176
1028.0000	648.175
1028.5000	648.08
1029.0000	648.11
1029.5000	648.075
1030.0000	648.042
1030.5000	648.229
1031.0000	648.363
1031.5000	648.281
1032.0000	648.366
1032.5000	648.33
1033.0000	648.26
1033.5000	648.466
1034.0000	648.628
1034.5000	648.619
1035.0000	648.667
1035.5000	648.606
1036.0000	648.548
1036.5000	648.657
1037.0000	648.611
1037.5000	648.538
1038.0000	648.479
1038.5000	648.561
1039.0000	648.625
1039.5000	648.802
1040.0000	648.849
1040.5000	648.817
1041.0000	648.849
1041.5000	648.817
1042.0000	648.915
1042.5000	648.969
1043.0000	649.11
1043.5000	649.188
1044.0000	649.133
1044.5000	649.06
1045.0000	648.944
1045.5000	648.876
1046.0000	648.965
1046.5000	649.05
1047.0000	649.023
1047.5000	649.095
1048.0000	649.065
1048.5000	649.107
1049.0000	649.242
1049.5000	649.176
1050.0000	649.301
1050.5000	649.295
1051.0000	649.364
1051.5000	649.458
1052.0000	649.525
1052.5000	649.69
1053.0000	649.653
1053.5000	649.755
1054.0000	649.707
1054.5000	649.642
1055.0000	649.707
1055.5000	649.694
1056.0000	649.679
1056.5000	649.711
1057.0000	649.703
1057.5000	649.798
1058.0000	649.905
1058.5000	649.904
1059.0000	649.926
1059.5000	649.857
1060.0000	649.796
1060.5000	649.912
1061.0000	649.995
1061.5000	650.071
1062.0000	650.166
1062.5000	650.119
1063.0000	650.085
1063.5000	650.085
1064.0000	650.052
1064.5000	650.113
1065.0000	650.221
1065.5000	650.32
1066.0000	650.383
1066.5000	650.427
1067.0000	650.415
1067.5000	650.352
1068.0000	650.39
1068.5000	650.374
1069.0000	650.392
1069.5000	650.459
1070.0000	650.425
1070.5000	650.47
1071.0000	650.606
1071.5000	650.627
1072.0000	650.727
1072.5000	650.882
1073.0000	650.825
1073.5000	650.868
1074.0000	650.917
1074.5000	650.866
1075.0000	650.944
1075.5000	651.057
1076.0000	650.965
1076.5000	650.945
1077.0000	650.96
1077.5000	650.806
1078.0000	650.989
1078.5000	650.983
1079.0000	650.959
1079.5000	651.115
1080.0000	651.102
1080.5000	651.211
1081.0000	651.301
1081.5000	651.413
1082.0000	651.455
1082.5000	651.444
1083.0000	651.508
1083.5000	651.493
1084.0000	651.427
1084.5000	651.522
1085.0000	651.42
1085.5000	651.442
1086.0000	651.508
1086.5000	651.365
1087.0000	651.449
1087.5000	651.552
1088.0000	651.748
1088.5000	652.011
1089.0000	652.038
1089.5000	651.936
1090.0000	652.001
1090.5000	651.913
1091.0000	651.911
1091.5000	651.944
1092.0000	651.833
1092.5000	651.797
1093.0000	652.025
1093.5000	652.03
1094.0000	652.032
1094.5000	652.223
1095.0000	651.988
1095.5000	652.049
1096.0000	652.102
1096.5000	652.056
1097.0000	652.196
1097.5000	652.258
1098.0000	652.256
1098.5000	652.304
1099.0000	652.39
1099.5000	652.38
1100.0000	652.389
1100.5000	652.535
1101.0000	652.495
1101.5000	652.55
1102.0000	652.613
1102.5000	652.501
1103.0000	652.597
1103.5000	652.585
1104.0000	652.618
1104.5000	652.635
1105.0000	652.633
1105.5000	652.716
1106.0000	652.694
1106.5000	652.726
1107.0000	652.708
1107.5000	652.693
1108.0000	652.726
1108.5000	652.838
1109.0000	652.855
1109.5000	652.939
1110.0000	653.027
1110.5000	653.025
1111.0000	653.001
1111.5000	652.966
1112.0000	652.981
1112.5000	652.961
1113.0000	653.072
1113.5000	653.172
1114.0000	653.196
1114.5000	653.205
1115.0000	653.318
1115.5000	653.309
1116.0000	653.422
1116.5000	653.497
1117.0000	653.473
1117.5000	653.548
1118.0000	653.414
1118.5000	653.43
1119.0000	653.415
1119.5000	653.373
1120.0000	653.591
1120.5000	653.638
1121.0000	653.652
1121.5000	653.684
1122.0000	653.589
1122.5000	653.575
1123.0000	653.703
1123.5000	653.737
1124.0000	653.731
1124.5000	653.807
1125.0000	653.815
1125.5000	653.886
1126.0000	653.944
1126.5000	653.969
1127.0000	653.86
1127.5000	653.904
1128.0000	653.941
1128.5000	653.914
1129.0000	654.109
1129.5000	654.069
1130.0000	654.066
1130.5000	654.08
1131.0000	654.046
1131.5000	653.995
1132.0000	654.064
1132.5000	654.109
1133.0000	654.119
1133.5000	654.193
1134.0000	654.165
1134.5000	654.221
1135.0000	654.132
1135.5000	654.263
1136.0000	654.363
1136.5000	654.367
1137.0000	654.522
1137.5000	654.476
1138.0000	654.439
1138.5000	654.469
1139.0000	654.419
1139.5000	654.44
1140.0000	654.557
1140.5000	654.643
1141.0000	654.756
1141.5000	654.836
1142.0000	654.852
1142.5000	654.82
1143.0000	654.775
1143.5000	654.757
1144.0000	654.764
1144.5000	654.75
1145.0000	654.864
1145.5000	654.826
1146.0000	654.833
1146.5000	654.931
1147.0000	654.893
1147.5000	655.011
1148.0000	655.035
1148.5000	655.114
1149.0000	655.056
1149.5000	655.06
1150.0000	655.119
1150.5000	655.089
1151.0000	655.236
1151.5000	655.309
1152.0000	655.381
1152.5000	655.399
1153.0000	655.316
1153.5000	655.333
1154.0000	655.216
1154.5000	655.256
1155.0000	655.268
1155.5000	655.217
1156.0000	655.294
1156.5000	655.337
1157.0000	655.454
1157.5000	655.459
1158.0000	655.478
1158.5000	655.426
1159.0000	655.447
1159.5000	655.55
1160.0000	655.612
1160.5000	655.623
1161.0000	655.622
1161.5000	655.533
1162.0000	655.421
1162.5000	655.465
1163.0000	655.465
1163.5000	655.459
1164.0000	655.5
1164.5000	655.573
1165.0000	655.649
1165.5000	655.772
1166.0000	655.781
1166.5000	655.741
1167.0000	655.798
1167.5000	655.715
1168.0000	655.823
1168.5000	655.823
1169.0000	655.74
1169.5000	655.784
1170.0000	655.791
1170.5000	655.762
1171.0000	655.844
1171.5000	655.883
1172.0000	655.893
1172.5000	655.961
1173.0000	655.927
1173.5000	656.089
1174.0000	656.086
1174.5000	656.007
1175.0000	656.007
1175.5000	655.901
1176.0000	655.886
1176.5000	656.023
1177.0000	656.182
1177.5000	656.313
1178.0000	656.442
1178.5000	656.451
1179.0000	656.375
1179.5000	656.288
1180.0000	656.23
1180.5000	656.268
1181.0000	656.254
1181.5000	656.231
1182.0000	656.214
1182.5000	656.239
1183.0000	656.335
1183.5000	656.434
1184.0000	656.474
1184.5000	656.568
1185.0000	656.529
1185.5000	656.568
1186.0000	656.536
1186.5000	656.418
1187.0000	656.521
1187.5000	656.559
1188.0000	656.589
1188.5000	656.649
1189.0000	656.527
1189.5000	656.416
1190.0000	656.573
1190.5000	656.594
1191.0000	656.637
1191.5000	656.73
1192.0000	656.674
1192.5000	656.629
1193.0000	656.655
1193.5000	656.677
1194.0000	656.697
1194.5000	656.731
1195.0000	656.789
1195.5000	656.747
1196.0000	656.763
1196.5000	656.882
1197.0000	656.915
1197.5000	656.955
1198.0000	656.971
1198.5000	656.971
1199.0000	656.964
1199.5000	657.025
1200.0000	657.021
1200.5000	656.981
1201.0000	656.878
1201.5000	656.904
1202.0000	656.872
1202.5000	656.956
1203.0000	657.092
1203.5000	657.102
1204.0000	657.167
1204.5000	657.165
1205.0000	657.166
1205.5000	657.147
1206.0000	657.18
1206.5000	657.147
1207.0000	657.133
1207.5000	657.209
1208.0000	657.196
1208.5000	657.31
1209.0000	657.35
1209.5000	657.412
1210.0000	657.494
1210.5000	657.51
1211.0000	657.587
1211.5000	657.521
1212.0000	657.566
1212.5000	657.51
1213.0000	657.49
1213.5000	657.395
1214.0000	657.302
1214.5000	657.348
1215.0000	657.459
1215.5000	657.578
1216.0000	657.571
1216.5000	657.587
1217.0000	657.607
1217.5000	657.636
1218.0000	657.695
1218.5000	657.663
1219.0000	657.56
1219.5000	657.485
1220.0000	657.539
1220.5000	657.509
1221.0000	657.592
1221.5000	657.78
1222.0000	657.778
1222.5000	657.923
1223.0000	657.97
1223.5000	657.932
1224.0000	657.996
1224.5000	657.952
1225.0000	657.963
1225.5000	658.03
1226.0000	657.964
1226.5000	658.026
1227.0000	658.113
1227.5000	658.093
1228.0000	658.202
1228.5000	658.2
1229.0000	658.146
1229.5000	658.139
1230.0000	658.128
1230.5000	658.161
1231.0000	658.13
1231.5000	658.165
1232.0000	658.184
1232.5000	658.209
1233.0000	658.336
1233.5000	658.333
1234.0000	658.372
1234.5000	658.318
1235.0000	658.339
1235.5000	658.35
1236.0000	658.447
1236.5000	658.558
1237.0000	658.586
1237.5000	658.723
1238.0000	658.739
1238.5000	658.782
1239.0000	658.686
1239.5000	658.635
1240.0000	658.596
1240.5000	658.599
1241.0000	658.704
1241.5000	658.676
1242.0000	658.731
1242.5000	658.74
1243.0000	658.826
1243.5000	658.926
1244.0000	659.059
1244.5000	659.198
1245.0000	659.229
1245.5000	659.229
1246.0000	659.209
1246.5000	659.126
1247.0000	659.114
1247.5000	659.151
1248.0000	659.145
1248.5000	659.147
1249.0000	659.207
1249.5000	659.255
1250.0000	659.238
1250.5000	659.336
1251.0000	659.255
1251.5000	659.269
1252.0000	659.337
1252.5000	659.264
1253.0000	659.353
1253.5000	659.397
1254.0000	659.336
1254.5000	659.377
1255.0000	659.258
1255.5000	659.303
1256.0000	659.47
1256.5000	659.551
1257.0000	659.602
1257.5000	659.583
1258.0000	659.601
1258.5000	659.604
1259.0000	659.747
1259.5000	659.724
1260.0000	659.581
1260.5000	659.709
1261.0000	659.65
1261.5000	659.712
1262.0000	659.824
1262.5000	659.827
1263.0000	659.869
1263.5000	659.977
1264.0000	660.086
1264.5000	660.023
1265.0000	660.089
1265.5000	660.004
1266.0000	659.89
1266.5000	659.959
1267.0000	659.996
1267.5000	660.076
1268.0000	660.199
1268.5000	660.248
1269.0000	660.245
1269.5000	660.298
1270.0000	660.348
1270.5000	660.357
1271.0000	660.372
1271.5000	660.363
1272.0000	660.348
1272.5000	660.394
1273.0000	660.378
1273.5000	660.391
1274.0000	660.397
1274.5000	660.406
1275.0000	660.567
1275.5000	660.631
1276.0000	660.725
1276.5000	660.721
1277.0000	660.701
1277.5000	660.755
1278.0000	660.766
1278.5000	660.771
1279.0000	660.78
1279.5000	660.806
1280.0000	660.751
1280.5000	660.858
1281.0000	660.906
1281.5000	660.85
1282.0000	660.895
1282.5000	660.863
1283.0000	661.006
1283.5000	661.173
1284.0000	661.136
1284.5000	661.184
1285.0000	661.185
1285.5000	661.123
1286.0000	661.185
1286.5000	661.21
1287.0000	661.188
1287.5000	661.229
1288.0000	661.305
1288.5000	661.414
1289.0000	661.456
1289.5000	661.379
1290.0000	661.503
1290.5000	661.423
1291.0000	661.369
1291.5000	661.506
1292.0000	661.482
1292.5000	661.495
1293.0000	661.522
1293.5000	661.543
1294.0000	661.512
1294.5000	661.666
1295.0000	661.783
1295.5000	661.758
1296.0000	661.789
1296.5000	661.715
1297.0000	661.644
1297.5000	661.716
1298.0000	661.75
1298.5000	661.845
1299.0000	661.833
1299.5000	661.898
1300.0000	661.842
1300.5000	661.744
1301.0000	661.909
1301.5000	661.914
1302.0000	662.09
1302.5000	662.184
1303.0000	662.144
1303.5000	662.133
1304.0000	662.12
1304.5000	662.092
1305.0000	662.047
1305.5000	661.994
1306.0000	661.913
1306.5000	661.97
1307.0000	662.034
1307.5000	662.185
1308.0000	662.238
1308.5000	662.295
1309.0000	662.335
1309.5000	662.355
1310.0000	662.359
1310.5000	662.312
1311.0000	662.361
1311.5000	662.286
1312.0000	662.35
1312.5000	662.406
1313.0000	662.355
1313.5000	662.416
1314.0000	662.45
1314.5000	662.401
1315.0000	662.475
1315.5000	662.471
1316.0000	662.531
1316.5000	662.639
1317.0000	662.706
1317.5000	662.746
1318.0000	662.801
1318.5000	662.854
1319.0000	662.768
1319.5000	662.829
1320.0000	662.797
1320.5000	662.721
1321.0000	662.739
1321.5000	662.809
1322.0000	662.825
1322.5000	662.918
1323.0000	662.94
1323.5000	662.912
1324.0000	662.878
1324.5000	662.896
1325.0000	663.015
1325.5000	663.065
1326.0000	663.084
1326.5000	663.031
1327.0000	663.031
1327.5000	663.019
1328.0000	663.076
1328.5000	663.209
1329.0000	663.179
1329.5000	663.229
1330.0000	663.33
1330.5000	663.26
1331.0000	663.23
1331.5000	663.177
1332.0000	663.104
1332.5000	663.164
1333.0000	663.31
1333.5000	663.276
1334.0000	663.291
1334.5000	663.269
1335.0000	663.271
1335.5000	663.334
1336.0000	663.404
1336.5000	663.546
1337.0000	663.497
1337.5000	663.52
1338.0000	663.572
1338.5000	663.559
1339.0000	663.636
1339.5000	663.644
1340.0000	663.729
1340.5000	663.635
1341.0000	663.65
1341.5000	663.761
1342.0000	663.64
1342.5000	663.71
1343.0000	663.665
1343.5000	663.617
1344.0000	663.643
1344.5000	663.562
1345.0000	663.558
1345.5000	663.562
1346.0000	663.521
1346.5000	663.622
1347.0000	663.659
1347.5000	663.676
1348.0000	663.73
1348.5000	663.763
1349.0000	663.858
1349.5000	663.87
1350.0000	663.93
1350.5000	663.929
1351.0000	663.826
1351.5000	663.941
1352.0000	663.997
1352.5000	664.066
1353.0000	664.085
1353.5000	664.048
1354.0000	663.99
1354.5000	663.946
1355.0000	664.026
1355.5000	663.954
1356.0000	663.995
1356.5000	663.927
1357.0000	663.961
1357.5000	663.913
1358.0000	663.884
1358.5000	664.032
1359.0000	663.96
1359.5000	664.122
1360.0000	664.181
1360.5000	664.138
1361.0000	664.141
1361.5000	664.193
1362.0000	664.126
1362.5000	664.072
1363.0000	664.16
1363.5000	664.017
1364.0000	664.052
1364.5000	664.071
1365.0000	664.071
1365.5000	664.235
1366.0000	664.22
1366.5000	664.3
1367.0000	664.276
1367.5000	664.166
1368.0000	664.263
1368.5000	664.194
1369.0000	664.227
1369.5000	664.231
1370.0000	664.097
1370.5000	664.185
1371.0000	664.205
1371.5000	664.244
1372.0000	664.268
1372.5000	664.224
1373.0000	664.181
1373.5000	664.188
1374.0000	664.209
1374.5000	664.314
1375.0000	664.471
1375.5000	664.453
1376.0000	664.537
1376.5000	664.465
1377.0000	664.383
1377.5000	664.371
1378.0000	664.453
1378.5000	664.493
1379.0000	664.45
1379.5000	664.565
1380.0000	664.534
1380.5000	664.519
1381.0000	664.567
1381.5000	664.559
1382.0000	664.532
1382.5000	664.546
1383.0000	664.588
1383.5000	664.628
1384.0000	664.576
1384.5000	664.58
1385.0000	664.591
1385.5000	664.613
1386.0000	664.733
1386.5000	664.798
1387.0000	664.766
1387.5000	664.717
1388.0000	664.717
1388.5000	664.697
1389.0000	664.66
1389.5000	664.63
1390.0000	664.625
1390.5000	664.637
1391.0000	664.705
1391.5000	664.677
1392.0000	664.686
1392.5000	664.755
1393.0000	664.697
1393.5000	664.782
1394.0000	664.766
1394.5000	664.668
1395.0000	664.724
1395.5000	664.728
1396.0000	664.692
1396.5000	664.685
1397.0000	664.761
1397.5000	664.828
1398.0000	664.847
1398.5000	664.862
1399.0000	664.756
1399.5000	664.746
1400.0000	664.872
1400.5000	664.868
1401.0000	664.992
1401.5000	664.972
1402.0000	665.077
1402.5000	665.253
1403.0000	665.192
1403.5000	665.255
1404.0000	665.089
1404.5000	664.949
1405.0000	665.042
1405.5000	664.998
1406.0000	665
1406.5000	665.044
1407.0000	665.023
1407.5000	665.077
1408.0000	665.122
1408.5000	665.216
1409.0000	665.208
1409.5000	665.208
1410.0000	665.2
1410.5000	665.201
1411.0000	665.196
1411.5000	665.131
1412.0000	665.194
1412.5000	665.188
1413.0000	665.289
1413.5000	665.368
1414.0000	665.309
1414.5000	665.368
1415.0000	665.269
1415.5000	665.303
1416.0000	665.329
1416.5000	665.211
1417.0000	665.215
1417.5000	665.25
1418.0000	665.367
1418.5000	665.35
1419.0000	665.492
1419.5000	665.479
1420.0000	665.405
1420.5000	665.584
1421.0000	665.639
1421.5000	665.506
1422.0000	665.537
1422.5000	665.467
1423.0000	665.395
1423.5000	665.535
1424.0000	665.529
1424.5000	665.574
1425.0000	665.595
1425.5000	665.617
1426.0000	665.641
1426.5000	665.648
1427.0000	665.613
1427.5000	665.609
1428.0000	665.698
1428.5000	665.68
1429.0000	665.762
1429.5000	665.891
1430.0000	665.903
1430.5000	666.012
1431.0000	666.001
1431.5000	665.923
1432.0000	665.8
1432.5000	665.83
1433.0000	665.81
1433.5000	665.767
1434.0000	665.918
1434.5000	665.946
1435.0000	666.027
1435.5000	666.134
1436.0000	666.07
1436.5000	665.951
1437.0000	665.835
1437.5000	665.85
1438.0000	665.929
1438.5000	665.875
1439.0000	666.009
1439.5000	665.974
1440.0000	665.948
1440.5000	666.173
1441.0000	666.183
1441.5000	666.156
1442.0000	666.202
1442.5000	666.122
1443.0000	666.09
1443.5000	666.112
1444.0000	666.153
1444.5000	666.229
1445.0000	666.326
1445.5000	666.34
1446.0000	666.321
1446.5000	666.283
1447.0000	666.295
1447.5000	666.335
1448.0000	666.313
1448.5000	666.297
1449.0000	666.224
1449.5000	666.327
1450.0000	666.375
1450.5000	666.392
1451.0000	666.464
1451.5000	666.349
1452.0000	666.315
1452.5000	666.407
1453.0000	666.411
1453.5000	666.442
1454.0000	666.456
1454.5000	666.384
1455.0000	666.428
1455.5000	666.544
1456.0000	666.568
1456.5000	666.554
1457.0000	666.479
1457.5000	666.338
1458.0000	666.407
1458.5000	666.401
1459.0000	666.52
1459.5000	666.588
1460.0000	666.418
1460.5000	666.429
1461.0000	666.311
1461.5000	666.318
1462.0000	666.541
1462.5000	666.641
1463.0000	666.666
1463.5000	666.694
1464.0000	666.566
1464.5000	666.517
1465.0000	666.565
1465.5000	666.528
1466.0000	666.618
1466.5000	666.59
1467.0000	666.628
1467.5000	666.544
1468.0000	666.497
1468.5000	666.539
1469.0000	666.425
1469.5000	666.61
1470.0000	666.636
1470.5000	666.683
1471.0000	666.755
1471.5000	666.781
1472.0000	666.755
1472.5000	666.803
1473.0000	666.881
1473.5000	666.961
1474.0000	667.024
1474.5000	666.911
1475.0000	666.865
1475.5000	666.779
1476.0000	666.745
1476.5000	666.742
1477.0000	666.811
1477.5000	666.748
1478.0000	666.715
1478.5000	666.757
1479.0000	666.741
1479.5000	666.669
1480.0000	666.747
1480.5000	666.769
1481.0000	666.771
1481.5000	666.823
1482.0000	666.931
1482.5000	667.026
1483.0000	666.944
1483.5000	667.027
1484.0000	666.878
1484.5000	666.765
1485.0000	666.706
1485.5000	666.66
1486.0000	666.763
1486.5000	666.768
1487.0000	666.971
1487.5000	667.042
1488.0000	667.043
1488.5000	667.144
1489.0000	667.082
1489.5000	667.091
1490.0000	666.975
1490.5000	666.896
1491.0000	666.82
1491.5000	666.803
1492.0000	666.876
1492.5000	666.837
1493.0000	666.785
1493.5000	666.776
1494.0000	666.798
1494.5000	666.877
1495.0000	667.059
1495.5000	667.061
1496.0000	667.031
1496.5000	667.083
1497.0000	666.961
1497.5000	666.932
1498.0000	666.979
1498.5000	666.998
1499.0000	667.065
1499.5000	667.091
1500.0000	667.168
1500.5000	667.046
1501.0000	667.108
1501.5000	667.166
1502.0000	667.078
1502.5000	667.229
1503.0000	667.25
1503.5000	667.269
1504.0000	667.215
1504.5000	667.169
1505.0000	667.158
1505.5000	667.123
1506.0000	667.197
1506.5000	667.192
1507.0000	667.1
1507.5000	667.022
1508.0000	666.99
1508.5000	667.017
1509.0000	666.92
1509.5000	666.956
1510.0000	667.055
1510.5000	667.1
1511.0000	667.23
1511.5000	667.224
1512.0000	667.124
1512.5000	667.014
1513.0000	667.099
1513.5000	667.155
1514.0000	667.177
1514.5000	667.191
1515.0000	667.263
1515.5000	667.248
1516.0000	667.199
1516.5000	667.307
1517.0000	667.138
1517.5000	667.158
1518.0000	667.321
1518.5000	667.308
1519.0000	667.345
1519.5000	667.234
1520.0000	667.213
1520.5000	667.158
1521.0000	667.231
1521.5000	667.361
1522.0000	667.308
1522.5000	667.397
1523.0000	667.278
1523.5000	667.261
1524.0000	667.31
1524.5000	667.204
1525.0000	667.235
1525.5000	667.214
1526.0000	667.123
1526.5000	667.089
1527.0000	667.1
1527.5000	667.133
1528.0000	667.174
1528.5000	667.21
1529.0000	667.316
1529.5000	667.237
1530.0000	667.185
1530.5000	667.242
1531.0000	667.209
1531.5000	667.254
1532.0000	667.367
1532.5000	667.47
1533.0000	667.407
1533.5000	667.457
1534.0000	667.451
1534.5000	667.412
1535.0000	667.517
1535.5000	667.47
1536.0000	667.461
1536.5000	667.493
1537.0000	667.469
1537.5000	667.51
1538.0000	667.48
1538.5000	667.424
1539.0000	667.43
1539.5000	667.464
1540.0000	667.53
1540.5000	667.522
1541.0000	667.5
1541.5000	667.594
1542.0000	667.574
1542.5000	667.571
1543.0000	667.621
1543.5000	667.517
1544.0000	667.537
1544.5000	667.582
1545.0000	667.589
1545.5000	667.531
1546.0000	667.549
1546.5000	667.554
1547.0000	667.58
1547.5000	667.705
1548.0000	667.701
1548.5000	667.734
1549.0000	667.674
1549.5000	667.646
1550.0000	667.529
1550.5000	667.574
1551.0000	667.674
1551.5000	667.639
1552.0000	667.754
1552.5000	667.689
1553.0000	667.696
1553.5000	667.721
1554.0000	667.828
1554.5000	667.828
1555.0000	667.786
1555.5000	667.959
1556.0000	667.85
1556.5000	667.796
1557.0000	667.762
1557.5000	667.634
1558.0000	667.66
1558.5000	667.708
1559.0000	667.807
1559.5000	667.814
1560.0000	667.753
1560.5000	667.704
1561.0000	667.565
1561.5000	667.529
1562.0000	667.627
1562.5000	667.733
1563.0000	667.862
1563.5000	667.879
1564.0000	667.895
1564.5000	667.864
1565.0000	667.793
1565.5000	667.87
1566.0000	667.844
1566.5000	667.77
1567.0000	667.826
1567.5000	667.794
1568.0000	667.747
1568.5000	667.724
1569.0000	667.714
1569.5000	667.661
1570.0000	667.743
1570.5000	667.821
1571.0000	667.822
1571.5000	667.901
1572.0000	667.84
1572.5000	667.825
1573.0000	667.826
1573.5000	667.878
1574.0000	667.886
1574.5000	667.809
1575.0000	667.757
1575.5000	667.665
1576.0000	667.599
1576.5000	667.718
1577.0000	667.763
1577.5000	667.815
1578.0000	667.84
1578.5000	667.889
1579.0000	667.974
1579.5000	667.978
1580.0000	668.127
1580.5000	668.051
1581.0000	667.996
1581.5000	667.92
1582.0000	667.835
1582.5000	667.889
1583.0000	667.836
1583.5000	667.965
1584.0000	667.939
1584.5000	667.887
1585.0000	667.902
1585.5000	667.87
1586.0000	667.938
1586.5000	667.982
1587.0000	667.942
1587.5000	667.835
1588.0000	667.83
1588.5000	667.773
1589.0000	667.854
1589.5000	668.022
1590.0000	668.022
1590.5000	668.064
1591.0000	667.99
1591.5000	667.932
1592.0000	667.981
1592.5000	668.103
1593.0000	668.164
1593.5000	668.124
1594.0000	668.057
1594.5000	668.047
1595.0000	668.043
1595.5000	668.007
1596.0000	668.103
1596.5000	668.016
1597.0000	668.131
1597.5000	668.25
1598.0000	668.14
1598.5000	668.144
1599.0000	668.084
1599.5000	668.012
1600.0000	668.079
1600.5000	668.149
1601.0000	668.057
1601.5000	668.038
1602.0000	668.043
1602.5000	667.962
1603.0000	667.971
1603.5000	668.028
1604.0000	668.008
1604.5000	667.959
1605.0000	668.045
1605.5000	668.119
1606.0000	668.08
1606.5000	668.178
1607.0000	668.223
1607.5000	668.099
1608.0000	668.072
1608.5000	668.019
1609.0000	667.906
1609.5000	667.927
1610.0000	668.1
1610.5000	668.076
1611.0000	668.109
1611.5000	668.068
1612.0000	667.923
1612.5000	667.96
1613.0000	667.976
1613.5000	667.949
1614.0000	667.92
1614.5000	667.899
1615.0000	667.871
1615.5000	667.963
1616.0000	667.977
1616.5000	667.946
1617.0000	667.886
1617.5000	667.86
1618.0000	667.825
1618.5000	667.773
1619.0000	667.83
1619.5000	667.751
1620.0000	667.788
1620.5000	667.801
1621.0000	667.793
1621.5000	667.873
1622.0000	667.826
1622.5000	667.918
1623.0000	667.878
1623.5000	667.883
1624.0000	667.959
1624.5000	667.844
1625.0000	667.842
1625.5000	667.836
1626.0000	667.743
1626.5000	667.855
1627.0000	667.816
1627.5000	667.751
1628.0000	667.712
1628.5000	667.612
1629.0000	667.692
1629.5000	667.714
1630.0000	667.643
1630.5000	667.603
1631.0000	667.532
1631.5000	667.471
1632.0000	667.494
1632.5000	667.605
1633.0000	667.637
1633.5000	667.634
1634.0000	667.699
1634.5000	667.705
1635.0000	667.625
1635.5000	667.691
1636.0000	667.734
1636.5000	667.638
1637.0000	667.721
1637.5000	667.755
1638.0000	667.802
1638.5000	667.808
1639.0000	667.767
1639.5000	667.698
1640.0000	667.631
1640.5000	667.666
1641.0000	667.643
1641.5000	667.649
1642.0000	667.619
1642.5000	667.652
1643.0000	667.734
1643.5000	667.747
1644.0000	667.702
1644.5000	667.671
1645.0000	667.629
1645.5000	667.713
1646.0000	667.811
1646.5000	667.842
1647.0000	667.845
1647.5000	667.71
1648.0000	667.629
1648.5000	667.638
1649.0000	667.563
1649.5000	667.518
1650.0000	667.593
1650.5000	667.56
1651.0000	667.515
1651.5000	667.615
1652.0000	667.626
1652.5000	667.683
1653.0000	667.84
1653.5000	667.738
1654.0000	667.673
1654.5000	667.544
1655.0000	667.446
1655.5000	667.539
1656.0000	667.495
1656.5000	667.552
1657.0000	667.6
1657.5000	667.595
1658.0000	667.693
1658.5000	667.626
1659.0000	667.611
1659.5000	667.499
1660.0000	667.447
1660.5000	667.499
1661.0000	667.463
1661.5000	667.446
1662.0000	667.459
1662.5000	667.401
1663.0000	667.324
1663.5000	667.398
1664.0000	667.41
1664.5000	667.452
1665.0000	667.641
1665.5000	667.782
1666.0000	667.757
1666.5000	667.726
