TITLE	
DATA TYPE	
ORIGIN	JASCO
OWNER	
DATE	22/08/25
TIME	15:57:08
SPECTROMETER/DATA SYSTEM	
RESOLUTION	
DELTAX	0.5
XUNITS	SEC
YUNITS	INTENSITY
FIRSTX	0.0000
LASTX	1841.0000
NPOINTS	3683
FIRSTY	379.11429
MAXY	534.36328
MINY	-61.62454
XYDATA
0.0000	379.114
0.5000	379.039
1.0000	379.04
1.5000	378.997
2.0000	378.973
2.5000	378.956
3.0000	378.926
3.5000	378.879
4.0000	378.838
4.5000	378.75
5.0000	378.722
5.5000	378.697
6.0000	378.602
6.5000	378.584
7.0000	378.509
7.5000	378.487
8.0000	378.526
8.5000	378.5
9.0000	378.457
9.5000	378.432
10.0000	378.395
10.5000	378.375
11.0000	378.337
11.5000	378.352
12.0000	378.312
12.5000	378.254
13.0000	378.279
13.5000	378.136
14.0000	378.09
14.5000	378.11
15.0000	378.024
15.5000	378.059
16.0000	378.046
16.5000	377.977
17.0000	377.858
17.5000	369.084
18.0000	354.483
18.5000	315.757
19.0000	-61.6245
19.5000	-44.8523
20.0000	-33.2855
20.5000	-30.535
21.0000	-29.3263
21.5000	-28.593
22.0000	-28.1033
22.5000	-27.6168
23.0000	-27.3041
23.5000	-27.0493
24.0000	-26.9217
24.5000	-26.5212
25.0000	-25.6313
25.5000	-24.8238
26.0000	-24.4074
26.5000	-6.33167
27.0000	302.673
27.5000	298.411
28.0000	297.255
28.5000	295.845
29.0000	279.777
29.5000	280.066
30.0000	280.248
30.5000	280.397
31.0000	280.654
31.5000	280.96
32.0000	281.29
32.5000	281.672
33.0000	282.083
33.5000	282.459
34.0000	282.82
34.5000	283.186
35.0000	283.53
35.5000	283.881
36.0000	284.307
36.5000	284.75
37.0000	285.128
37.5000	285.527
38.0000	285.896
38.5000	286.283
39.0000	286.654
39.5000	287.027
40.0000	287.407
40.5000	287.707
41.0000	288.074
41.5000	288.401
42.0000	288.749
42.5000	289.121
43.0000	289.471
43.5000	289.874
44.0000	290.29
44.5000	290.668
45.0000	291.021
45.5000	291.38
46.0000	291.68
46.5000	292.035
47.0000	292.405
47.5000	292.782
48.0000	293.132
48.5000	293.51
49.0000	293.864
49.5000	294.219
50.0000	294.566
50.5000	294.901
51.0000	295.272
51.5000	295.606
52.0000	295.998
52.5000	296.409
53.0000	296.778
53.5000	297.157
54.0000	297.562
54.5000	297.9
55.0000	298.365
55.5000	298.719
56.0000	299.099
56.5000	299.522
57.0000	299.89
57.5000	300.344
58.0000	300.727
58.5000	301.113
59.0000	301.466
59.5000	301.796
60.0000	302.188
60.5000	302.548
61.0000	302.961
61.5000	303.354
62.0000	303.707
62.5000	304.052
63.0000	304.378
63.5000	304.729
64.0000	305.094
64.5000	305.451
65.0000	305.779
65.5000	306.172
66.0000	306.494
66.5000	306.845
67.0000	307.232
67.5000	307.563
68.0000	307.931
68.5000	308.308
69.0000	308.616
69.5000	308.971
70.0000	309.296
70.5000	309.643
71.0000	310.036
71.5000	310.389
72.0000	310.77
72.5000	311.104
73.0000	311.476
73.5000	311.831
74.0000	312.157
74.5000	312.505
75.0000	312.8
75.5000	313.156
76.0000	313.539
76.5000	313.934
77.0000	314.316
77.5000	314.648
78.0000	315.006
78.5000	315.325
79.0000	315.707
79.5000	316.085
80.0000	316.479
80.5000	316.841
81.0000	317.169
81.5000	317.475
82.0000	317.808
82.5000	318.19
83.0000	318.557
83.5000	318.948
84.0000	319.27
84.5000	319.627
85.0000	319.974
85.5000	320.336
86.0000	320.693
86.5000	321.041
87.0000	321.458
87.5000	321.817
88.0000	322.23
88.5000	322.606
89.0000	322.914
89.5000	323.248
90.0000	323.538
90.5000	323.874
91.0000	324.195
91.5000	324.611
92.0000	325.033
92.5000	325.37
93.0000	325.719
93.5000	325.971
94.0000	326.233
94.5000	326.563
95.0000	326.918
95.5000	327.318
96.0000	327.682
96.5000	328.026
97.0000	328.31
97.5000	328.594
98.0000	328.932
98.5000	329.241
99.0000	329.674
99.5000	329.994
100.0000	330.33
100.5000	330.691
101.0000	330.97
101.5000	331.353
102.0000	331.681
102.5000	332
103.0000	332.327
103.5000	332.673
104.0000	332.981
104.5000	333.346
105.0000	333.696
105.5000	334.046
106.0000	334.396
106.5000	334.667
107.0000	334.96
107.5000	335.258
108.0000	335.593
108.5000	335.936
109.0000	336.3
109.5000	336.611
110.0000	336.861
110.5000	337.162
111.0000	337.495
111.5000	337.787
112.0000	338.177
112.5000	338.522
113.0000	338.757
113.5000	339.118
114.0000	339.38
114.5000	339.695
115.0000	340.094
115.5000	340.354
116.0000	340.706
116.5000	341.042
117.0000	341.339
117.5000	341.672
118.0000	341.985
118.5000	342.325
119.0000	342.62
119.5000	342.964
120.0000	343.312
120.5000	343.609
121.0000	343.902
121.5000	344.198
122.0000	344.484
122.5000	344.762
123.0000	345.104
123.5000	345.434
124.0000	345.744
124.5000	346.073
125.0000	346.409
125.5000	346.664
126.0000	346.989
126.5000	347.303
127.0000	347.574
127.5000	347.951
128.0000	348.298
128.5000	348.625
129.0000	348.953
129.5000	349.274
130.0000	349.548
130.5000	349.803
131.0000	350.056
131.5000	350.338
132.0000	350.657
132.5000	350.998
133.0000	351.301
133.5000	351.565
134.0000	351.787
134.5000	352.055
135.0000	352.375
135.5000	352.654
136.0000	353.003
136.5000	353.342
137.0000	353.688
137.5000	354.006
138.0000	354.299
138.5000	354.585
139.0000	354.869
139.5000	355.2
140.0000	355.502
140.5000	355.823
141.0000	356.115
141.5000	356.416
142.0000	356.714
142.5000	356.972
143.0000	357.308
143.5000	357.596
144.0000	357.857
144.5000	358.147
145.0000	358.378
145.5000	358.624
146.0000	358.931
146.5000	359.215
147.0000	359.483
147.5000	359.758
148.0000	360.055
148.5000	360.349
149.0000	360.653
149.5000	360.947
150.0000	361.192
150.5000	361.417
151.0000	361.658
151.5000	361.933
152.0000	362.194
152.5000	362.519
153.0000	362.809
153.5000	363.07
154.0000	363.388
154.5000	363.637
155.0000	363.915
155.5000	364.206
156.0000	364.492
156.5000	364.789
157.0000	365.104
157.5000	365.378
158.0000	365.65
158.5000	365.906
159.0000	366.134
159.5000	366.446
160.0000	366.735
160.5000	366.988
161.0000	367.294
161.5000	367.516
162.0000	367.747
162.5000	367.995
163.0000	368.258
163.5000	368.53
164.0000	368.823
164.5000	369.129
165.0000	369.388
165.5000	369.665
166.0000	369.916
166.5000	370.158
167.0000	370.437
167.5000	370.674
168.0000	370.904
168.5000	371.196
169.0000	371.43
169.5000	371.696
170.0000	371.947
170.5000	372.188
171.0000	372.448
171.5000	372.686
172.0000	372.971
172.5000	373.269
173.0000	373.508
173.5000	373.774
174.0000	374.064
174.5000	374.342
175.0000	374.592
175.5000	374.87
176.0000	375.145
176.5000	375.358
177.0000	375.626
177.5000	375.926
178.0000	376.168
178.5000	376.39
179.0000	376.618
179.5000	376.862
180.0000	377.108
180.5000	377.407
181.0000	377.735
181.5000	377.911
182.0000	378.137
182.5000	378.422
183.0000	378.633
183.5000	378.967
184.0000	379.271
184.5000	379.473
185.0000	379.746
185.5000	379.934
186.0000	380.137
186.5000	380.328
187.0000	380.589
187.5000	380.809
188.0000	381.019
188.5000	381.313
189.0000	381.587
189.5000	381.879
190.0000	382.166
190.5000	382.386
191.0000	382.551
191.5000	382.79
192.0000	383.019
192.5000	383.286
193.0000	383.508
193.5000	383.778
194.0000	384.027
194.5000	384.256
195.0000	384.503
195.5000	384.703
196.0000	384.907
196.5000	385.126
197.0000	385.386
197.5000	385.654
198.0000	385.871
198.5000	386.125
199.0000	386.305
199.5000	386.555
200.0000	386.772
200.5000	387.009
201.0000	387.29
201.5000	387.414
202.0000	387.687
202.5000	387.89
203.0000	388.104
203.5000	388.41
204.0000	388.687
204.5000	388.937
205.0000	389.189
205.5000	389.432
206.0000	389.647
206.5000	389.896
207.0000	390.123
207.5000	390.385
208.0000	390.594
208.5000	390.814
209.0000	391.058
209.5000	391.243
210.0000	391.516
210.5000	391.794
211.0000	391.963
211.5000	392.192
212.0000	392.337
212.5000	392.507
213.0000	392.815
213.5000	393.116
214.0000	393.411
214.5000	393.719
215.0000	393.889
215.5000	394.055
216.0000	394.231
216.5000	394.406
217.0000	394.639
217.5000	394.865
218.0000	395.09
218.5000	395.312
219.0000	395.521
219.5000	395.743
220.0000	395.977
220.5000	396.159
221.0000	396.385
221.5000	396.593
222.0000	396.801
222.5000	397.023
223.0000	397.224
223.5000	397.374
224.0000	397.591
224.5000	397.783
225.0000	398.023
225.5000	398.289
226.0000	398.485
226.5000	398.724
227.0000	398.994
227.5000	399.276
228.0000	399.493
228.5000	399.747
229.0000	399.905
229.5000	400.079
230.0000	400.281
230.5000	400.446
231.0000	400.704
231.5000	400.899
232.0000	401.147
232.5000	401.372
233.0000	401.589
233.5000	401.776
234.0000	401.961
234.5000	402.227
235.0000	402.457
235.5000	402.65
236.0000	402.928
236.5000	403.112
237.0000	403.244
237.5000	403.485
238.0000	403.61
238.5000	403.849
239.0000	404.121
239.5000	404.34
240.0000	404.626
240.5000	404.846
241.0000	404.967
241.5000	405.21
242.0000	405.405
242.5000	405.53
243.0000	405.774
243.5000	405.953
244.0000	406.138
244.5000	406.332
245.0000	406.525
245.5000	406.69
246.0000	406.893
246.5000	407.098
247.0000	407.316
247.5000	407.563
248.0000	407.783
248.5000	408.089
249.0000	408.298
249.5000	408.493
250.0000	408.708
250.5000	408.834
251.0000	409.012
251.5000	409.234
252.0000	409.438
252.5000	409.638
253.0000	409.889
253.5000	410.096
254.0000	410.27
254.5000	410.474
255.0000	410.617
255.5000	410.776
256.0000	410.964
256.5000	411.178
257.0000	411.392
257.5000	411.62
258.0000	411.812
258.5000	412.01
259.0000	412.228
259.5000	412.387
260.0000	412.602
260.5000	412.794
261.0000	412.974
261.5000	413.163
262.0000	413.357
262.5000	413.568
263.0000	413.752
263.5000	413.954
264.0000	414.125
264.5000	414.316
265.0000	414.508
265.5000	414.626
266.0000	414.773
266.5000	415.005
267.0000	415.211
267.5000	415.545
268.0000	415.741
268.5000	415.87
269.0000	416.068
269.5000	416.216
270.0000	416.448
270.5000	416.626
271.0000	416.839
271.5000	416.974
272.0000	417.172
272.5000	417.375
273.0000	417.546
273.5000	417.86
274.0000	418.044
274.5000	418.206
275.0000	418.328
275.5000	418.406
276.0000	418.598
276.5000	418.782
277.0000	419.053
277.5000	419.284
278.0000	419.503
278.5000	419.741
279.0000	419.882
279.5000	420.135
280.0000	420.289
280.5000	420.494
281.0000	420.711
281.5000	420.814
282.0000	421.001
282.5000	421.115
283.0000	421.296
283.5000	421.477
284.0000	421.668
284.5000	421.889
285.0000	422.054
285.5000	422.212
286.0000	422.375
286.5000	422.57
287.0000	422.751
287.5000	423.005
288.0000	423.191
288.5000	423.292
289.0000	423.479
289.5000	423.594
290.0000	423.726
290.5000	423.957
291.0000	424.156
291.5000	424.372
292.0000	424.607
292.5000	424.763
293.0000	424.936
293.5000	425.095
294.0000	425.248
294.5000	425.438
295.0000	425.571
295.5000	425.72
296.0000	425.955
296.5000	426.116
297.0000	426.312
297.5000	426.505
298.0000	426.604
298.5000	426.766
299.0000	426.926
299.5000	427.104
300.0000	427.316
300.5000	427.536
301.0000	427.654
301.5000	427.777
302.0000	427.943
302.5000	428.101
303.0000	428.325
303.5000	428.51
304.0000	428.71
304.5000	428.871
305.0000	429.055
305.5000	429.255
306.0000	429.372
306.5000	429.555
307.0000	429.712
307.5000	429.912
308.0000	430.132
308.5000	430.325
309.0000	430.531
309.5000	430.69
310.0000	430.843
310.5000	430.957
311.0000	431.078
311.5000	431.252
312.0000	431.402
312.5000	431.644
313.0000	431.794
313.5000	431.877
314.0000	432.036
314.5000	432.197
315.0000	432.4
315.5000	432.642
316.0000	432.849
316.5000	433.032
317.0000	433.217
317.5000	433.319
318.0000	433.441
318.5000	433.581
319.0000	433.728
319.5000	433.947
320.0000	434.118
320.5000	434.35
321.0000	434.517
321.5000	434.604
322.0000	434.792
322.5000	434.883
323.0000	435.01
323.5000	435.25
324.0000	435.345
324.5000	435.525
325.0000	435.658
325.5000	435.736
326.0000	435.963
326.5000	436.115
327.0000	436.371
327.5000	436.617
328.0000	436.793
328.5000	436.937
329.0000	437.033
329.5000	437.225
330.0000	437.336
330.5000	437.461
331.0000	437.62
331.5000	437.724
332.0000	437.945
332.5000	438.124
333.0000	438.296
333.5000	438.419
334.0000	438.481
334.5000	438.653
335.0000	438.822
335.5000	439.05
336.0000	439.236
336.5000	439.424
337.0000	439.609
337.5000	439.728
338.0000	439.919
338.5000	440.049
339.0000	440.173
339.5000	440.358
340.0000	440.511
340.5000	440.665
341.0000	440.829
341.5000	440.953
342.0000	441.118
342.5000	441.291
343.0000	441.388
343.5000	441.549
344.0000	441.723
344.5000	441.888
345.0000	442.139
345.5000	442.341
346.0000	442.423
346.5000	442.51
347.0000	442.595
347.5000	442.723
348.0000	442.89
348.5000	443.085
349.0000	443.295
349.5000	443.461
350.0000	443.617
350.5000	443.743
351.0000	443.897
351.5000	444.061
352.0000	444.24
352.5000	444.485
353.0000	444.602
353.5000	444.719
354.0000	444.823
354.5000	444.919
355.0000	445.081
355.5000	445.222
356.0000	445.479
356.5000	445.562
357.0000	445.743
357.5000	445.869
358.0000	445.975
358.5000	446.135
359.0000	446.255
359.5000	446.457
360.0000	446.602
360.5000	446.812
361.0000	446.926
361.5000	446.985
362.0000	447.19
362.5000	447.335
363.0000	447.504
363.5000	447.763
364.0000	447.836
364.5000	447.92
365.0000	448.068
365.5000	448.188
366.0000	448.309
366.5000	448.544
367.0000	448.67
367.5000	448.773
368.0000	448.934
368.5000	449.019
369.0000	449.127
369.5000	449.325
370.0000	449.44
370.5000	449.549
371.0000	449.739
371.5000	449.85
372.0000	449.984
372.5000	450.15
373.0000	450.241
373.5000	450.399
374.0000	450.564
374.5000	450.609
375.0000	450.791
375.5000	450.843
376.0000	450.993
376.5000	451.256
377.0000	451.412
377.5000	451.658
378.0000	451.779
378.5000	451.915
379.0000	452.062
379.5000	452.133
380.0000	452.284
380.5000	452.403
381.0000	452.53
381.5000	452.654
382.0000	452.792
382.5000	452.931
383.0000	453.042
383.5000	453.189
384.0000	453.291
384.5000	453.38
385.0000	453.498
385.5000	453.633
386.0000	453.776
386.5000	453.82
387.0000	453.953
387.5000	454.133
388.0000	454.268
388.5000	454.538
389.0000	454.644
389.5000	454.727
390.0000	454.877
390.5000	455.005
391.0000	455.248
391.5000	455.382
392.0000	455.466
392.5000	455.56
393.0000	455.596
393.5000	455.682
394.0000	455.871
394.5000	456.036
395.0000	456.171
395.5000	456.396
396.0000	456.462
396.5000	456.57
397.0000	456.726
397.5000	456.789
398.0000	456.921
398.5000	457.002
399.0000	457.115
399.5000	457.247
400.0000	457.393
400.5000	457.539
401.0000	457.631
401.5000	457.775
402.0000	457.867
402.5000	458.027
403.0000	458.124
403.5000	458.186
404.0000	458.322
404.5000	458.445
405.0000	458.618
405.5000	458.849
406.0000	458.93
406.5000	459.015
407.0000	459.129
407.5000	459.174
408.0000	459.374
408.5000	459.504
409.0000	459.622
409.5000	459.792
410.0000	459.848
410.5000	460.011
411.0000	460.178
411.5000	460.212
412.0000	460.357
412.5000	460.456
413.0000	460.554
413.5000	460.672
414.0000	460.77
414.5000	460.874
415.0000	460.975
415.5000	461.206
416.0000	461.333
416.5000	461.417
417.0000	461.546
417.5000	461.612
418.0000	461.798
418.5000	462.011
419.0000	462.093
419.5000	462.22
420.0000	462.368
420.5000	462.354
421.0000	462.55
421.5000	462.692
422.0000	462.683
422.5000	462.815
423.0000	462.913
423.5000	462.985
424.0000	463.143
424.5000	463.321
425.0000	463.458
425.5000	463.644
426.0000	463.756
426.5000	463.896
427.0000	463.982
427.5000	464.039
428.0000	464.246
428.5000	464.405
429.0000	464.554
429.5000	464.711
430.0000	464.809
430.5000	464.888
431.0000	465.022
431.5000	465.107
432.0000	465.19
432.5000	465.32
433.0000	465.342
433.5000	465.429
434.0000	465.585
434.5000	465.688
435.0000	465.888
435.5000	466.014
436.0000	466.089
436.5000	466.192
437.0000	466.3
437.5000	466.416
438.0000	466.485
438.5000	466.623
439.0000	466.647
439.5000	466.793
440.0000	466.889
440.5000	466.987
441.0000	467.133
441.5000	467.255
442.0000	467.454
442.5000	467.53
443.0000	467.67
443.5000	467.697
444.0000	467.735
444.5000	467.858
445.0000	467.961
445.5000	468.052
446.0000	468.167
446.5000	468.297
447.0000	468.355
447.5000	468.519
448.0000	468.614
448.5000	468.701
449.0000	468.867
449.5000	468.928
450.0000	469.011
450.5000	469.1
451.0000	469.146
451.5000	469.279
452.0000	469.421
452.5000	469.512
453.0000	469.607
453.5000	469.736
454.0000	469.829
454.5000	469.949
455.0000	470.076
455.5000	470.142
456.0000	470.182
456.5000	470.296
457.0000	470.331
457.5000	470.502
458.0000	470.698
458.5000	470.823
459.0000	471.005
459.5000	471.061
460.0000	471.144
460.5000	471.154
461.0000	471.25
461.5000	471.375
462.0000	471.551
462.5000	471.709
463.0000	471.838
463.5000	471.916
464.0000	471.914
464.5000	472.02
465.0000	472.129
465.5000	472.243
466.0000	472.378
466.5000	472.516
467.0000	472.623
467.5000	472.777
468.0000	472.84
468.5000	472.944
469.0000	473.066
469.5000	473.086
470.0000	473.283
470.5000	473.351
471.0000	473.393
471.5000	473.49
472.0000	473.498
472.5000	473.616
473.0000	473.71
473.5000	473.826
474.0000	474.023
474.5000	474.16
475.0000	474.273
475.5000	474.434
476.0000	474.449
476.5000	474.527
477.0000	474.61
477.5000	474.664
478.0000	474.737
478.5000	474.801
479.0000	474.923
479.5000	475.009
480.0000	475.186
480.5000	475.294
481.0000	475.369
481.5000	475.492
482.0000	475.529
482.5000	475.585
483.0000	475.825
483.5000	475.936
484.0000	476.014
484.5000	476.145
485.0000	476.141
485.5000	476.234
486.0000	476.399
486.5000	476.494
487.0000	476.6
487.5000	476.706
488.0000	476.836
488.5000	476.949
489.0000	476.903
489.5000	476.904
490.0000	476.979
490.5000	476.995
491.0000	477.197
491.5000	477.422
492.0000	477.447
492.5000	477.568
493.0000	477.646
493.5000	477.695
494.0000	477.805
494.5000	477.908
495.0000	478.044
495.5000	478.116
496.0000	478.257
496.5000	478.315
497.0000	478.395
497.5000	478.535
498.0000	478.631
498.5000	478.713
499.0000	478.785
499.5000	478.802
500.0000	478.905
500.5000	479.018
501.0000	479.149
501.5000	479.241
502.0000	479.235
502.5000	479.317
503.0000	479.389
503.5000	479.454
504.0000	479.615
504.5000	479.749
505.0000	479.823
505.5000	479.994
506.0000	480.004
506.5000	480.077
507.0000	480.169
507.5000	480.21
508.0000	480.36
508.5000	480.479
509.0000	480.613
509.5000	480.632
510.0000	480.749
510.5000	480.815
511.0000	480.888
511.5000	481.047
512.0000	481.092
512.5000	481.138
513.0000	481.12
513.5000	481.179
514.0000	481.255
514.5000	481.367
515.0000	481.508
515.5000	481.605
516.0000	481.705
516.5000	481.824
517.0000	481.953
517.5000	482.071
518.0000	482.132
518.5000	482.204
519.0000	482.259
519.5000	482.306
520.0000	482.415
520.5000	482.428
521.0000	482.536
521.5000	482.629
522.0000	482.676
522.5000	482.895
523.0000	482.949
523.5000	483.037
524.0000	483.117
524.5000	483.084
525.0000	483.118
525.5000	483.186
526.0000	483.292
526.5000	483.373
527.0000	483.502
527.5000	483.572
528.0000	483.633
528.5000	483.755
529.0000	483.802
529.5000	483.879
530.0000	483.967
530.5000	484.095
531.0000	484.216
531.5000	484.31
532.0000	484.364
532.5000	484.408
533.0000	484.454
533.5000	484.433
534.0000	484.571
534.5000	484.632
535.0000	484.676
535.5000	484.84
536.0000	484.914
536.5000	484.952
537.0000	485.119
537.5000	485.204
538.0000	485.25
538.5000	485.393
539.0000	485.411
539.5000	485.546
540.0000	485.639
540.5000	485.717
541.0000	485.807
541.5000	485.802
542.0000	485.831
542.5000	485.899
543.0000	485.997
543.5000	486.141
544.0000	486.288
544.5000	486.373
545.0000	486.402
545.5000	486.433
546.0000	486.516
546.5000	486.567
547.0000	486.698
547.5000	486.852
548.0000	486.923
548.5000	487.021
549.0000	487.07
549.5000	487.082
550.0000	487.101
550.5000	487.155
551.0000	487.246
551.5000	487.315
552.0000	487.515
552.5000	487.599
553.0000	487.636
553.5000	487.731
554.0000	487.759
554.5000	487.861
555.0000	487.933
555.5000	487.99
556.0000	488.154
556.5000	488.206
557.0000	488.265
557.5000	488.326
558.0000	488.271
558.5000	488.359
559.0000	488.461
559.5000	488.616
560.0000	488.628
560.5000	488.683
561.0000	488.76
561.5000	488.761
562.0000	488.923
562.5000	488.977
563.0000	489.07
563.5000	489.167
564.0000	489.213
564.5000	489.327
565.0000	489.403
565.5000	489.467
566.0000	489.538
566.5000	489.607
567.0000	489.682
567.5000	489.755
568.0000	489.822
568.5000	489.865
569.0000	489.96
569.5000	489.98
570.0000	490.044
570.5000	490.13
571.0000	490.163
571.5000	490.286
572.0000	490.396
572.5000	490.401
573.0000	490.461
573.5000	490.52
574.0000	490.543
574.5000	490.626
575.0000	490.603
575.5000	490.726
576.0000	490.85
576.5000	490.984
577.0000	491.163
577.5000	491.121
578.0000	491.217
578.5000	491.228
579.0000	491.302
579.5000	491.444
580.0000	491.416
580.5000	491.501
581.0000	491.584
581.5000	491.624
582.0000	491.79
582.5000	491.776
583.0000	491.843
583.5000	491.929
584.0000	491.935
584.5000	492.05
585.0000	492.103
585.5000	492.133
586.0000	492.252
586.5000	492.347
587.0000	492.422
587.5000	492.562
588.0000	492.556
588.5000	492.566
589.0000	492.6
589.5000	492.643
590.0000	492.683
590.5000	492.819
591.0000	492.919
591.5000	492.946
592.0000	493.091
592.5000	493.151
593.0000	493.191
593.5000	493.254
594.0000	493.205
594.5000	493.273
595.0000	493.315
595.5000	493.48
596.0000	493.625
596.5000	493.743
597.0000	493.792
597.5000	493.807
598.0000	493.895
598.5000	493.935
599.0000	494.015
599.5000	494.113
600.0000	494.201
600.5000	494.265
601.0000	494.361
601.5000	494.357
602.0000	494.374
602.5000	494.477
603.0000	494.601
603.5000	494.724
604.0000	494.801
604.5000	494.781
605.0000	494.84
605.5000	494.805
606.0000	494.934
606.5000	495.002
607.0000	495.023
607.5000	495.146
608.0000	495.163
608.5000	495.245
609.0000	495.303
609.5000	495.372
610.0000	495.473
610.5000	495.566
611.0000	495.601
611.5000	495.674
612.0000	495.744
612.5000	495.809
613.0000	495.928
613.5000	495.992
614.0000	496.025
614.5000	496.116
615.0000	496.169
615.5000	496.177
616.0000	496.172
616.5000	496.236
617.0000	496.329
617.5000	496.404
618.0000	496.544
618.5000	496.588
619.0000	496.618
619.5000	496.749
620.0000	496.826
620.5000	496.903
621.0000	496.979
621.5000	496.983
622.0000	497.034
622.5000	497.106
623.0000	497.168
623.5000	497.25
624.0000	497.317
624.5000	497.342
625.0000	497.425
625.5000	497.58
626.0000	497.607
626.5000	497.659
627.0000	497.719
627.5000	497.717
628.0000	497.83
628.5000	497.899
629.0000	497.981
629.5000	498.034
630.0000	498.055
630.5000	498.12
631.0000	498.132
631.5000	498.211
632.0000	498.301
632.5000	498.383
633.0000	498.487
633.5000	498.551
634.0000	498.612
634.5000	498.648
635.0000	498.652
635.5000	498.712
636.0000	498.739
636.5000	498.818
637.0000	498.822
637.5000	498.841
638.0000	498.896
638.5000	498.928
639.0000	499.086
639.5000	499.201
640.0000	499.29
640.5000	499.441
641.0000	499.452
641.5000	499.482
642.0000	499.576
642.5000	499.616
643.0000	499.679
643.5000	499.769
644.0000	499.75
644.5000	499.74
645.0000	499.799
645.5000	499.855
646.0000	499.9
646.5000	499.933
647.0000	500.058
647.5000	500.06
648.0000	500.187
648.5000	500.325
649.0000	500.381
649.5000	500.443
650.0000	500.468
650.5000	500.527
651.0000	500.675
651.5000	500.809
652.0000	500.835
652.5000	500.885
653.0000	500.9
653.5000	500.888
654.0000	500.92
654.5000	500.961
655.0000	501.02
655.5000	501.126
656.0000	501.231
656.5000	501.323
657.0000	501.323
657.5000	501.399
658.0000	501.488
658.5000	501.496
659.0000	501.585
659.5000	501.634
660.0000	501.699
660.5000	501.759
661.0000	501.833
661.5000	501.88
662.0000	501.945
662.5000	502.065
663.0000	502.084
663.5000	502.113
664.0000	502.164
664.5000	502.15
665.0000	502.217
665.5000	502.272
666.0000	502.277
666.5000	502.327
667.0000	502.355
667.5000	502.445
668.0000	502.531
668.5000	502.585
669.0000	502.645
669.5000	502.653
670.0000	502.642
670.5000	502.722
671.0000	502.744
671.5000	502.69
672.0000	502.808
672.5000	502.891
673.0000	502.968
673.5000	503.105
674.0000	503.133
674.5000	503.171
675.0000	503.198
675.5000	503.251
676.0000	503.28
676.5000	503.334
677.0000	503.386
677.5000	503.456
678.0000	503.519
678.5000	503.538
679.0000	503.591
679.5000	503.622
680.0000	503.695
680.5000	503.726
681.0000	503.755
681.5000	503.777
682.0000	503.866
682.5000	503.97
683.0000	504.203
683.5000	504.276
684.0000	504.32
684.5000	504.285
685.0000	504.189
685.5000	504.284
686.0000	504.303
686.5000	504.406
687.0000	504.447
687.5000	504.447
688.0000	504.489
688.5000	504.521
689.0000	504.613
689.5000	504.689
690.0000	504.749
690.5000	504.862
691.0000	504.858
691.5000	504.941
692.0000	504.933
692.5000	504.898
693.0000	504.893
693.5000	504.887
694.0000	505.004
694.5000	505.051
695.0000	505.155
695.5000	505.23
696.0000	505.207
696.5000	505.265
697.0000	505.331
697.5000	505.369
698.0000	505.455
698.5000	505.465
699.0000	505.487
699.5000	505.57
700.0000	505.669
700.5000	505.694
701.0000	505.758
701.5000	505.744
702.0000	505.788
702.5000	505.946
703.0000	505.972
703.5000	505.994
704.0000	505.932
704.5000	505.927
705.0000	506.011
705.5000	506.119
706.0000	506.27
706.5000	506.399
707.0000	506.378
707.5000	506.402
708.0000	506.369
708.5000	506.308
709.0000	506.367
709.5000	506.461
710.0000	506.493
710.5000	506.528
711.0000	506.58
711.5000	506.536
712.0000	506.631
712.5000	506.675
713.0000	506.651
713.5000	506.784
714.0000	506.817
714.5000	506.89
715.0000	507.02
715.5000	506.974
716.0000	506.97
716.5000	506.988
717.0000	506.987
717.5000	507.036
718.0000	507.13
718.5000	507.23
719.0000	507.324
719.5000	507.338
720.0000	507.399
720.5000	507.395
721.0000	507.381
721.5000	507.498
722.0000	507.526
722.5000	507.575
723.0000	507.641
723.5000	507.678
724.0000	507.668
724.5000	507.695
725.0000	507.725
725.5000	507.704
726.0000	507.78
726.5000	507.78
727.0000	507.806
727.5000	507.889
728.0000	507.993
728.5000	508.127
729.0000	508.188
729.5000	508.26
730.0000	508.269
730.5000	508.335
731.0000	508.388
731.5000	508.382
732.0000	508.437
732.5000	508.395
733.0000	508.435
733.5000	508.468
734.0000	508.455
734.5000	508.494
735.0000	508.56
735.5000	508.585
736.0000	508.617
736.5000	508.715
737.0000	508.74
737.5000	508.82
738.0000	508.891
738.5000	508.976
739.0000	509.007
739.5000	509.063
740.0000	509.058
740.5000	509.048
741.0000	509.127
741.5000	509.185
742.0000	509.286
742.5000	509.324
743.0000	509.304
743.5000	509.288
744.0000	509.277
744.5000	509.267
745.0000	509.347
745.5000	509.457
746.0000	509.505
746.5000	509.557
747.0000	509.605
747.5000	509.597
748.0000	509.662
748.5000	509.658
749.0000	509.626
749.5000	509.644
750.0000	509.668
750.5000	509.786
751.0000	509.808
751.5000	509.854
752.0000	509.873
752.5000	509.902
753.0000	509.988
753.5000	510.075
754.0000	510.138
754.5000	510.203
755.0000	510.209
755.5000	510.228
756.0000	510.277
756.5000	510.315
757.0000	510.439
757.5000	510.449
758.0000	510.511
758.5000	510.478
759.0000	510.531
759.5000	510.61
760.0000	510.61
760.5000	510.71
761.0000	510.705
761.5000	510.778
762.0000	510.818
762.5000	510.862
763.0000	510.953
763.5000	510.996
764.0000	510.99
764.5000	510.984
765.0000	510.959
765.5000	510.952
766.0000	511.025
766.5000	511.139
767.0000	511.238
767.5000	511.3
768.0000	511.31
768.5000	511.368
769.0000	511.364
769.5000	511.396
770.0000	511.553
770.5000	511.595
771.0000	511.652
771.5000	511.659
772.0000	511.681
772.5000	511.699
773.0000	511.711
773.5000	511.779
774.0000	511.821
774.5000	511.84
775.0000	511.887
775.5000	511.859
776.0000	511.866
776.5000	511.93
777.0000	511.958
777.5000	512.031
778.0000	512.009
778.5000	511.997
779.0000	512.054
779.5000	512.067
780.0000	512.089
780.5000	512.137
781.0000	512.155
781.5000	512.19
782.0000	512.335
782.5000	512.321
783.0000	512.299
783.5000	512.363
784.0000	512.336
784.5000	512.402
785.0000	512.499
785.5000	512.6
786.0000	512.709
786.5000	512.702
787.0000	512.738
787.5000	512.688
788.0000	512.681
788.5000	512.693
789.0000	512.693
789.5000	512.815
790.0000	512.85
790.5000	512.939
791.0000	513.014
791.5000	512.951
792.0000	512.875
792.5000	512.949
793.0000	513.018
793.5000	513.058
794.0000	513.184
794.5000	513.134
795.0000	513.085
795.5000	513.193
796.0000	513.23
796.5000	513.341
797.0000	513.478
797.5000	513.446
798.0000	513.492
798.5000	513.512
799.0000	513.512
799.5000	513.529
800.0000	513.563
800.5000	513.62
801.0000	513.528
801.5000	513.593
802.0000	513.616
802.5000	513.608
803.0000	513.714
803.5000	513.731
804.0000	513.73
804.5000	513.819
805.0000	513.823
805.5000	513.842
806.0000	513.909
806.5000	513.888
807.0000	513.954
807.5000	514.068
808.0000	514.02
808.5000	514.043
809.0000	514.082
809.5000	514.032
810.0000	514.113
810.5000	514.171
811.0000	514.168
811.5000	514.225
812.0000	514.325
812.5000	514.344
813.0000	514.393
813.5000	514.397
814.0000	514.366
814.5000	514.422
815.0000	514.48
815.5000	514.539
816.0000	514.624
816.5000	514.585
817.0000	514.56
817.5000	514.584
818.0000	514.563
818.5000	514.663
819.0000	514.796
819.5000	514.87
820.0000	514.882
820.5000	514.841
821.0000	514.808
821.5000	514.779
822.0000	514.798
822.5000	514.903
823.0000	514.935
823.5000	514.984
824.0000	515.039
824.5000	515.016
825.0000	515.069
825.5000	515.136
826.0000	515.136
826.5000	515.176
827.0000	515.1
827.5000	515.171
828.0000	515.337
828.5000	515.336
829.0000	515.476
829.5000	515.441
830.0000	515.365
830.5000	515.393
831.0000	515.376
831.5000	515.404
832.0000	515.47
832.5000	515.531
833.0000	515.666
833.5000	515.713
834.0000	515.736
834.5000	515.752
835.0000	515.701
835.5000	515.77
836.0000	515.823
836.5000	515.894
837.0000	516.055
837.5000	516.029
838.0000	516.018
838.5000	516.066
839.0000	516.003
839.5000	516.024
840.0000	516.102
840.5000	516.164
841.0000	516.123
841.5000	516.177
842.0000	516.25
842.5000	516.167
843.0000	516.266
843.5000	516.347
844.0000	516.336
844.5000	516.377
845.0000	516.398
845.5000	516.379
846.0000	516.365
846.5000	516.49
847.0000	516.594
847.5000	516.722
848.0000	516.794
848.5000	516.765
849.0000	516.734
849.5000	516.631
850.0000	516.661
850.5000	516.673
851.0000	516.689
851.5000	516.772
852.0000	516.784
852.5000	516.842
853.0000	516.893
853.5000	516.917
854.0000	516.967
854.5000	517.008
855.0000	517.019
855.5000	517.026
856.0000	517.002
856.5000	517.08
857.0000	517.143
857.5000	517.219
858.0000	517.274
858.5000	517.19
859.0000	517.258
859.5000	517.182
860.0000	517.177
860.5000	517.233
861.0000	517.172
861.5000	517.268
862.0000	517.318
862.5000	517.442
863.0000	517.487
863.5000	517.475
864.0000	517.572
864.5000	517.601
865.0000	517.639
865.5000	517.658
866.0000	517.671
866.5000	517.612
867.0000	517.648
867.5000	517.755
868.0000	517.811
868.5000	517.891
869.0000	517.832
869.5000	517.859
870.0000	517.829
870.5000	517.856
871.0000	517.993
871.5000	517.982
872.0000	517.987
872.5000	517.985
873.0000	517.985
873.5000	518.048
874.0000	518.057
874.5000	518.088
875.0000	518.122
875.5000	518.107
876.0000	518.167
876.5000	518.182
877.0000	518.224
877.5000	518.325
878.0000	518.346
878.5000	518.444
879.0000	518.408
879.5000	518.415
880.0000	518.528
880.5000	518.539
881.0000	518.61
881.5000	518.489
882.0000	518.472
882.5000	518.54
883.0000	518.551
883.5000	518.626
884.0000	518.66
884.5000	518.638
885.0000	518.651
885.5000	518.676
886.0000	518.642
886.5000	518.635
887.0000	518.721
887.5000	518.787
888.0000	518.836
888.5000	518.863
889.0000	518.841
889.5000	518.879
890.0000	518.913
890.5000	518.97
891.0000	518.993
891.5000	519.075
892.0000	519.097
892.5000	519.12
893.0000	519.191
893.5000	519.161
894.0000	519.108
894.5000	519.186
895.0000	519.239
895.5000	519.287
896.0000	519.422
896.5000	519.403
897.0000	519.326
897.5000	519.336
898.0000	519.346
898.5000	519.316
899.0000	519.41
899.5000	519.408
900.0000	519.369
900.5000	519.437
901.0000	519.393
901.5000	519.451
902.0000	519.439
902.5000	519.401
903.0000	519.511
903.5000	519.557
904.0000	519.675
904.5000	519.813
905.0000	519.793
905.5000	519.789
906.0000	519.776
906.5000	519.734
907.0000	519.728
907.5000	519.757
908.0000	519.838
908.5000	519.816
909.0000	519.829
909.5000	519.845
910.0000	519.867
910.5000	519.912
911.0000	520.047
911.5000	520.101
912.0000	520.081
912.5000	520.1
913.0000	520.099
913.5000	520.14
914.0000	520.201
914.5000	520.216
915.0000	520.176
915.5000	520.14
916.0000	520.072
916.5000	520.128
917.0000	520.198
917.5000	520.251
918.0000	520.33
918.5000	520.308
919.0000	520.254
919.5000	520.226
920.0000	520.26
920.5000	520.324
921.0000	520.375
921.5000	520.393
922.0000	520.388
922.5000	520.436
923.0000	520.514
923.5000	520.609
924.0000	520.63
924.5000	520.67
925.0000	520.614
925.5000	520.592
926.0000	520.611
926.5000	520.538
927.0000	520.605
927.5000	520.582
928.0000	520.636
928.5000	520.667
929.0000	520.693
929.5000	520.779
930.0000	520.729
930.5000	520.811
931.0000	520.814
931.5000	520.824
932.0000	520.931
932.5000	520.905
933.0000	520.89
933.5000	520.907
934.0000	520.85
934.5000	520.908
935.0000	521.004
935.5000	521.032
936.0000	521.071
936.5000	521.037
937.0000	521.041
937.5000	521.089
938.0000	521.189
938.5000	521.21
939.0000	521.146
939.5000	521.163
940.0000	521.202
940.5000	521.273
941.0000	521.402
941.5000	521.451
942.0000	521.41
942.5000	521.466
943.0000	521.47
943.5000	521.438
944.0000	521.487
944.5000	521.43
945.0000	521.511
945.5000	521.505
946.0000	521.389
946.5000	521.511
947.0000	521.473
947.5000	521.554
948.0000	521.695
948.5000	521.673
949.0000	521.565
949.5000	521.509
950.0000	521.505
950.5000	521.457
951.0000	521.534
951.5000	521.554
952.0000	521.651
952.5000	521.676
953.0000	521.78
953.5000	521.861
954.0000	521.794
954.5000	521.895
955.0000	521.916
955.5000	521.936
956.0000	522
956.5000	522.003
957.0000	522.066
957.5000	522.117
958.0000	522.102
958.5000	522.09
959.0000	522.006
959.5000	522.021
960.0000	522.044
960.5000	522.019
961.0000	521.979
961.5000	521.922
962.0000	522.021
962.5000	522.069
963.0000	522.088
963.5000	522.108
964.0000	522.052
964.5000	522.179
965.0000	522.254
965.5000	522.301
966.0000	522.355
966.5000	522.312
967.0000	522.38
967.5000	522.443
968.0000	522.448
968.5000	522.394
969.0000	522.388
969.5000	522.387
970.0000	522.326
970.5000	522.507
971.0000	522.624
971.5000	522.647
972.0000	522.683
972.5000	522.6
973.0000	522.578
973.5000	522.594
974.0000	522.739
974.5000	522.755
975.0000	522.775
975.5000	522.804
976.0000	522.829
976.5000	522.839
977.0000	522.79
977.5000	522.841
978.0000	522.756
978.5000	522.873
979.0000	522.917
979.5000	522.958
980.0000	523.111
980.5000	523.058
981.0000	523.059
981.5000	523.11
982.0000	523.045
982.5000	523.081
983.0000	523.109
983.5000	523.092
984.0000	523.142
984.5000	523.166
985.0000	523.195
985.5000	523.201
986.0000	523.143
986.5000	523.189
987.0000	523.215
987.5000	523.247
988.0000	523.346
988.5000	523.307
989.0000	523.395
989.5000	523.398
990.0000	523.386
990.5000	523.373
991.0000	523.313
991.5000	523.29
992.0000	523.309
992.5000	523.388
993.0000	523.38
993.5000	523.434
994.0000	523.458
994.5000	523.498
995.0000	523.484
995.5000	523.505
996.0000	523.557
996.5000	523.533
997.0000	523.646
997.5000	523.603
998.0000	523.598
998.5000	523.615
999.0000	523.555
999.5000	523.664
1000.0000	523.659
1000.5000	523.689
1001.0000	523.767
1001.5000	523.698
1002.0000	523.785
1002.5000	523.786
1003.0000	523.811
1003.5000	523.863
1004.0000	523.837
1004.5000	523.881
1005.0000	523.851
1005.5000	523.79
1006.0000	523.784
1006.5000	523.792
1007.0000	523.823
1007.5000	523.952
1008.0000	524.007
1008.5000	524.014
1009.0000	523.99
1009.5000	523.953
1010.0000	523.93
1010.5000	523.927
1011.0000	523.955
1011.5000	523.959
1012.0000	523.98
1012.5000	524.072
1013.0000	524.059
1013.5000	524.054
1014.0000	524.071
1014.5000	524.021
1015.0000	524.06
1015.5000	524.172
1016.0000	524.17
1016.5000	524.141
1017.0000	524.197
1017.5000	524.193
1018.0000	524.172
1018.5000	524.303
1019.0000	524.342
1019.5000	524.35
1020.0000	524.373
1020.5000	524.348
1021.0000	524.302
1021.5000	524.316
1022.0000	524.38
1022.5000	524.442
1023.0000	524.541
1023.5000	524.583
1024.0000	524.626
1024.5000	524.612
1025.0000	524.58
1025.5000	524.527
1026.0000	524.499
1026.5000	524.487
1027.0000	524.489
1027.5000	524.587
1028.0000	524.618
1028.5000	524.624
1029.0000	524.703
1029.5000	524.663
1030.0000	524.674
1030.5000	524.733
1031.0000	524.704
1031.5000	524.698
1032.0000	524.766
1032.5000	524.827
1033.0000	524.848
1033.5000	524.889
1034.0000	524.882
1034.5000	524.855
1035.0000	524.852
1035.5000	524.942
1036.0000	524.967
1036.5000	524.987
1037.0000	525.129
1037.5000	525.098
1038.0000	525.049
1038.5000	525.063
1039.0000	525.038
1039.5000	525.074
1040.0000	525.1
1040.5000	525.094
1041.0000	525.042
1041.5000	524.981
1042.0000	525.06
1042.5000	525.077
1043.0000	525.121
1043.5000	525.16
1044.0000	525.206
1044.5000	525.203
1045.0000	525.215
1045.5000	525.193
1046.0000	525.164
1046.5000	525.158
1047.0000	525.181
1047.5000	525.202
1048.0000	525.201
1048.5000	525.226
1049.0000	525.286
1049.5000	525.343
1050.0000	525.367
1050.5000	525.416
1051.0000	525.422
1051.5000	525.417
1052.0000	525.474
1052.5000	525.593
1053.0000	525.532
1053.5000	525.525
1054.0000	525.412
1054.5000	525.325
1055.0000	525.455
1055.5000	525.565
1056.0000	525.678
1056.5000	525.734
1057.0000	525.644
1057.5000	525.668
1058.0000	525.654
1058.5000	525.606
1059.0000	525.629
1059.5000	525.69
1060.0000	525.693
1060.5000	525.715
1061.0000	525.734
1061.5000	525.656
1062.0000	525.693
1062.5000	525.736
1063.0000	525.822
1063.5000	525.847
1064.0000	525.909
1064.5000	525.884
1065.0000	525.878
1065.5000	525.893
1066.0000	525.892
1066.5000	525.987
1067.0000	525.973
1067.5000	525.993
1068.0000	526.033
1068.5000	526.001
1069.0000	526.082
1069.5000	526.146
1070.0000	526.088
1070.5000	526.162
1071.0000	526.131
1071.5000	526.05
1072.0000	526.113
1072.5000	526.125
1073.0000	526.112
1073.5000	526.126
1074.0000	526.112
1074.5000	526.128
1075.0000	526.199
1075.5000	526.183
1076.0000	526.164
1076.5000	526.185
1077.0000	526.249
1077.5000	526.332
1078.0000	526.404
1078.5000	526.347
1079.0000	526.292
1079.5000	526.408
1080.0000	526.4
1080.5000	526.426
1081.0000	526.535
1081.5000	526.49
1082.0000	526.549
1082.5000	526.561
1083.0000	526.509
1083.5000	526.44
1084.0000	526.428
1084.5000	526.472
1085.0000	526.49
1085.5000	526.56
1086.0000	526.632
1086.5000	526.63
1087.0000	526.648
1087.5000	526.661
1088.0000	526.63
1088.5000	526.699
1089.0000	526.71
1089.5000	526.742
1090.0000	526.703
1090.5000	526.681
1091.0000	526.713
1091.5000	526.709
1092.0000	526.718
1092.5000	526.695
1093.0000	526.745
1093.5000	526.671
1094.0000	526.738
1094.5000	526.794
1095.0000	526.814
1095.5000	526.881
1096.0000	526.906
1096.5000	526.952
1097.0000	526.895
1097.5000	526.951
1098.0000	527.024
1098.5000	526.962
1099.0000	527.015
1099.5000	526.99
1100.0000	526.932
1100.5000	527.001
1101.0000	527.052
1101.5000	527.115
1102.0000	527.051
1102.5000	527.018
1103.0000	526.933
1103.5000	526.905
1104.0000	527.048
1104.5000	527.136
1105.0000	527.249
1105.5000	527.292
1106.0000	527.269
1106.5000	527.294
1107.0000	527.251
1107.5000	527.282
1108.0000	527.352
1108.5000	527.324
1109.0000	527.317
1109.5000	527.331
1110.0000	527.335
1110.5000	527.363
1111.0000	527.408
1111.5000	527.479
1112.0000	527.458
1112.5000	527.481
1113.0000	527.497
1113.5000	527.503
1114.0000	527.535
1114.5000	527.516
1115.0000	527.447
1115.5000	527.397
1116.0000	527.313
1116.5000	527.393
1117.0000	527.47
1117.5000	527.535
1118.0000	527.64
1118.5000	527.581
1119.0000	527.614
1119.5000	527.66
1120.0000	527.584
1120.5000	527.657
1121.0000	527.751
1121.5000	527.711
1122.0000	527.804
1122.5000	527.818
1123.0000	527.758
1123.5000	527.776
1124.0000	527.869
1124.5000	527.83
1125.0000	527.779
1125.5000	527.882
1126.0000	527.901
1126.5000	527.963
1127.0000	528.07
1127.5000	527.949
1128.0000	527.852
1128.5000	527.875
1129.0000	527.823
1129.5000	527.819
1130.0000	527.88
1130.5000	527.92
1131.0000	527.933
1131.5000	528.062
1132.0000	528.067
1132.5000	528.031
1133.0000	527.988
1133.5000	527.962
1134.0000	528.03
1134.5000	528.031
1135.0000	528.089
1135.5000	528.06
1136.0000	527.965
1136.5000	527.985
1137.0000	528.025
1137.5000	528.073
1138.0000	528.203
1138.5000	528.205
1139.0000	528.228
1139.5000	528.18
1140.0000	528.086
1140.5000	528.017
1141.0000	528.065
1141.5000	528.152
1142.0000	528.165
1142.5000	528.302
1143.0000	528.268
1143.5000	528.249
1144.0000	528.342
1144.5000	528.259
1145.0000	528.247
1145.5000	528.291
1146.0000	528.242
1146.5000	528.246
1147.0000	528.275
1147.5000	528.237
1148.0000	528.238
1148.5000	528.32
1149.0000	528.314
1149.5000	528.35
1150.0000	528.412
1150.5000	528.447
1151.0000	528.481
1151.5000	528.459
1152.0000	528.452
1152.5000	528.418
1153.0000	528.408
1153.5000	528.46
1154.0000	528.475
1154.5000	528.527
1155.0000	528.584
1155.5000	528.609
1156.0000	528.705
1156.5000	528.696
1157.0000	528.636
1157.5000	528.599
1158.0000	528.458
1158.5000	528.411
1159.0000	528.451
1159.5000	528.508
1160.0000	528.586
1160.5000	528.563
1161.0000	528.626
1161.5000	528.695
1162.0000	528.738
1162.5000	528.857
1163.0000	528.774
1163.5000	528.737
1164.0000	528.639
1164.5000	528.74
1165.0000	528.76
1165.5000	528.72
1166.0000	528.842
1166.5000	528.686
1167.0000	528.752
1167.5000	528.761
1168.0000	528.725
1168.5000	528.837
1169.0000	528.762
1169.5000	528.876
1170.0000	528.832
1170.5000	528.812
1171.0000	528.859
1171.5000	528.849
1172.0000	529
1172.5000	528.986
1173.0000	528.981
1173.5000	528.941
1174.0000	528.881
1174.5000	528.868
1175.0000	528.893
1175.5000	528.82
1176.0000	528.808
1176.5000	528.84
1177.0000	528.917
1177.5000	528.969
1178.0000	528.927
1178.5000	528.904
1179.0000	528.92
1179.5000	528.901
1180.0000	528.945
1180.5000	528.951
1181.0000	528.889
1181.5000	528.931
1182.0000	528.97
1182.5000	528.958
1183.0000	529.097
1183.5000	529.196
1184.0000	529.189
1184.5000	529.262
1185.0000	529.226
1185.5000	529.203
1186.0000	529.268
1186.5000	529.313
1187.0000	529.278
1187.5000	529.251
1188.0000	529.311
1188.5000	529.223
1189.0000	529.285
1189.5000	529.33
1190.0000	529.202
1190.5000	529.24
1191.0000	529.175
1191.5000	529.148
1192.0000	529.181
1192.5000	529.256
1193.0000	529.285
1193.5000	529.34
1194.0000	529.406
1194.5000	529.437
1195.0000	529.453
1195.5000	529.418
1196.0000	529.411
1196.5000	529.406
1197.0000	529.481
1197.5000	529.506
1198.0000	529.513
1198.5000	529.459
1199.0000	529.394
1199.5000	529.432
1200.0000	529.503
1200.5000	529.564
1201.0000	529.573
1201.5000	529.503
1202.0000	529.539
1202.5000	529.49
1203.0000	529.493
1203.5000	529.535
1204.0000	529.39
1204.5000	529.456
1205.0000	529.6
1205.5000	529.564
1206.0000	529.674
1206.5000	529.622
1207.0000	529.571
1207.5000	529.699
1208.0000	529.684
1208.5000	529.759
1209.0000	529.76
1209.5000	529.725
1210.0000	529.737
1210.5000	529.671
1211.0000	529.642
1211.5000	529.63
1212.0000	529.623
1212.5000	529.699
1213.0000	529.671
1213.5000	529.685
1214.0000	529.702
1214.5000	529.791
1215.0000	529.85
1215.5000	529.898
1216.0000	529.983
1216.5000	529.86
1217.0000	529.875
1217.5000	529.837
1218.0000	529.774
1218.5000	529.889
1219.0000	529.869
1219.5000	529.929
1220.0000	529.911
1220.5000	529.879
1221.0000	529.914
1221.5000	529.964
1222.0000	530.021
1222.5000	530.107
1223.0000	530.106
1223.5000	530.071
1224.0000	530.164
1224.5000	530.078
1225.0000	530.058
1225.5000	529.985
1226.0000	529.894
1226.5000	529.923
1227.0000	530.005
1227.5000	530.196
1228.0000	530.209
1228.5000	530.187
1229.0000	530.177
1229.5000	530.077
1230.0000	530.03
1230.5000	530.076
1231.0000	530.098
1231.5000	530.107
1232.0000	530.174
1232.5000	530.181
1233.0000	530.223
1233.5000	530.277
1234.0000	530.322
1234.5000	530.36
1235.0000	530.302
1235.5000	530.214
1236.0000	530.303
1236.5000	530.335
1237.0000	530.383
1237.5000	530.559
1238.0000	530.433
1238.5000	530.361
1239.0000	530.382
1239.5000	530.259
1240.0000	530.28
1240.5000	530.38
1241.0000	530.394
1241.5000	530.44
1242.0000	530.425
1242.5000	530.447
1243.0000	530.41
1243.5000	530.415
1244.0000	530.495
1244.5000	530.39
1245.0000	530.412
1245.5000	530.437
1246.0000	530.447
1246.5000	530.486
1247.0000	530.525
1247.5000	530.503
1248.0000	530.431
1248.5000	530.428
1249.0000	530.383
1249.5000	530.473
1250.0000	530.552
1250.5000	530.501
1251.0000	530.548
1251.5000	530.465
1252.0000	530.447
1252.5000	530.569
1253.0000	530.582
1253.5000	530.624
1254.0000	530.619
1254.5000	530.602
1255.0000	530.614
1255.5000	530.593
1256.0000	530.584
1256.5000	530.615
1257.0000	530.58
1257.5000	530.572
1258.0000	530.63
1258.5000	530.653
1259.0000	530.668
1259.5000	530.684
1260.0000	530.624
1260.5000	530.554
1261.0000	530.59
1261.5000	530.666
1262.0000	530.732
1262.5000	530.756
1263.0000	530.731
1263.5000	530.755
1264.0000	530.722
1264.5000	530.772
1265.0000	530.786
1265.5000	530.717
1266.0000	530.77
1266.5000	530.813
1267.0000	530.888
1267.5000	530.938
1268.0000	530.9
1268.5000	530.87
1269.0000	530.769
1269.5000	530.743
1270.0000	530.819
1270.5000	530.726
1271.0000	530.692
1271.5000	530.745
1272.0000	530.719
1272.5000	530.821
1273.0000	530.901
1273.5000	530.859
1274.0000	530.836
1274.5000	530.855
1275.0000	530.936
1275.5000	530.949
1276.0000	531.051
1276.5000	531.051
1277.0000	530.945
1277.5000	530.946
1278.0000	530.953
1278.5000	530.916
1279.0000	531.011
1279.5000	530.99
1280.0000	530.923
1280.5000	530.917
1281.0000	530.888
1281.5000	530.923
1282.0000	530.923
1282.5000	530.951
1283.0000	531.043
1283.5000	531.093
1284.0000	530.985
1284.5000	531
1285.0000	530.883
1285.5000	530.92
1286.0000	531.117
1286.5000	531.177
1287.0000	531.188
1287.5000	531.163
1288.0000	531.162
1288.5000	531.052
1289.0000	531.074
1289.5000	531.082
1290.0000	531.044
1290.5000	531.075
1291.0000	531.097
1291.5000	531.128
1292.0000	531.135
1292.5000	531.206
1293.0000	531.223
1293.5000	531.161
1294.0000	531.18
1294.5000	531.154
1295.0000	531.135
1295.5000	531.179
1296.0000	531.2
1296.5000	531.232
1297.0000	531.26
1297.5000	531.292
1298.0000	531.284
1298.5000	531.297
1299.0000	531.285
1299.5000	531.25
1300.0000	531.333
1300.5000	531.369
1301.0000	531.41
1301.5000	531.447
1302.0000	531.406
1302.5000	531.427
1303.0000	531.436
1303.5000	531.376
1304.0000	531.301
1304.5000	531.273
1305.0000	531.308
1305.5000	531.393
1306.0000	531.453
1306.5000	531.475
1307.0000	531.443
1307.5000	531.426
1308.0000	531.425
1308.5000	531.456
1309.0000	531.463
1309.5000	531.409
1310.0000	531.543
1310.5000	531.471
1311.0000	531.489
1311.5000	531.511
1312.0000	531.414
1312.5000	531.421
1313.0000	531.476
1313.5000	531.593
1314.0000	531.648
1314.5000	531.698
1315.0000	531.72
1315.5000	531.649
1316.0000	531.614
1316.5000	531.642
1317.0000	531.533
1317.5000	531.478
1318.0000	531.484
1318.5000	531.44
1319.0000	531.488
1319.5000	531.55
1320.0000	531.587
1320.5000	531.649
1321.0000	531.653
1321.5000	531.698
1322.0000	531.687
1322.5000	531.672
1323.0000	531.748
1323.5000	531.736
1324.0000	531.73
1324.5000	531.679
1325.0000	531.627
1325.5000	531.64
1326.0000	531.594
1326.5000	531.671
1327.0000	531.678
1327.5000	531.666
1328.0000	531.698
1328.5000	531.627
1329.0000	531.625
1329.5000	531.631
1330.0000	531.631
1330.5000	531.588
1331.0000	531.555
1331.5000	531.602
1332.0000	531.634
1332.5000	531.705
1333.0000	531.847
1333.5000	531.848
1334.0000	531.888
1334.5000	531.958
1335.0000	531.896
1335.5000	531.893
1336.0000	531.837
1336.5000	531.787
1337.0000	531.773
1337.5000	531.758
1338.0000	531.812
1338.5000	531.868
1339.0000	531.853
1339.5000	531.826
1340.0000	531.813
1340.5000	531.803
1341.0000	531.859
1341.5000	531.833
1342.0000	531.755
1342.5000	531.755
1343.0000	531.721
1343.5000	531.744
1344.0000	531.789
1344.5000	531.876
1345.0000	531.881
1345.5000	531.891
1346.0000	531.936
1346.5000	531.843
1347.0000	531.857
1347.5000	531.917
1348.0000	531.897
1348.5000	531.87
1349.0000	531.826
1349.5000	531.793
1350.0000	531.897
1350.5000	531.97
1351.0000	532.025
1351.5000	532.098
1352.0000	531.995
1352.5000	531.916
1353.0000	531.871
1353.5000	531.849
1354.0000	531.912
1354.5000	532.04
1355.0000	532.122
1355.5000	532.12
1356.0000	532.096
1356.5000	532.044
1357.0000	531.988
1357.5000	531.991
1358.0000	532.04
1358.5000	532.024
1359.0000	532.077
1359.5000	532.083
1360.0000	532.028
1360.5000	532.025
1361.0000	532.021
1361.5000	532.041
1362.0000	532.076
1362.5000	532.073
1363.0000	532.006
1363.5000	531.956
1364.0000	531.984
1364.5000	531.927
1365.0000	531.935
1365.5000	531.977
1366.0000	531.953
1366.5000	532.047
1367.0000	532.129
1367.5000	532.099
1368.0000	532.038
1368.5000	532.057
1369.0000	531.951
1369.5000	532.063
1370.0000	532.099
1370.5000	532.145
1371.0000	532.288
1371.5000	532.164
1372.0000	532.091
1372.5000	532.02
1373.0000	532.021
1373.5000	532.129
1374.0000	532.228
1374.5000	532.243
1375.0000	532.21
1375.5000	532.172
1376.0000	532.202
1376.5000	532.161
1377.0000	532.146
1377.5000	532.104
1378.0000	532.129
1378.5000	532.142
1379.0000	532.227
1379.5000	532.176
1380.0000	532.116
1380.5000	532.166
1381.0000	532.135
1381.5000	532.285
1382.0000	532.272
1382.5000	532.25
1383.0000	532.263
1383.5000	532.252
1384.0000	532.282
1384.5000	532.39
1385.0000	532.331
1385.5000	532.318
1386.0000	532.34
1386.5000	532.304
1387.0000	532.308
1387.5000	532.335
1388.0000	532.343
1388.5000	532.28
1389.0000	532.335
1389.5000	532.306
1390.0000	532.306
1390.5000	532.381
1391.0000	532.447
1391.5000	532.462
1392.0000	532.436
1392.5000	532.419
1393.0000	532.361
1393.5000	532.346
1394.0000	532.39
1394.5000	532.309
1395.0000	532.319
1395.5000	532.367
1396.0000	532.412
1396.5000	532.466
1397.0000	532.519
1397.5000	532.539
1398.0000	532.562
1398.5000	532.567
1399.0000	532.521
1399.5000	532.51
1400.0000	532.489
1400.5000	532.539
1401.0000	532.571
1401.5000	532.57
1402.0000	532.519
1402.5000	532.586
1403.0000	532.551
1403.5000	532.571
1404.0000	532.672
1404.5000	532.681
1405.0000	532.677
1405.5000	532.746
1406.0000	532.705
1406.5000	532.702
1407.0000	532.703
1407.5000	532.55
1408.0000	532.507
1408.5000	532.499
1409.0000	532.578
1409.5000	532.636
1410.0000	532.768
1410.5000	532.797
1411.0000	532.79
1411.5000	532.806
1412.0000	532.786
1412.5000	532.701
1413.0000	532.751
1413.5000	532.787
1414.0000	532.768
1414.5000	532.799
1415.0000	532.829
1415.5000	532.83
1416.0000	532.751
1416.5000	532.737
1417.0000	532.675
1417.5000	532.807
1418.0000	532.893
1418.5000	532.939
1419.0000	532.953
1419.5000	532.894
1420.0000	532.959
1420.5000	532.96
1421.0000	532.977
1421.5000	532.952
1422.0000	532.857
1422.5000	532.792
1423.0000	532.841
1423.5000	532.82
1424.0000	532.893
1424.5000	533.04
1425.0000	533.021
1425.5000	533.004
1426.0000	532.932
1426.5000	532.902
1427.0000	532.881
1427.5000	532.873
1428.0000	532.964
1428.5000	532.989
1429.0000	532.987
1429.5000	533.054
1430.0000	533.007
1430.5000	533.006
1431.0000	533.088
1431.5000	533.132
1432.0000	533.174
1432.5000	533.116
1433.0000	533.067
1433.5000	533.115
1434.0000	533.17
1434.5000	533.244
1435.0000	533.212
1435.5000	533.156
1436.0000	533.083
1436.5000	533.069
1437.0000	533.173
1437.5000	533.182
1438.0000	533.215
1438.5000	533.299
1439.0000	533.254
1439.5000	533.264
1440.0000	533.318
1440.5000	533.293
1441.0000	533.292
1441.5000	533.304
1442.0000	533.326
1442.5000	533.348
1443.0000	533.379
1443.5000	533.351
1444.0000	533.32
1444.5000	533.28
1445.0000	533.309
1445.5000	533.321
1446.0000	533.383
1446.5000	533.385
1447.0000	533.345
1447.5000	533.461
1448.0000	533.429
1448.5000	533.437
1449.0000	533.45
1449.5000	533.383
1450.0000	533.411
1450.5000	533.402
1451.0000	533.508
1451.5000	533.486
1452.0000	533.437
1452.5000	533.458
1453.0000	533.376
1453.5000	533.386
1454.0000	533.45
1454.5000	533.51
1455.0000	533.475
1455.5000	533.473
1456.0000	533.35
1456.5000	533.307
1457.0000	533.387
1457.5000	533.399
1458.0000	533.49
1458.5000	533.493
1459.0000	533.445
1459.5000	533.48
1460.0000	533.527
1460.5000	533.578
1461.0000	533.609
1461.5000	533.647
1462.0000	533.683
1462.5000	533.671
1463.0000	533.646
1463.5000	533.61
1464.0000	533.572
1464.5000	533.526
1465.0000	533.538
1465.5000	533.585
1466.0000	533.626
1466.5000	533.651
1467.0000	533.717
1467.5000	533.711
1468.0000	533.628
1468.5000	533.663
1469.0000	533.656
1469.5000	533.602
1470.0000	533.613
1470.5000	533.596
1471.0000	533.583
1471.5000	533.61
1472.0000	533.68
1472.5000	533.666
1473.0000	533.621
1473.5000	533.66
1474.0000	533.563
1474.5000	533.6
1475.0000	533.625
1475.5000	533.557
1476.0000	533.674
1476.5000	533.705
1477.0000	533.656
1477.5000	533.712
1478.0000	533.602
1478.5000	533.588
1479.0000	533.653
1479.5000	533.616
1480.0000	533.628
1480.5000	533.634
1481.0000	533.62
1481.5000	533.654
1482.0000	533.654
1482.5000	533.598
1483.0000	533.557
1483.5000	533.512
1484.0000	533.5
1484.5000	533.461
1485.0000	533.506
1485.5000	533.589
1486.0000	533.581
1486.5000	533.647
1487.0000	533.651
1487.5000	533.624
1488.0000	533.603
1488.5000	533.594
1489.0000	533.556
1489.5000	533.454
1490.0000	533.518
1490.5000	533.487
1491.0000	533.534
1491.5000	533.63
1492.0000	533.628
1492.5000	533.66
1493.0000	533.702
1493.5000	533.661
1494.0000	533.655
1494.5000	533.747
1495.0000	533.736
1495.5000	533.787
1496.0000	533.854
1496.5000	533.755
1497.0000	533.684
1497.5000	533.746
1498.0000	533.731
1498.5000	533.705
1499.0000	533.702
1499.5000	533.65
1500.0000	533.706
1500.5000	533.774
1501.0000	533.829
1501.5000	533.818
1502.0000	533.793
1502.5000	533.729
1503.0000	533.721
1503.5000	533.67
1504.0000	533.561
1504.5000	533.615
1505.0000	533.625
1505.5000	533.714
1506.0000	533.803
1506.5000	533.811
1507.0000	533.778
1507.5000	533.743
1508.0000	533.708
1508.5000	533.646
1509.0000	533.596
1509.5000	533.606
1510.0000	533.569
1510.5000	533.635
1511.0000	533.717
1511.5000	533.664
1512.0000	533.68
1512.5000	533.718
1513.0000	533.718
1513.5000	533.727
1514.0000	533.773
1514.5000	533.703
1515.0000	533.769
1515.5000	533.804
1516.0000	533.818
1516.5000	533.796
1517.0000	533.788
1517.5000	533.782
1518.0000	533.691
1518.5000	533.719
1519.0000	533.61
1519.5000	533.572
1520.0000	533.61
1520.5000	533.573
1521.0000	533.636
1521.5000	533.651
1522.0000	533.686
1522.5000	533.745
1523.0000	533.674
1523.5000	533.709
1524.0000	533.63
1524.5000	533.545
1525.0000	533.572
1525.5000	533.587
1526.0000	533.716
1526.5000	533.758
1527.0000	533.745
1527.5000	533.722
1528.0000	533.693
1528.5000	533.646
1529.0000	533.637
1529.5000	533.648
1530.0000	533.67
1530.5000	533.745
1531.0000	533.759
1531.5000	533.708
1532.0000	533.599
1532.5000	533.638
1533.0000	533.657
1533.5000	533.663
1534.0000	533.689
1534.5000	533.643
1535.0000	533.654
1535.5000	533.641
1536.0000	533.702
1536.5000	533.626
1537.0000	533.603
1537.5000	533.615
1538.0000	533.599
1538.5000	533.568
1539.0000	533.521
1539.5000	533.583
1540.0000	533.623
1540.5000	533.684
1541.0000	533.777
1541.5000	533.737
1542.0000	533.67
1542.5000	533.769
1543.0000	533.779
1543.5000	533.739
1544.0000	533.751
1544.5000	533.715
1545.0000	533.669
1545.5000	533.665
1546.0000	533.666
1546.5000	533.731
1547.0000	533.664
1547.5000	533.66
1548.0000	533.621
1548.5000	533.513
1549.0000	533.535
1549.5000	533.529
1550.0000	533.56
1550.5000	533.616
1551.0000	533.673
1551.5000	533.711
1552.0000	533.594
1552.5000	533.626
1553.0000	533.619
1553.5000	533.542
1554.0000	533.587
1554.5000	533.556
1555.0000	533.514
1555.5000	533.565
1556.0000	533.635
1556.5000	533.65
1557.0000	533.677
1557.5000	533.757
1558.0000	533.738
1558.5000	533.665
1559.0000	533.683
1559.5000	533.595
1560.0000	533.571
1560.5000	533.542
1561.0000	533.56
1561.5000	533.56
1562.0000	533.545
1562.5000	533.596
1563.0000	533.523
1563.5000	533.551
1564.0000	533.575
1564.5000	533.562
1565.0000	533.591
1565.5000	533.681
1566.0000	533.713
1566.5000	533.713
1567.0000	533.652
1567.5000	533.481
1568.0000	533.446
1568.5000	533.415
1569.0000	533.431
1569.5000	533.361
1570.0000	533.36
1570.5000	533.325
1571.0000	533.335
1571.5000	533.379
1572.0000	533.326
1572.5000	533.348
1573.0000	533.382
1573.5000	533.455
1574.0000	533.525
1574.5000	533.524
1575.0000	533.546
1575.5000	533.474
1576.0000	533.455
1576.5000	533.468
1577.0000	533.409
1577.5000	533.456
1578.0000	533.369
1578.5000	533.301
1579.0000	533.334
1579.5000	533.46
1580.0000	533.518
1580.5000	533.568
1581.0000	533.595
1581.5000	533.497
1582.0000	533.46
1582.5000	533.432
1583.0000	533.399
1583.5000	533.364
1584.0000	533.409
1584.5000	533.395
1585.0000	533.412
1585.5000	533.454
1586.0000	533.481
1586.5000	533.465
1587.0000	533.524
1587.5000	533.527
1588.0000	533.51
1588.5000	533.578
1589.0000	533.482
1589.5000	533.482
1590.0000	533.44
1590.5000	533.381
1591.0000	533.355
1591.5000	533.214
1592.0000	533.275
1592.5000	533.316
1593.0000	533.375
1593.5000	533.435
1594.0000	533.361
1594.5000	533.413
1595.0000	533.276
1595.5000	533.328
1596.0000	533.349
1596.5000	533.289
1597.0000	533.326
1597.5000	533.253
1598.0000	533.25
1598.5000	533.311
1599.0000	533.24
1599.5000	533.334
1600.0000	533.339
1600.5000	533.328
1601.0000	533.416
1601.5000	533.356
1602.0000	533.371
1602.5000	533.242
1603.0000	533.301
1603.5000	533.288
1604.0000	533.263
1604.5000	533.384
1605.0000	533.336
1605.5000	533.371
1606.0000	533.353
1606.5000	533.32
1607.0000	533.361
1607.5000	533.457
1608.0000	533.473
1608.5000	533.408
1609.0000	533.331
1609.5000	533.236
1610.0000	533.182
1610.5000	533.229
1611.0000	533.297
1611.5000	533.341
1612.0000	533.427
1612.5000	533.441
1613.0000	533.471
1613.5000	533.421
1614.0000	533.426
1614.5000	533.418
1615.0000	533.424
1615.5000	533.433
1616.0000	533.468
1616.5000	533.517
1617.0000	533.441
1617.5000	533.43
1618.0000	533.348
1618.5000	533.339
1619.0000	533.346
1619.5000	533.354
1620.0000	533.388
1620.5000	533.391
1621.0000	533.386
1621.5000	533.394
1622.0000	533.406
1622.5000	533.428
1623.0000	533.501
1623.5000	533.479
1624.0000	533.452
1624.5000	533.412
1625.0000	533.374
1625.5000	533.373
1626.0000	533.361
1626.5000	533.375
1627.0000	533.456
1627.5000	533.43
1628.0000	533.378
1628.5000	533.369
1629.0000	533.285
1629.5000	533.341
1630.0000	533.409
1630.5000	533.422
1631.0000	533.465
1631.5000	533.501
1632.0000	533.56
1632.5000	533.571
1633.0000	533.582
1633.5000	533.609
1634.0000	533.591
1634.5000	533.619
1635.0000	533.598
1635.5000	533.535
1636.0000	533.6
1636.5000	533.503
1637.0000	533.553
1637.5000	533.54
1638.0000	533.583
1638.5000	533.613
1639.0000	533.545
1639.5000	533.588
1640.0000	533.485
1640.5000	533.487
1641.0000	533.435
1641.5000	533.467
1642.0000	533.505
1642.5000	533.544
1643.0000	533.644
1643.5000	533.663
1644.0000	533.582
1644.5000	533.631
1645.0000	533.585
1645.5000	533.499
1646.0000	533.506
1646.5000	533.501
1647.0000	533.601
1647.5000	533.668
1648.0000	533.731
1648.5000	533.711
1649.0000	533.617
1649.5000	533.602
1650.0000	533.605
1650.5000	533.533
1651.0000	533.571
1651.5000	533.6
1652.0000	533.544
1652.5000	533.64
1653.0000	533.741
1653.5000	533.632
1654.0000	533.66
1654.5000	533.597
1655.0000	533.492
1655.5000	533.619
1656.0000	533.664
1656.5000	533.717
1657.0000	533.778
1657.5000	533.734
1658.0000	533.691
1658.5000	533.676
1659.0000	533.649
1659.5000	533.618
1660.0000	533.598
1660.5000	533.584
1661.0000	533.608
1661.5000	533.644
1662.0000	533.683
1662.5000	533.695
1663.0000	533.697
1663.5000	533.694
1664.0000	533.775
1664.5000	533.785
1665.0000	533.738
1665.5000	533.712
1666.0000	533.64
1666.5000	533.685
1667.0000	533.65
1667.5000	533.634
1668.0000	533.65
1668.5000	533.622
1669.0000	533.692
1669.5000	533.726
1670.0000	533.626
1670.5000	533.612
1671.0000	533.569
1671.5000	533.484
1672.0000	533.53
1672.5000	533.514
1673.0000	533.489
1673.5000	533.662
1674.0000	533.715
1674.5000	533.726
1675.0000	533.763
1675.5000	533.62
1676.0000	533.602
1676.5000	533.573
1677.0000	533.552
1677.5000	533.613
1678.0000	533.539
1678.5000	533.612
1679.0000	533.679
1679.5000	533.661
1680.0000	533.747
1680.5000	533.714
1681.0000	533.65
1681.5000	533.762
1682.0000	533.699
1682.5000	533.783
1683.0000	533.81
1683.5000	533.805
1684.0000	533.877
1684.5000	533.748
1685.0000	533.73
1685.5000	533.655
1686.0000	533.603
1686.5000	533.66
1687.0000	533.753
1687.5000	533.757
1688.0000	533.823
1688.5000	533.79
1689.0000	533.706
1689.5000	533.686
1690.0000	533.705
1690.5000	533.778
1691.0000	533.794
1691.5000	533.879
1692.0000	533.895
1692.5000	533.863
1693.0000	533.973
1693.5000	533.884
1694.0000	533.853
1694.5000	533.904
1695.0000	533.777
1695.5000	533.913
1696.0000	533.871
1696.5000	533.837
1697.0000	533.928
1697.5000	533.81
1698.0000	533.828
1698.5000	533.822
1699.0000	533.732
1699.5000	533.833
1700.0000	533.804
1700.5000	533.814
1701.0000	533.873
1701.5000	533.872
1702.0000	533.938
1702.5000	533.912
1703.0000	533.947
1703.5000	533.893
1704.0000	533.91
1704.5000	533.935
1705.0000	533.864
1705.5000	533.821
1706.0000	533.886
1706.5000	533.966
1707.0000	534.031
1707.5000	534.216
1708.0000	534.223
1708.5000	534.139
1709.0000	534.174
1709.5000	534.063
1710.0000	534.017
1710.5000	534.072
1711.0000	534.058
1711.5000	534.063
1712.0000	534.022
1712.5000	534
1713.0000	534.009
1713.5000	534.046
1714.0000	534.16
1714.5000	534.132
1715.0000	534.113
1715.5000	534.017
1716.0000	533.967
1716.5000	534.044
1717.0000	534.058
1717.5000	534.211
1718.0000	534.248
1718.5000	534.278
1719.0000	534.227
1719.5000	534.212
1720.0000	534.168
1720.5000	534.071
1721.0000	534.148
1721.5000	534.15
1722.0000	534.143
1722.5000	534.164
1723.0000	534.137
1723.5000	534.121
1724.0000	534.14
1724.5000	534.172
1725.0000	534.106
1725.5000	534.076
1726.0000	534.066
1726.5000	534.001
1727.0000	534.07
1727.5000	534.111
1728.0000	534.083
1728.5000	534.218
1729.0000	534.195
1729.5000	534.152
1730.0000	534.195
1730.5000	534.162
1731.0000	534.201
1731.5000	534.213
1732.0000	534.253
1732.5000	534.201
1733.0000	534.271
1733.5000	534.279
1734.0000	534.245
1734.5000	534.255
1735.0000	534.088
1735.5000	534.094
1736.0000	534.057
1736.5000	534.071
1737.0000	534.232
1737.5000	534.212
1738.0000	534.191
1738.5000	534.219
1739.0000	534.141
1739.5000	534.143
1740.0000	534.135
1740.5000	534.124
1741.0000	534.119
1741.5000	534.152
1742.0000	534.25
1742.5000	534.296
1743.0000	534.31
1743.5000	534.259
1744.0000	534.261
1744.5000	534.301
1745.0000	534.263
1745.5000	534.334
1746.0000	534.325
1746.5000	534.18
1747.0000	534.185
1747.5000	534.208
1748.0000	534.239
1748.5000	534.265
1749.0000	534.362
1749.5000	534.363
1750.0000	534.319
1750.5000	534.294
1751.0000	534.254
1751.5000	534.167
1752.0000	534.148
1752.5000	534.124
1753.0000	534.096
1753.5000	534.089
1754.0000	534.105
1754.5000	534.188
1755.0000	534.156
1755.5000	534.19
1756.0000	534.197
1756.5000	534.148
1757.0000	534.125
1757.5000	534.105
1758.0000	534.13
1758.5000	534.171
1759.0000	534.272
1759.5000	534.289
1760.0000	534.245
1760.5000	534.303
1761.0000	534.251
1761.5000	534.227
1762.0000	534.185
1762.5000	534.1
1763.0000	534.093
1763.5000	534.071
1764.0000	534.111
1764.5000	534.088
1765.0000	534.154
1765.5000	534.206
1766.0000	534.186
1766.5000	534.138
1767.0000	534.054
1767.5000	533.994
1768.0000	533.909
1768.5000	533.917
1769.0000	533.925
1769.5000	533.859
1770.0000	533.897
1770.5000	533.916
1771.0000	533.852
1771.5000	533.901
1772.0000	533.81
1772.5000	533.716
1773.0000	533.692
1773.5000	533.549
1774.0000	533.584
1774.5000	533.658
1775.0000	533.575
1775.5000	533.502
1776.0000	533.377
1776.5000	533.262
1777.0000	533.208
1777.5000	533.145
1778.0000	533.059
1778.5000	532.863
1779.0000	532.713
1779.5000	532.565
1780.0000	532.44
1780.5000	532.319
1781.0000	532.24
1781.5000	532.177
1782.0000	531.97
1782.5000	531.828
1783.0000	531.585
1783.5000	531.339
1784.0000	531.188
1784.5000	531.008
1785.0000	530.798
1785.5000	530.576
1786.0000	530.39
1786.5000	530.127
1787.0000	529.9
1787.5000	529.683
1788.0000	529.4
1788.5000	529.185
1789.0000	528.984
1789.5000	528.751
1790.0000	528.506
1790.5000	528.159
1791.0000	527.896
1791.5000	527.529
1792.0000	527.123
1792.5000	526.736
1793.0000	526.288
1793.5000	525.952
1794.0000	525.598
1794.5000	525.283
1795.0000	524.87
1795.5000	524.46
1796.0000	524.077
1796.5000	523.708
1797.0000	523.335
1797.5000	522.953
1798.0000	522.557
1798.5000	522.077
1799.0000	521.695
1799.5000	521.254
1800.0000	520.796
1800.5000	520.376
1801.0000	519.876
1801.5000	519.516
1802.0000	519.089
1802.5000	518.604
1803.0000	518.19
1803.5000	517.591
1804.0000	517.116
1804.5000	516.7
1805.0000	516.129
1805.5000	515.72
1806.0000	515.317
1806.5000	514.867
1807.0000	514.493
1807.5000	513.958
1808.0000	513.441
1808.5000	512.934
1809.0000	512.503
1809.5000	512.089
1810.0000	511.627
1810.5000	511.257
1811.0000	510.753
1811.5000	510.381
1812.0000	509.959
1812.5000	509.543
1813.0000	509.187
1813.5000	508.73
1814.0000	508.359
1814.5000	507.969
1815.0000	507.607
1815.5000	507.316
1816.0000	506.979
1816.5000	506.58
1817.0000	506.127
1817.5000	505.751
1818.0000	505.42
1818.5000	505.043
1819.0000	504.794
1819.5000	504.573
1820.0000	504.369
1820.5000	504.193
1821.0000	503.984
1821.5000	503.665
1822.0000	503.414
1822.5000	503.163
1823.0000	502.905
1823.5000	502.744
1824.0000	502.452
1824.5000	502.306
1825.0000	502.195
1825.5000	502.033
1826.0000	501.924
1826.5000	501.781
1827.0000	501.688
1827.5000	501.565
1828.0000	501.429
1828.5000	501.374
1829.0000	501.255
1829.5000	501.138
1830.0000	501.096
1830.5000	501.028
1831.0000	500.987
1831.5000	500.939
1832.0000	500.983
1832.5000	500.978
1833.0000	500.986
1833.5000	501.028
1834.0000	501.049
1834.5000	501.044
1835.0000	501.004
1835.5000	501.055
1836.0000	501.079
1836.5000	501.126
1837.0000	501.217
1837.5000	501.27
1838.0000	501.289
1838.5000	501.395
1839.0000	501.391
1839.5000	501.427
1840.0000	501.437
1840.5000	501.472
1841.0000	501.68
