TITLE	
DATA TYPE	
ORIGIN	JASCO
OWNER	
DATE	22/08/25
TIME	12:02:36
SPECTROMETER/DATA SYSTEM	
RESOLUTION	
DELTAX	0.5
XUNITS	SEC
YUNITS	INTENSITY
FIRSTX	0.0000
LASTX	2000.0000
NPOINTS	4001
FIRSTY	576.23340
MAXY	677.29443
MINY	-84.20966
XYDATA
0.0000	576.233
0.5000	576.319
1.0000	576.27
1.5000	576.268
2.0000	576.258
2.5000	576.208
3.0000	576.165
3.5000	576.145
4.0000	576.127
4.5000	576.079
5.0000	576.172
5.5000	576.197
6.0000	576.119
6.5000	576.124
7.0000	576.041
7.5000	575.961
8.0000	575.966
8.5000	575.909
9.0000	575.976
9.5000	576.01
10.0000	576.065
10.5000	576.078
11.0000	575.945
11.5000	575.923
12.0000	575.795
12.5000	575.815
13.0000	575.79
13.5000	575.818
14.0000	575.823
14.5000	575.811
15.0000	575.813
15.5000	575.709
16.0000	575.71
16.5000	575.704
17.0000	575.68
17.5000	575.729
18.0000	577.357
18.5000	565.62
19.0000	545.201
19.5000	487.656
20.0000	-84.2097
20.5000	-48.2293
21.0000	-34.9336
21.5000	-31.6101
22.0000	-30.1204
22.5000	-29.5042
23.0000	-28.8695
23.5000	-28.5399
24.0000	-28.2443
24.5000	-28.0195
25.0000	-27.8545
25.5000	-27.6427
26.0000	-27.4495
26.5000	-26.3014
27.0000	344.34
27.5000	342.45
28.0000	342.341
28.5000	342.253
29.0000	324.39
29.5000	324.953
30.0000	325.293
30.5000	325.726
31.0000	326.154
31.5000	326.621
32.0000	327.041
32.5000	327.486
33.0000	327.932
33.5000	328.386
34.0000	328.846
34.5000	329.308
35.0000	329.796
35.5000	330.286
36.0000	330.796
36.5000	331.26
37.0000	331.777
37.5000	332.229
38.0000	332.694
38.5000	333.233
39.0000	333.696
39.5000	334.188
40.0000	334.667
40.5000	335.135
41.0000	335.597
41.5000	336.074
42.0000	336.571
42.5000	337.037
43.0000	337.497
43.5000	337.983
44.0000	338.471
44.5000	338.932
45.0000	339.446
45.5000	339.921
46.0000	340.384
46.5000	340.896
47.0000	341.378
47.5000	341.863
48.0000	342.334
48.5000	342.768
49.0000	343.209
49.5000	343.712
50.0000	344.202
50.5000	344.711
51.0000	345.227
51.5000	345.671
52.0000	346.126
52.5000	346.551
53.0000	346.983
53.5000	347.46
54.0000	347.914
54.5000	348.415
55.0000	348.886
55.5000	349.32
56.0000	349.771
56.5000	350.264
57.0000	350.748
57.5000	351.26
58.0000	351.795
58.5000	352.278
59.0000	352.712
59.5000	353.182
60.0000	353.643
60.5000	354.091
61.0000	354.658
61.5000	355.124
62.0000	355.533
62.5000	355.954
63.0000	356.347
63.5000	356.817
64.0000	357.366
64.5000	357.839
65.0000	358.273
65.5000	358.697
66.0000	359.123
66.5000	359.611
67.0000	360.089
67.5000	360.552
68.0000	361.049
68.5000	361.522
69.0000	362.001
69.5000	362.457
70.0000	362.854
70.5000	363.289
71.0000	363.742
71.5000	364.164
72.0000	364.601
72.5000	365.037
73.0000	365.506
73.5000	366.026
74.0000	366.499
74.5000	366.975
75.0000	367.382
75.5000	367.795
76.0000	368.241
76.5000	368.694
77.0000	369.187
77.5000	369.646
78.0000	370.07
78.5000	370.531
79.0000	370.947
79.5000	371.394
80.0000	371.881
80.5000	372.299
81.0000	372.744
81.5000	373.21
82.0000	373.702
82.5000	374.16
83.0000	374.663
83.5000	375.128
84.0000	375.546
84.5000	376.026
85.0000	376.415
85.5000	376.928
86.0000	377.42
86.5000	377.793
87.0000	378.245
87.5000	378.59
88.0000	378.941
88.5000	379.413
89.0000	379.913
89.5000	380.384
90.0000	380.853
90.5000	381.323
91.0000	381.722
91.5000	382.157
92.0000	382.592
92.5000	383.001
93.0000	383.428
93.5000	383.84
94.0000	384.245
94.5000	384.65
95.0000	385.05
95.5000	385.519
96.0000	385.981
96.5000	386.385
97.0000	386.858
97.5000	387.27
98.0000	387.738
98.5000	388.209
99.0000	388.653
99.5000	389.049
100.0000	389.484
100.5000	389.929
101.0000	390.328
101.5000	390.779
102.0000	391.174
102.5000	391.581
103.0000	392.012
103.5000	392.46
104.0000	392.935
104.5000	393.361
105.0000	393.771
105.5000	394.186
106.0000	394.521
106.5000	394.964
107.0000	395.417
107.5000	395.801
108.0000	396.231
108.5000	396.642
109.0000	397.074
109.5000	397.501
110.0000	397.972
110.5000	398.407
111.0000	398.76
111.5000	399.121
112.0000	399.524
112.5000	399.937
113.0000	400.378
113.5000	400.89
114.0000	401.212
114.5000	401.636
115.0000	402.023
115.5000	402.379
116.0000	402.855
116.5000	403.236
117.0000	403.691
117.5000	404.052
118.0000	404.483
118.5000	404.89
119.0000	405.258
119.5000	405.677
120.0000	406.032
120.5000	406.447
121.0000	406.815
121.5000	407.331
122.0000	407.748
122.5000	408.08
123.0000	408.577
123.5000	408.892
124.0000	409.225
124.5000	409.697
125.0000	410.069
125.5000	410.473
126.0000	410.951
126.5000	411.31
127.0000	411.678
127.5000	412.121
128.0000	412.418
128.5000	412.856
129.0000	413.303
129.5000	413.618
130.0000	414.13
130.5000	414.525
131.0000	414.916
131.5000	415.326
132.0000	415.631
132.5000	415.94
133.0000	416.28
133.5000	416.647
134.0000	417.136
134.5000	417.529
135.0000	417.915
135.5000	418.38
136.0000	418.71
136.5000	419.144
137.0000	419.577
137.5000	419.902
138.0000	420.246
138.5000	420.611
139.0000	420.874
139.5000	421.228
140.0000	421.594
140.5000	421.986
141.0000	422.45
141.5000	422.838
142.0000	423.249
142.5000	423.627
143.0000	423.987
143.5000	424.352
144.0000	424.74
144.5000	425.095
145.0000	425.458
145.5000	425.844
146.0000	426.146
146.5000	426.518
147.0000	426.846
147.5000	427.216
148.0000	427.637
148.5000	427.985
149.0000	428.384
149.5000	428.792
150.0000	429.107
150.5000	429.48
151.0000	429.943
151.5000	430.289
152.0000	430.672
152.5000	431.033
153.0000	431.396
153.5000	431.75
154.0000	432.166
154.5000	432.538
155.0000	432.796
155.5000	433.225
156.0000	433.581
156.5000	433.949
157.0000	434.33
157.5000	434.651
158.0000	434.935
158.5000	435.267
159.0000	435.62
159.5000	435.948
160.0000	436.391
160.5000	436.768
161.0000	437.118
161.5000	437.529
162.0000	437.859
162.5000	438.232
163.0000	438.564
163.5000	438.824
164.0000	439.197
164.5000	439.502
165.0000	439.886
165.5000	440.303
166.0000	440.605
166.5000	440.935
167.0000	441.251
167.5000	441.495
168.0000	441.858
168.5000	442.235
169.0000	442.59
169.5000	442.994
170.0000	443.325
170.5000	443.648
171.0000	443.992
171.5000	444.266
172.0000	444.571
172.5000	444.896
173.0000	445.203
173.5000	445.535
174.0000	445.884
174.5000	446.19
175.0000	446.457
175.5000	446.875
176.0000	447.235
176.5000	447.599
177.0000	448.065
177.5000	448.364
178.0000	448.717
178.5000	449.039
179.0000	449.4
179.5000	449.765
180.0000	450.051
180.5000	450.377
181.0000	450.636
181.5000	450.886
182.0000	451.201
182.5000	451.561
183.0000	451.869
183.5000	452.229
184.0000	452.598
184.5000	452.95
185.0000	453.29
185.5000	453.577
186.0000	453.879
186.5000	454.165
187.0000	454.476
187.5000	454.795
188.0000	455.091
188.5000	455.382
189.0000	455.606
189.5000	455.954
190.0000	456.256
190.5000	456.559
191.0000	456.941
191.5000	457.267
192.0000	457.633
192.5000	457.953
193.0000	458.249
193.5000	458.545
194.0000	458.815
194.5000	459.188
195.0000	459.546
195.5000	459.841
196.0000	460.166
196.5000	460.406
197.0000	460.661
197.5000	460.924
198.0000	461.192
198.5000	461.534
199.0000	461.838
199.5000	462.22
200.0000	462.568
200.5000	462.843
201.0000	463.216
201.5000	463.544
202.0000	463.812
202.5000	464.116
203.0000	464.427
203.5000	464.67
204.0000	465.021
204.5000	465.354
205.0000	465.55
205.5000	465.866
206.0000	466.138
206.5000	466.422
207.0000	466.795
207.5000	467.112
208.0000	467.407
208.5000	467.695
209.0000	467.948
209.5000	468.211
210.0000	468.443
210.5000	468.709
211.0000	468.977
211.5000	469.181
212.0000	469.503
212.5000	469.768
213.0000	470.076
213.5000	470.419
214.0000	470.667
214.5000	471.08
215.0000	471.352
215.5000	471.63
216.0000	471.946
216.5000	472.132
217.0000	472.517
217.5000	472.879
218.0000	473.199
218.5000	473.496
219.0000	473.739
219.5000	474.011
220.0000	474.305
220.5000	474.573
221.0000	474.868
221.5000	475.155
222.0000	475.4
222.5000	475.66
223.0000	475.924
223.5000	476.207
224.0000	476.429
224.5000	476.732
225.0000	477.054
225.5000	477.292
226.0000	477.623
226.5000	477.899
227.0000	478.095
227.5000	478.486
228.0000	478.742
228.5000	479.046
229.0000	479.327
229.5000	479.511
230.0000	479.855
230.5000	480.138
231.0000	480.368
231.5000	480.622
232.0000	480.869
232.5000	481.089
233.0000	481.45
233.5000	481.714
234.0000	481.914
234.5000	482.233
235.0000	482.492
235.5000	482.855
236.0000	483.109
236.5000	483.396
237.0000	483.634
237.5000	483.83
238.0000	484.188
238.5000	484.443
239.0000	484.687
239.5000	484.88
240.0000	485.136
240.5000	485.376
241.0000	485.668
241.5000	485.999
242.0000	486.275
242.5000	486.54
243.0000	486.733
243.5000	486.98
244.0000	487.141
244.5000	487.39
245.0000	487.749
245.5000	488.073
246.0000	488.426
246.5000	488.702
247.0000	488.876
247.5000	489.132
248.0000	489.366
248.5000	489.61
249.0000	489.942
249.5000	490.187
250.0000	490.431
250.5000	490.681
251.0000	490.866
251.5000	491.038
252.0000	491.269
252.5000	491.569
253.0000	491.83
253.5000	492.078
254.0000	492.361
254.5000	492.622
255.0000	492.876
255.5000	493.059
256.0000	493.34
256.5000	493.605
257.0000	493.909
257.5000	494.262
258.0000	494.459
258.5000	494.621
259.0000	494.833
259.5000	495.083
260.0000	495.327
260.5000	495.619
261.0000	495.881
261.5000	496.137
262.0000	496.439
262.5000	496.675
263.0000	496.892
263.5000	497.146
264.0000	497.378
264.5000	497.576
265.0000	497.849
265.5000	498.093
266.0000	498.297
266.5000	498.591
267.0000	498.922
267.5000	499.172
268.0000	499.353
268.5000	499.533
269.0000	499.718
269.5000	499.982
270.0000	500.273
270.5000	500.487
271.0000	500.694
271.5000	500.851
272.0000	501.042
272.5000	501.294
273.0000	501.584
273.5000	501.831
274.0000	502.142
274.5000	502.443
275.0000	502.613
275.5000	502.883
276.0000	503.091
276.5000	503.348
277.0000	503.62
277.5000	503.825
278.0000	504.156
278.5000	504.354
279.0000	504.551
279.5000	504.826
280.0000	504.988
280.5000	505.281
281.0000	505.582
281.5000	505.829
282.0000	506.091
282.5000	506.331
283.0000	506.575
283.5000	506.714
284.0000	506.92
284.5000	507.109
285.0000	507.282
285.5000	507.549
286.0000	507.842
286.5000	508.118
287.0000	508.364
287.5000	508.583
288.0000	508.774
288.5000	508.919
289.0000	509.151
289.5000	509.387
290.0000	509.589
290.5000	509.866
291.0000	510.113
291.5000	510.379
292.0000	510.621
292.5000	510.799
293.0000	510.913
293.5000	511.093
294.0000	511.301
294.5000	511.547
295.0000	511.863
295.5000	512.167
296.0000	512.403
296.5000	512.553
297.0000	512.728
297.5000	512.921
298.0000	513.186
298.5000	513.454
299.0000	513.719
299.5000	513.909
300.0000	514.096
300.5000	514.353
301.0000	514.58
301.5000	514.85
302.0000	515.097
302.5000	515.25
303.0000	515.484
303.5000	515.71
304.0000	515.93
304.5000	516.167
305.0000	516.346
305.5000	516.512
306.0000	516.726
306.5000	516.976
307.0000	517.191
307.5000	517.436
308.0000	517.701
308.5000	517.91
309.0000	518.127
309.5000	518.348
310.0000	518.507
310.5000	518.742
311.0000	519.003
311.5000	519.207
312.0000	519.449
312.5000	519.633
313.0000	519.857
313.5000	519.996
314.0000	520.167
314.5000	520.42
315.0000	520.593
315.5000	520.892
316.0000	521.131
316.5000	521.325
317.0000	521.57
317.5000	521.779
318.0000	522.019
318.5000	522.206
319.0000	522.417
319.5000	522.63
320.0000	522.803
320.5000	523.071
321.0000	523.254
321.5000	523.453
322.0000	523.651
322.5000	523.862
323.0000	524.071
323.5000	524.374
324.0000	524.653
324.5000	524.852
325.0000	525.14
325.5000	525.253
326.0000	525.434
326.5000	525.686
327.0000	525.861
327.5000	526.162
328.0000	526.369
328.5000	526.557
329.0000	526.746
329.5000	526.866
330.0000	527.129
330.5000	527.28
331.0000	527.495
331.5000	527.738
332.0000	527.878
332.5000	528.088
333.0000	528.246
333.5000	528.429
334.0000	528.618
334.5000	528.874
335.0000	529.068
335.5000	529.323
336.0000	529.523
336.5000	529.709
337.0000	529.966
337.5000	530.131
338.0000	530.358
338.5000	530.504
339.0000	530.699
339.5000	530.903
340.0000	531.047
340.5000	531.331
341.0000	531.561
341.5000	531.748
342.0000	532.009
342.5000	532.191
343.0000	532.326
343.5000	532.525
344.0000	532.692
344.5000	532.935
345.0000	533.132
345.5000	533.304
346.0000	533.56
346.5000	533.692
347.0000	533.925
347.5000	534.18
348.0000	534.358
348.5000	534.605
349.0000	534.794
349.5000	534.946
350.0000	535.206
350.5000	535.394
351.0000	535.61
351.5000	535.77
352.0000	535.877
352.5000	536.079
353.0000	536.307
353.5000	536.561
354.0000	536.799
354.5000	536.929
355.0000	537.125
355.5000	537.325
356.0000	537.523
356.5000	537.717
357.0000	537.865
357.5000	538.08
358.0000	538.298
358.5000	538.582
359.0000	538.776
359.5000	538.954
360.0000	539.099
360.5000	539.277
361.0000	539.489
361.5000	539.721
362.0000	539.886
362.5000	540.038
363.0000	540.296
363.5000	540.427
364.0000	540.642
364.5000	540.84
365.0000	540.945
365.5000	541.199
366.0000	541.402
366.5000	541.617
367.0000	541.832
367.5000	541.991
368.0000	542.22
368.5000	542.334
369.0000	542.517
369.5000	542.673
370.0000	542.856
370.5000	543.11
371.0000	543.284
371.5000	543.453
372.0000	543.595
372.5000	543.761
373.0000	543.915
373.5000	544.168
374.0000	544.392
374.5000	544.665
375.0000	544.848
375.5000	545.086
376.0000	545.232
376.5000	545.337
377.0000	545.593
377.5000	545.709
378.0000	545.863
378.5000	546.039
379.0000	546.249
379.5000	546.441
380.0000	546.675
380.5000	546.863
381.0000	547.06
381.5000	547.306
382.0000	547.482
382.5000	547.736
383.0000	547.832
383.5000	548.016
384.0000	548.185
384.5000	548.339
385.0000	548.602
385.5000	548.797
386.0000	548.967
386.5000	549.095
387.0000	549.217
387.5000	549.304
388.0000	549.458
388.5000	549.629
389.0000	549.859
389.5000	550.031
390.0000	550.272
390.5000	550.451
391.0000	550.532
391.5000	550.726
392.0000	550.896
392.5000	551.123
393.0000	551.348
393.5000	551.54
394.0000	551.737
394.5000	551.916
395.0000	552.112
395.5000	552.208
396.0000	552.41
396.5000	552.562
397.0000	552.744
397.5000	552.964
398.0000	553.105
398.5000	553.31
399.0000	553.502
399.5000	553.639
400.0000	553.832
400.5000	554.055
401.0000	554.225
401.5000	554.521
402.0000	554.687
402.5000	554.827
403.0000	554.985
403.5000	555.136
404.0000	555.405
404.5000	555.657
405.0000	555.896
405.5000	556.036
406.0000	556.084
406.5000	556.21
407.0000	556.357
407.5000	556.578
408.0000	556.756
408.5000	556.97
409.0000	557.112
409.5000	557.309
410.0000	557.535
410.5000	557.664
411.0000	557.888
411.5000	558.026
412.0000	558.215
412.5000	558.43
413.0000	558.506
413.5000	558.699
414.0000	558.903
414.5000	559.063
415.0000	559.262
415.5000	559.398
416.0000	559.465
416.5000	559.565
417.0000	559.665
417.5000	559.852
418.0000	560.181
418.5000	560.351
419.0000	560.611
419.5000	560.74
420.0000	560.766
420.5000	560.976
421.0000	561.145
421.5000	561.269
422.0000	561.407
422.5000	561.576
423.0000	561.761
423.5000	561.974
424.0000	562.21
424.5000	562.391
425.0000	562.508
425.5000	562.642
426.0000	562.789
426.5000	562.917
427.0000	563.015
427.5000	563.303
428.0000	563.454
428.5000	563.645
429.0000	563.822
429.5000	563.953
430.0000	564.114
430.5000	564.213
431.0000	564.402
431.5000	564.538
432.0000	564.719
432.5000	564.948
433.0000	565.14
433.5000	565.235
434.0000	565.437
434.5000	565.574
435.0000	565.723
435.5000	565.885
436.0000	565.95
436.5000	566.149
437.0000	566.328
437.5000	566.478
438.0000	566.734
438.5000	566.897
439.0000	567.007
439.5000	567.219
440.0000	567.348
440.5000	567.47
441.0000	567.694
441.5000	567.787
442.0000	567.976
442.5000	568.104
443.0000	568.248
443.5000	568.5
444.0000	568.608
444.5000	568.876
445.0000	569.001
445.5000	569.167
446.0000	569.304
446.5000	569.374
447.0000	569.5
447.5000	569.58
448.0000	569.725
448.5000	569.879
449.0000	570.083
449.5000	570.24
450.0000	570.454
450.5000	570.561
451.0000	570.741
451.5000	570.963
452.0000	571.064
452.5000	571.32
453.0000	571.398
453.5000	571.444
454.0000	571.619
454.5000	571.766
455.0000	571.975
455.5000	572.183
456.0000	572.315
456.5000	572.502
457.0000	572.685
457.5000	572.8
458.0000	572.98
458.5000	573.038
459.0000	573.115
459.5000	573.27
460.0000	573.42
460.5000	573.557
461.0000	573.754
461.5000	573.963
462.0000	574.092
462.5000	574.28
463.0000	574.422
463.5000	574.65
464.0000	574.842
464.5000	574.945
465.0000	575.125
465.5000	575.208
466.0000	575.286
466.5000	575.461
467.0000	575.589
467.5000	575.679
468.0000	575.856
468.5000	576.016
469.0000	576.116
469.5000	576.246
470.0000	576.407
470.5000	576.499
471.0000	576.624
471.5000	576.735
472.0000	576.82
472.5000	576.974
473.0000	577.169
473.5000	577.443
474.0000	577.7
474.5000	577.833
475.0000	577.935
475.5000	577.997
476.0000	578.019
476.5000	578.155
477.0000	578.313
477.5000	578.461
478.0000	578.631
478.5000	578.807
479.0000	578.82
479.5000	578.916
480.0000	579.11
480.5000	579.267
481.0000	579.561
481.5000	579.692
482.0000	579.795
482.5000	579.861
483.0000	579.914
483.5000	580.068
484.0000	580.18
484.5000	580.341
485.0000	580.596
485.5000	580.788
486.0000	580.925
486.5000	581.066
487.0000	581.167
487.5000	581.317
488.0000	581.502
488.5000	581.613
489.0000	581.679
489.5000	581.703
490.0000	581.838
490.5000	582.018
491.0000	582.269
491.5000	582.416
492.0000	582.429
492.5000	582.54
493.0000	582.644
493.5000	582.865
494.0000	583.134
494.5000	583.251
495.0000	583.339
495.5000	583.49
496.0000	583.668
496.5000	583.842
497.0000	584.024
497.5000	584.13
498.0000	584.174
498.5000	584.306
499.0000	584.475
499.5000	584.573
500.0000	584.664
500.5000	584.751
501.0000	584.819
501.5000	584.974
502.0000	585.182
502.5000	585.234
503.0000	585.349
503.5000	585.556
504.0000	585.685
504.5000	585.946
505.0000	586.028
505.5000	586.062
506.0000	586.166
506.5000	586.297
507.0000	586.451
507.5000	586.55
508.0000	586.631
508.5000	586.718
509.0000	586.847
509.5000	587.051
510.0000	587.257
510.5000	587.414
511.0000	587.609
511.5000	587.676
512.0000	587.754
512.5000	587.877
513.0000	587.94
513.5000	588.047
514.0000	588.237
514.5000	588.395
515.0000	588.534
515.5000	588.751
516.0000	588.836
516.5000	588.902
517.0000	589.048
517.5000	589.132
518.0000	589.241
518.5000	589.328
519.0000	589.435
519.5000	589.563
520.0000	589.698
520.5000	589.774
521.0000	589.967
521.5000	590.16
522.0000	590.243
522.5000	590.44
523.0000	590.54
523.5000	590.576
524.0000	590.766
524.5000	590.878
525.0000	591.043
525.5000	591.204
526.0000	591.319
526.5000	591.52
527.0000	591.594
527.5000	591.722
528.0000	591.827
528.5000	591.933
529.0000	591.969
529.5000	592.13
530.0000	592.286
530.5000	592.43
531.0000	592.651
531.5000	592.766
532.0000	592.848
532.5000	592.94
533.0000	593.066
533.5000	593.102
534.0000	593.241
534.5000	593.382
535.0000	593.468
535.5000	593.693
536.0000	593.804
536.5000	593.862
537.0000	593.948
537.5000	594.065
538.0000	594.115
538.5000	594.22
539.0000	594.392
539.5000	594.45
540.0000	594.636
540.5000	594.823
541.0000	594.966
541.5000	595.054
542.0000	595.198
542.5000	595.317
543.0000	595.402
543.5000	595.564
544.0000	595.614
544.5000	595.712
545.0000	595.8
545.5000	595.771
546.0000	595.936
546.5000	596.052
547.0000	596.18
547.5000	596.352
548.0000	596.432
548.5000	596.605
549.0000	596.697
549.5000	596.856
550.0000	597.049
550.5000	597.077
551.0000	597.184
551.5000	597.31
552.0000	597.338
552.5000	597.496
553.0000	597.593
553.5000	597.764
554.0000	597.782
554.5000	597.869
555.0000	598.018
555.5000	598.093
556.0000	598.333
556.5000	598.459
557.0000	598.638
557.5000	598.735
558.0000	598.847
558.5000	598.895
559.0000	598.837
559.5000	598.972
560.0000	599.01
560.5000	599.216
561.0000	599.409
561.5000	599.491
562.0000	599.652
562.5000	599.709
563.0000	599.821
563.5000	599.855
564.0000	599.977
564.5000	600.129
565.0000	600.32
565.5000	600.439
566.0000	600.503
566.5000	600.641
567.0000	600.707
567.5000	600.873
568.0000	600.996
568.5000	601.013
569.0000	601.157
569.5000	601.257
570.0000	601.331
570.5000	601.435
571.0000	601.53
571.5000	601.643
572.0000	601.837
572.5000	601.929
573.0000	601.998
573.5000	602.204
574.0000	602.344
574.5000	602.483
575.0000	602.557
575.5000	602.609
576.0000	602.673
576.5000	602.777
577.0000	602.96
577.5000	602.961
578.0000	603.087
578.5000	603.26
579.0000	603.294
579.5000	603.471
580.0000	603.57
580.5000	603.599
581.0000	603.728
581.5000	603.837
582.0000	603.935
582.5000	604.142
583.0000	604.302
583.5000	604.463
584.0000	604.604
584.5000	604.663
585.0000	604.762
585.5000	604.87
586.0000	604.942
586.5000	605.05
587.0000	605.134
587.5000	605.249
588.0000	605.348
588.5000	605.477
589.0000	605.515
589.5000	605.571
590.0000	605.743
590.5000	605.811
591.0000	605.895
591.5000	605.994
592.0000	606.029
592.5000	606.16
593.0000	606.396
593.5000	606.539
594.0000	606.695
594.5000	606.73
595.0000	606.861
595.5000	606.973
596.0000	607.026
596.5000	607.184
597.0000	607.184
597.5000	607.207
598.0000	607.35
598.5000	607.406
599.0000	607.59
599.5000	607.701
600.0000	607.71
600.5000	607.894
601.0000	607.896
601.5000	608.035
602.0000	608.128
602.5000	608.145
603.0000	608.291
603.5000	608.366
604.0000	608.525
604.5000	608.533
605.0000	608.647
605.5000	608.772
606.0000	608.746
606.5000	608.949
607.0000	609.036
607.5000	609.133
608.0000	609.325
608.5000	609.398
609.0000	609.533
609.5000	609.533
610.0000	609.639
610.5000	609.692
611.0000	609.721
611.5000	609.914
612.0000	609.986
612.5000	610.096
613.0000	610.223
613.5000	610.286
614.0000	610.395
614.5000	610.561
615.0000	610.567
615.5000	610.682
616.0000	610.766
616.5000	610.82
617.0000	611.055
617.5000	611.179
618.0000	611.196
618.5000	611.279
619.0000	611.251
619.5000	611.325
620.0000	611.547
620.5000	611.688
621.0000	611.852
621.5000	612.036
622.0000	612.054
622.5000	612.13
623.0000	612.178
623.5000	612.13
624.0000	612.311
624.5000	612.468
625.0000	612.598
625.5000	612.654
626.0000	612.65
626.5000	612.669
627.0000	612.783
627.5000	612.954
628.0000	613.106
628.5000	613.272
629.0000	613.286
629.5000	613.38
630.0000	613.483
630.5000	613.503
631.0000	613.616
631.5000	613.65
632.0000	613.763
632.5000	613.857
633.0000	613.879
633.5000	613.998
634.0000	614.073
634.5000	614.187
635.0000	614.349
635.5000	614.464
636.0000	614.567
636.5000	614.63
637.0000	614.812
637.5000	614.955
638.0000	615.064
638.5000	615.117
639.0000	615.115
639.5000	615.154
640.0000	615.201
640.5000	615.351
641.0000	615.378
641.5000	615.483
642.0000	615.664
642.5000	615.72
643.0000	615.918
643.5000	615.973
644.0000	615.968
644.5000	616.129
645.0000	616.168
645.5000	616.313
646.0000	616.417
646.5000	616.476
647.0000	616.653
647.5000	616.693
648.0000	616.712
648.5000	616.829
649.0000	616.879
649.5000	616.895
650.0000	616.943
650.5000	616.991
651.0000	617.014
651.5000	617.12
652.0000	617.342
652.5000	617.474
653.0000	617.574
653.5000	617.733
654.0000	617.673
654.5000	617.826
655.0000	617.964
655.5000	617.945
656.0000	618.114
656.5000	618.083
657.0000	618.129
657.5000	618.273
658.0000	618.38
658.5000	618.417
659.0000	618.568
659.5000	618.711
660.0000	618.774
660.5000	618.955
661.0000	618.917
661.5000	618.985
662.0000	619.151
662.5000	619.271
663.0000	619.448
663.5000	619.606
664.0000	619.626
664.5000	619.753
665.0000	619.772
665.5000	619.749
666.0000	619.899
666.5000	619.916
667.0000	620.044
667.5000	620.11
668.0000	620.166
668.5000	620.225
669.0000	620.336
669.5000	620.463
670.0000	620.484
670.5000	620.574
671.0000	620.606
671.5000	620.733
672.0000	620.891
672.5000	620.957
673.0000	621.133
673.5000	621.201
674.0000	621.326
674.5000	621.373
675.0000	621.4
675.5000	621.488
676.0000	621.488
676.5000	621.649
677.0000	621.731
677.5000	621.835
678.0000	621.917
678.5000	621.908
679.0000	622.05
679.5000	622.107
680.0000	622.181
680.5000	622.363
681.0000	622.43
681.5000	622.556
682.0000	622.7
682.5000	622.709
683.0000	622.796
683.5000	622.825
684.0000	622.917
684.5000	623.004
685.0000	623.074
685.5000	623.143
686.0000	623.202
686.5000	623.269
687.0000	623.416
687.5000	623.551
688.0000	623.699
688.5000	623.85
689.0000	623.854
689.5000	623.977
690.0000	623.978
690.5000	624.04
691.0000	624.114
691.5000	624.195
692.0000	624.356
692.5000	624.402
693.0000	624.497
693.5000	624.573
694.0000	624.599
694.5000	624.721
695.0000	624.788
695.5000	624.824
696.0000	624.922
696.5000	625.027
697.0000	625.147
697.5000	625.206
698.0000	625.243
698.5000	625.319
699.0000	625.266
699.5000	625.335
700.0000	625.421
700.5000	625.471
701.0000	625.672
701.5000	625.705
702.0000	625.911
702.5000	626.053
703.0000	626.159
703.5000	626.263
704.0000	626.138
704.5000	626.138
705.0000	626.209
705.5000	626.324
706.0000	626.489
706.5000	626.592
707.0000	626.672
707.5000	626.734
708.0000	626.865
708.5000	626.988
709.0000	627.129
709.5000	627.224
710.0000	627.254
710.5000	627.156
711.0000	627.198
711.5000	627.242
712.0000	627.268
712.5000	627.491
713.0000	627.522
713.5000	627.635
714.0000	627.75
714.5000	627.792
715.0000	627.827
715.5000	627.922
716.0000	628.044
716.5000	628.11
717.0000	628.182
717.5000	628.254
718.0000	628.202
718.5000	628.245
719.0000	628.361
719.5000	628.461
720.0000	628.617
720.5000	628.678
721.0000	628.728
721.5000	628.799
722.0000	628.78
722.5000	628.898
723.0000	629.014
723.5000	629.037
724.0000	629.18
724.5000	629.252
725.0000	629.309
725.5000	629.365
726.0000	629.41
726.5000	629.477
727.0000	629.488
727.5000	629.549
728.0000	629.616
728.5000	629.678
729.0000	629.771
729.5000	629.841
730.0000	629.956
730.5000	630.029
731.0000	630.077
731.5000	630.19
732.0000	630.217
732.5000	630.265
733.0000	630.347
733.5000	630.343
734.0000	630.389
734.5000	630.421
735.0000	630.49
735.5000	630.574
736.0000	630.72
736.5000	630.767
737.0000	630.858
737.5000	630.928
738.0000	630.967
738.5000	631.099
739.0000	631.21
739.5000	631.252
740.0000	631.345
740.5000	631.453
741.0000	631.488
741.5000	631.59
742.0000	631.576
742.5000	631.557
743.0000	631.585
743.5000	631.646
744.0000	631.705
744.5000	631.84
745.0000	631.891
745.5000	632.024
746.0000	632.216
746.5000	632.185
747.0000	632.3
747.5000	632.343
748.0000	632.302
748.5000	632.476
749.0000	632.527
749.5000	632.604
750.0000	632.649
750.5000	632.679
751.0000	632.755
751.5000	632.747
752.0000	632.938
752.5000	632.994
753.0000	633.019
753.5000	633.072
754.0000	633.097
754.5000	633.103
755.0000	633.169
755.5000	633.256
756.0000	633.318
756.5000	633.46
757.0000	633.532
757.5000	633.597
758.0000	633.666
758.5000	633.79
759.0000	633.927
759.5000	634.061
760.0000	634.071
760.5000	634.064
761.0000	634.013
761.5000	634.036
762.0000	634.117
762.5000	634.188
763.0000	634.288
763.5000	634.389
764.0000	634.46
764.5000	634.5
765.0000	634.522
765.5000	634.536
766.0000	634.577
766.5000	634.665
767.0000	634.843
767.5000	634.919
768.0000	635.07
768.5000	635.157
769.0000	635.115
769.5000	635.111
770.0000	635.076
770.5000	635.115
771.0000	635.242
771.5000	635.418
772.0000	635.487
772.5000	635.532
773.0000	635.615
773.5000	635.599
774.0000	635.705
774.5000	635.825
775.0000	635.903
775.5000	635.978
776.0000	636.004
776.5000	636.039
777.0000	636.041
777.5000	636.155
778.0000	636.179
778.5000	636.283
779.0000	636.325
779.5000	636.281
780.0000	636.437
780.5000	636.518
781.0000	636.474
781.5000	636.602
782.0000	636.625
782.5000	636.55
783.0000	636.741
783.5000	636.724
784.0000	636.842
784.5000	636.896
785.0000	636.909
785.5000	637.058
786.0000	637.089
786.5000	637.19
787.0000	637.301
787.5000	637.242
788.0000	637.23
788.5000	637.371
789.0000	637.373
789.5000	637.508
790.0000	637.631
790.5000	637.611
791.0000	637.685
791.5000	637.735
792.0000	637.746
792.5000	637.755
793.0000	637.82
793.5000	637.951
794.0000	638.052
794.5000	638.136
795.0000	638.156
795.5000	638.125
796.0000	638.098
796.5000	638.145
797.0000	638.246
797.5000	638.318
798.0000	638.391
798.5000	638.509
799.0000	638.564
799.5000	638.599
800.0000	638.667
800.5000	638.688
801.0000	638.74
801.5000	638.808
802.0000	638.853
802.5000	638.917
803.0000	639.004
803.5000	639.058
804.0000	639.112
804.5000	639.095
805.0000	639.156
805.5000	639.261
806.0000	639.313
806.5000	639.399
807.0000	639.39
807.5000	639.444
808.0000	639.482
808.5000	639.645
809.0000	639.694
809.5000	639.699
810.0000	639.732
810.5000	639.658
811.0000	639.742
811.5000	639.875
812.0000	639.966
812.5000	639.989
813.0000	640.034
813.5000	640.016
814.0000	640.106
814.5000	640.18
815.0000	640.269
815.5000	640.354
816.0000	640.531
816.5000	640.68
817.0000	640.717
817.5000	640.733
818.0000	640.659
818.5000	640.686
819.0000	640.696
819.5000	640.756
820.0000	640.822
820.5000	640.934
821.0000	641.012
821.5000	641.122
822.0000	641.25
822.5000	641.257
823.0000	641.447
823.5000	641.443
824.0000	641.388
824.5000	641.53
825.0000	641.461
825.5000	641.427
826.0000	641.436
826.5000	641.411
827.0000	641.505
827.5000	641.701
828.0000	641.799
828.5000	641.86
829.0000	641.978
829.5000	642.02
830.0000	642.132
830.5000	642.149
831.0000	642.161
831.5000	642.292
832.0000	642.355
832.5000	642.549
833.0000	642.586
833.5000	642.569
834.0000	642.569
834.5000	642.523
835.0000	642.555
835.5000	642.646
836.0000	642.813
836.5000	642.84
837.0000	642.905
837.5000	643.012
838.0000	643.008
838.5000	643.092
839.0000	643.211
839.5000	643.175
840.0000	643.15
840.5000	643.263
841.0000	643.294
841.5000	643.383
842.0000	643.544
842.5000	643.575
843.0000	643.691
843.5000	643.732
844.0000	643.78
844.5000	643.832
845.0000	643.826
845.5000	643.908
846.0000	643.878
846.5000	643.901
847.0000	643.934
847.5000	644.033
848.0000	644.16
848.5000	644.269
849.0000	644.302
849.5000	644.324
850.0000	644.334
850.5000	644.402
851.0000	644.535
851.5000	644.575
852.0000	644.77
852.5000	644.754
853.0000	644.646
853.5000	644.661
854.0000	644.596
854.5000	644.652
855.0000	644.794
855.5000	644.862
856.0000	644.993
856.5000	645.138
857.0000	645.253
857.5000	645.311
858.0000	645.418
858.5000	645.421
859.0000	645.382
859.5000	645.405
860.0000	645.339
860.5000	645.387
861.0000	645.51
861.5000	645.535
862.0000	645.635
862.5000	645.729
863.0000	645.757
863.5000	645.972
864.0000	646.024
864.5000	646.022
865.0000	646.131
865.5000	646.007
866.0000	646.021
866.5000	646.094
867.0000	646.188
867.5000	646.388
868.0000	646.479
868.5000	646.6
869.0000	646.551
869.5000	646.434
870.0000	646.47
870.5000	646.442
871.0000	646.474
871.5000	646.628
872.0000	646.673
872.5000	646.825
873.0000	646.982
873.5000	647.031
874.0000	647.072
874.5000	646.991
875.0000	646.956
875.5000	647.071
876.0000	647.169
876.5000	647.268
877.0000	647.306
877.5000	647.351
878.0000	647.422
878.5000	647.457
879.0000	647.567
879.5000	647.626
880.0000	647.678
880.5000	647.752
881.0000	647.761
881.5000	647.75
882.0000	647.745
882.5000	647.883
883.0000	648.02
883.5000	648.083
884.0000	648.249
884.5000	648.28
885.0000	648.316
885.5000	648.376
886.0000	648.37
886.5000	648.437
887.0000	648.414
887.5000	648.459
888.0000	648.5
888.5000	648.42
889.0000	648.485
889.5000	648.609
890.0000	648.601
890.5000	648.745
891.0000	648.807
891.5000	648.865
892.0000	648.959
892.5000	649.013
893.0000	649.126
893.5000	649.163
894.0000	649.245
894.5000	649.208
895.0000	649.279
895.5000	649.302
896.0000	649.315
896.5000	649.446
897.0000	649.497
897.5000	649.543
898.0000	649.575
898.5000	649.661
899.0000	649.651
899.5000	649.682
900.0000	649.76
900.5000	649.746
901.0000	649.798
901.5000	649.881
902.0000	649.88
902.5000	650.007
903.0000	650.022
903.5000	650.129
904.0000	650.342
904.5000	650.31
905.0000	650.375
905.5000	650.419
906.0000	650.402
906.5000	650.473
907.0000	650.534
907.5000	650.531
908.0000	650.573
908.5000	650.653
909.0000	650.691
909.5000	650.739
910.0000	650.697
910.5000	650.721
911.0000	650.744
911.5000	650.814
912.0000	650.927
912.5000	650.959
913.0000	650.994
913.5000	651.052
914.0000	650.997
914.5000	651.069
915.0000	651.187
915.5000	651.227
916.0000	651.443
916.5000	651.49
917.0000	651.55
917.5000	651.565
918.0000	651.523
918.5000	651.55
919.0000	651.635
919.5000	651.673
920.0000	651.819
920.5000	651.841
921.0000	651.85
921.5000	651.981
922.0000	651.964
922.5000	652.044
923.0000	652.05
923.5000	651.964
924.0000	652.033
924.5000	652.034
925.0000	652.117
925.5000	652.182
926.0000	652.232
926.5000	652.353
927.0000	652.299
927.5000	652.396
928.0000	652.448
928.5000	652.514
929.0000	652.611
929.5000	652.649
930.0000	652.675
930.5000	652.696
931.0000	652.752
931.5000	652.813
932.0000	652.832
932.5000	652.857
933.0000	652.846
933.5000	652.925
934.0000	652.946
934.5000	653.092
935.0000	653.128
935.5000	653.09
936.0000	653.219
936.5000	653.183
937.0000	653.289
937.5000	653.294
938.0000	653.24
938.5000	653.325
939.0000	653.329
939.5000	653.423
940.0000	653.563
940.5000	653.565
941.0000	653.53
941.5000	653.533
942.0000	653.548
942.5000	653.504
943.0000	653.714
943.5000	653.832
944.0000	653.791
944.5000	653.877
945.0000	654.008
945.5000	654.071
946.0000	654.249
946.5000	654.305
947.0000	654.257
947.5000	654.274
948.0000	654.236
948.5000	654.399
949.0000	654.378
949.5000	654.434
950.0000	654.553
950.5000	654.5
951.0000	654.627
951.5000	654.69
952.0000	654.699
952.5000	654.671
953.0000	654.703
953.5000	654.774
954.0000	654.794
954.5000	654.891
955.0000	654.893
955.5000	654.83
956.0000	654.913
956.5000	654.989
957.0000	655.052
957.5000	655.163
958.0000	655.154
958.5000	655.241
959.0000	655.303
959.5000	655.27
960.0000	655.38
960.5000	655.332
961.0000	655.472
961.5000	655.569
962.0000	655.575
962.5000	655.643
963.0000	655.559
963.5000	655.579
964.0000	655.661
964.5000	655.69
965.0000	655.741
965.5000	655.827
966.0000	655.807
966.5000	655.912
967.0000	655.966
967.5000	656.002
968.0000	656.011
968.5000	656.069
969.0000	656.036
969.5000	656.056
970.0000	656.2
970.5000	656.184
971.0000	656.278
971.5000	656.353
972.0000	656.33
972.5000	656.285
973.0000	656.351
973.5000	656.41
974.0000	656.454
974.5000	656.62
975.0000	656.628
975.5000	656.622
976.0000	656.687
976.5000	656.707
977.0000	656.741
977.5000	656.887
978.0000	656.891
978.5000	656.865
979.0000	657.064
979.5000	657.104
980.0000	657.206
980.5000	657.352
981.0000	657.355
981.5000	657.31
982.0000	657.311
982.5000	657.286
983.0000	657.276
983.5000	657.287
984.0000	657.176
984.5000	657.258
985.0000	657.211
985.5000	657.318
986.0000	657.561
986.5000	657.65
987.0000	657.832
987.5000	657.768
988.0000	657.777
988.5000	657.805
989.0000	657.792
989.5000	657.867
990.0000	657.904
990.5000	657.91
991.0000	658.012
991.5000	658.039
992.0000	658.002
992.5000	658.082
993.0000	658.119
993.5000	658.206
994.0000	658.343
994.5000	658.308
995.0000	658.297
995.5000	658.434
996.0000	658.406
996.5000	658.448
997.0000	658.477
997.5000	658.463
998.0000	658.546
998.5000	658.566
999.0000	658.602
999.5000	658.624
1000.0000	658.651
1000.5000	658.723
1001.0000	658.775
1001.5000	658.824
1002.0000	658.829
1002.5000	658.826
1003.0000	658.933
1003.5000	658.937
1004.0000	659.035
1004.5000	659.191
1005.0000	659.104
1005.5000	659.049
1006.0000	659.129
1006.5000	659.15
1007.0000	659.273
1007.5000	659.544
1008.0000	659.526
1008.5000	659.541
1009.0000	659.597
1009.5000	659.469
1010.0000	659.509
1010.5000	659.588
1011.0000	659.568
1011.5000	659.56
1012.0000	659.548
1012.5000	659.507
1013.0000	659.505
1013.5000	659.678
1014.0000	659.821
1014.5000	659.861
1015.0000	659.961
1015.5000	660.071
1016.0000	660.121
1016.5000	660.14
1017.0000	660.215
1017.5000	660.081
1018.0000	660.007
1018.5000	660.1
1019.0000	660.054
1019.5000	660.127
1020.0000	660.211
1020.5000	660.224
1021.0000	660.263
1021.5000	660.295
1022.0000	660.315
1022.5000	660.308
1023.0000	660.377
1023.5000	660.494
1024.0000	660.569
1024.5000	660.666
1025.0000	660.671
1025.5000	660.608
1026.0000	660.692
1026.5000	660.696
1027.0000	660.782
1027.5000	660.741
1028.0000	660.682
1028.5000	660.733
1029.0000	660.724
1029.5000	660.924
1030.0000	661.009
1030.5000	661.07
1031.0000	661.17
1031.5000	661.097
1032.0000	661.083
1032.5000	661.056
1033.0000	661.045
1033.5000	661.196
1034.0000	661.188
1034.5000	661.216
1035.0000	661.201
1035.5000	661.201
1036.0000	661.222
1036.5000	661.344
1037.0000	661.436
1037.5000	661.449
1038.0000	661.608
1038.5000	661.598
1039.0000	661.606
1039.5000	661.662
1040.0000	661.641
1040.5000	661.766
1041.0000	661.822
1041.5000	661.848
1042.0000	661.866
1042.5000	661.798
1043.0000	661.817
1043.5000	661.857
1044.0000	661.876
1044.5000	661.936
1045.0000	661.943
1045.5000	661.893
1046.0000	661.964
1046.5000	661.867
1047.0000	661.996
1047.5000	662.108
1048.0000	662.165
1048.5000	662.415
1049.0000	662.431
1049.5000	662.425
1050.0000	662.372
1050.5000	662.237
1051.0000	662.182
1051.5000	662.224
1052.0000	662.279
1052.5000	662.415
1053.0000	662.452
1053.5000	662.5
1054.0000	662.535
1054.5000	662.496
1055.0000	662.485
1055.5000	662.528
1056.0000	662.64
1056.5000	662.728
1057.0000	662.838
1057.5000	662.838
1058.0000	662.801
1058.5000	662.827
1059.0000	662.876
1059.5000	662.957
1060.0000	663.019
1060.5000	662.984
1061.0000	662.999
1061.5000	662.995
1062.0000	663.036
1062.5000	663.177
1063.0000	663.231
1063.5000	663.289
1064.0000	663.318
1064.5000	663.304
1065.0000	663.372
1065.5000	663.48
1066.0000	663.478
1066.5000	663.506
1067.0000	663.489
1067.5000	663.346
1068.0000	663.367
1068.5000	663.366
1069.0000	663.399
1069.5000	663.475
1070.0000	663.578
1070.5000	663.798
1071.0000	663.794
1071.5000	663.905
1072.0000	663.977
1072.5000	663.866
1073.0000	663.922
1073.5000	663.915
1074.0000	663.815
1074.5000	663.832
1075.0000	663.872
1075.5000	663.885
1076.0000	664.008
1076.5000	664.052
1077.0000	664.113
1077.5000	664.239
1078.0000	664.252
1078.5000	664.244
1079.0000	664.306
1079.5000	664.162
1080.0000	664.152
1080.5000	664.187
1081.0000	664.246
1081.5000	664.46
1082.0000	664.51
1082.5000	664.611
1083.0000	664.629
1083.5000	664.613
1084.0000	664.641
1084.5000	664.651
1085.0000	664.618
1085.5000	664.565
1086.0000	664.587
1086.5000	664.633
1087.0000	664.72
1087.5000	664.858
1088.0000	664.878
1088.5000	664.963
1089.0000	664.964
1089.5000	664.916
1090.0000	664.969
1090.5000	664.965
1091.0000	664.986
1091.5000	665.205
1092.0000	665.255
1092.5000	665.278
1093.0000	665.274
1093.5000	665.155
1094.0000	665.299
1094.5000	665.38
1095.0000	665.45
1095.5000	665.508
1096.0000	665.428
1096.5000	665.373
1097.0000	665.424
1097.5000	665.381
1098.0000	665.362
1098.5000	665.429
1099.0000	665.5
1099.5000	665.607
1100.0000	665.699
1100.5000	665.747
1101.0000	665.697
1101.5000	665.689
1102.0000	665.838
1102.5000	665.881
1103.0000	665.918
1103.5000	665.966
1104.0000	665.891
1104.5000	665.871
1105.0000	665.973
1105.5000	665.961
1106.0000	665.937
1106.5000	665.979
1107.0000	665.876
1107.5000	665.972
1108.0000	666.077
1108.5000	666.236
1109.0000	666.408
1109.5000	666.456
1110.0000	666.483
1110.5000	666.341
1111.0000	666.383
1111.5000	666.386
1112.0000	666.486
1112.5000	666.594
1113.0000	666.614
1113.5000	666.713
1114.0000	666.739
1114.5000	666.752
1115.0000	666.814
1115.5000	666.78
1116.0000	666.815
1116.5000	666.866
1117.0000	666.812
1117.5000	666.894
1118.0000	666.84
1118.5000	666.816
1119.0000	666.926
1119.5000	666.888
1120.0000	666.946
1120.5000	667.067
1121.0000	666.998
1121.5000	667.079
1122.0000	667.115
1122.5000	667.17
1123.0000	667.205
1123.5000	667.149
1124.0000	667.228
1124.5000	667.187
1125.0000	667.215
1125.5000	667.306
1126.0000	667.352
1126.5000	667.364
1127.0000	667.353
1127.5000	667.46
1128.0000	667.403
1128.5000	667.457
1129.0000	667.592
1129.5000	667.498
1130.0000	667.426
1130.5000	667.516
1131.0000	667.411
1131.5000	667.473
1132.0000	667.658
1132.5000	667.663
1133.0000	667.877
1133.5000	667.995
1134.0000	667.958
1134.5000	667.93
1135.0000	667.951
1135.5000	667.865
1136.0000	667.937
1136.5000	668.024
1137.0000	668.056
1137.5000	668.18
1138.0000	668.204
1138.5000	668.186
1139.0000	668.219
1139.5000	668.279
1140.0000	668.259
1140.5000	668.368
1141.0000	668.249
1141.5000	668.177
1142.0000	668.276
1142.5000	668.297
1143.0000	668.491
1143.5000	668.574
1144.0000	668.52
1144.5000	668.49
1145.0000	668.427
1145.5000	668.45
1146.0000	668.513
1146.5000	668.564
1147.0000	668.655
1147.5000	668.708
1148.0000	668.809
1148.5000	668.867
1149.0000	668.884
1149.5000	668.887
1150.0000	668.81
1150.5000	668.798
1151.0000	668.796
1151.5000	668.914
1152.0000	668.96
1152.5000	668.96
1153.0000	669.023
1153.5000	669.034
1154.0000	669.067
1154.5000	669.105
1155.0000	669.046
1155.5000	668.952
1156.0000	668.906
1156.5000	669.048
1157.0000	669.12
1157.5000	669.231
1158.0000	669.4
1158.5000	669.315
1159.0000	669.348
1159.5000	669.359
1160.0000	669.33
1160.5000	669.427
1161.0000	669.456
1161.5000	669.43
1162.0000	669.473
1162.5000	669.376
1163.0000	669.411
1163.5000	669.509
1164.0000	669.543
1164.5000	669.704
1165.0000	669.693
1165.5000	669.746
1166.0000	669.738
1166.5000	669.76
1167.0000	669.814
1167.5000	669.767
1168.0000	669.811
1168.5000	669.738
1169.0000	669.707
1169.5000	669.83
1170.0000	669.867
1170.5000	669.941
1171.0000	670.001
1171.5000	669.958
1172.0000	669.991
1172.5000	669.966
1173.0000	670.019
1173.5000	669.967
1174.0000	669.932
1174.5000	669.952
1175.0000	669.937
1175.5000	670.049
1176.0000	670.187
1176.5000	670.277
1177.0000	670.294
1177.5000	670.264
1178.0000	670.23
1178.5000	670.132
1179.0000	670.158
1179.5000	670.175
1180.0000	670.186
1180.5000	670.339
1181.0000	670.354
1181.5000	670.331
1182.0000	670.284
1182.5000	670.225
1183.0000	670.234
1183.5000	670.327
1184.0000	670.42
1184.5000	670.49
1185.0000	670.569
1185.5000	670.576
1186.0000	670.611
1186.5000	670.611
1187.0000	670.591
1187.5000	670.622
1188.0000	670.641
1188.5000	670.628
1189.0000	670.667
1189.5000	670.624
1190.0000	670.484
1190.5000	670.475
1191.0000	670.496
1191.5000	670.533
1192.0000	670.674
1192.5000	670.674
1193.0000	670.6
1193.5000	670.674
1194.0000	670.637
1194.5000	670.611
1195.0000	670.739
1195.5000	670.795
1196.0000	670.84
1196.5000	671.001
1197.0000	670.971
1197.5000	670.867
1198.0000	670.978
1198.5000	670.993
1199.0000	671.056
1199.5000	671.152
1200.0000	671.029
1200.5000	671.031
1201.0000	671.082
1201.5000	671.01
1202.0000	671.102
1202.5000	671.17
1203.0000	671.246
1203.5000	671.291
1204.0000	671.339
1204.5000	671.334
1205.0000	671.279
1205.5000	671.305
1206.0000	671.304
1206.5000	671.349
1207.0000	671.271
1207.5000	671.255
1208.0000	671.299
1208.5000	671.295
1209.0000	671.387
1209.5000	671.457
1210.0000	671.423
1210.5000	671.373
1211.0000	671.379
1211.5000	671.451
1212.0000	671.527
1212.5000	671.574
1213.0000	671.606
1213.5000	671.566
1214.0000	671.615
1214.5000	671.645
1215.0000	671.617
1215.5000	671.669
1216.0000	671.667
1216.5000	671.637
1217.0000	671.712
1217.5000	671.595
1218.0000	671.457
1218.5000	671.496
1219.0000	671.464
1219.5000	671.619
1220.0000	671.666
1220.5000	671.673
1221.0000	671.737
1221.5000	671.721
1222.0000	671.784
1222.5000	671.814
1223.0000	671.753
1223.5000	671.792
1224.0000	671.847
1224.5000	671.893
1225.0000	671.95
1225.5000	671.986
1226.0000	672.019
1226.5000	672.085
1227.0000	672.091
1227.5000	672.044
1228.0000	672.12
1228.5000	672.059
1229.0000	672.05
1229.5000	672.103
1230.0000	672.175
1230.5000	672.181
1231.0000	672.252
1231.5000	672.188
1232.0000	672.054
1232.5000	672.054
1233.0000	672.141
1233.5000	672.234
1234.0000	672.299
1234.5000	672.37
1235.0000	672.274
1235.5000	672.282
1236.0000	672.289
1236.5000	672.288
1237.0000	672.355
1237.5000	672.296
1238.0000	672.262
1238.5000	672.252
1239.0000	672.295
1239.5000	672.333
1240.0000	672.385
1240.5000	672.43
1241.0000	672.424
1241.5000	672.49
1242.0000	672.628
1242.5000	672.551
1243.0000	672.514
1243.5000	672.562
1244.0000	672.541
1244.5000	672.726
1245.0000	672.877
1245.5000	672.928
1246.0000	672.806
1246.5000	672.691
1247.0000	672.659
1247.5000	672.534
1248.0000	672.598
1248.5000	672.658
1249.0000	672.617
1249.5000	672.646
1250.0000	672.718
1250.5000	672.709
1251.0000	672.722
1251.5000	672.829
1252.0000	672.79
1252.5000	672.847
1253.0000	672.987
1253.5000	673.117
1254.0000	673.161
1254.5000	673.115
1255.0000	673.067
1255.5000	672.879
1256.0000	672.884
1256.5000	672.984
1257.0000	672.922
1257.5000	673.039
1258.0000	673.151
1258.5000	673.062
1259.0000	673.154
1259.5000	673.082
1260.0000	673.041
1260.5000	673.091
1261.0000	673.034
1261.5000	673.115
1262.0000	673.09
1262.5000	673.117
1263.0000	673.131
1263.5000	673.187
1264.0000	673.207
1264.5000	673.23
1265.0000	673.361
1265.5000	673.37
1266.0000	673.348
1266.5000	673.459
1267.0000	673.431
1267.5000	673.41
1268.0000	673.547
1268.5000	673.586
1269.0000	673.589
1269.5000	673.536
1270.0000	673.568
1270.5000	673.498
1271.0000	673.491
1271.5000	673.699
1272.0000	673.659
1272.5000	673.694
1273.0000	673.651
1273.5000	673.531
1274.0000	673.497
1274.5000	673.48
1275.0000	673.544
1275.5000	673.632
1276.0000	673.63
1276.5000	673.693
1277.0000	673.678
1277.5000	673.603
1278.0000	673.647
1278.5000	673.606
1279.0000	673.617
1279.5000	673.764
1280.0000	673.849
1280.5000	673.933
1281.0000	674.02
1281.5000	673.953
1282.0000	674.005
1282.5000	674.069
1283.0000	673.99
1283.5000	674.117
1284.0000	674.075
1284.5000	673.898
1285.0000	673.978
1285.5000	673.925
1286.0000	673.911
1286.5000	674.07
1287.0000	674.108
1287.5000	674.075
1288.0000	674.074
1288.5000	674.142
1289.0000	674.217
1289.5000	674.292
1290.0000	674.352
1290.5000	674.376
1291.0000	674.293
1291.5000	674.326
1292.0000	674.341
1292.5000	674.263
1293.0000	674.325
1293.5000	674.257
1294.0000	674.238
1294.5000	674.329
1295.0000	674.275
1295.5000	674.365
1296.0000	674.389
1296.5000	674.376
1297.0000	674.458
1297.5000	674.423
1298.0000	674.425
1298.5000	674.423
1299.0000	674.459
1299.5000	674.461
1300.0000	674.469
1300.5000	674.385
1301.0000	674.467
1301.5000	674.582
1302.0000	674.56
1302.5000	674.559
1303.0000	674.466
1303.5000	674.527
1304.0000	674.604
1304.5000	674.75
1305.0000	674.76
1305.5000	674.633
1306.0000	674.658
1306.5000	674.592
1307.0000	674.652
1307.5000	674.676
1308.0000	674.67
1308.5000	674.712
1309.0000	674.709
1309.5000	674.773
1310.0000	674.79
1310.5000	674.763
1311.0000	674.783
1311.5000	674.747
1312.0000	674.747
1312.5000	674.8
1313.0000	674.879
1313.5000	674.913
1314.0000	674.874
1314.5000	674.942
1315.0000	674.896
1315.5000	674.895
1316.0000	675.142
1316.5000	675.166
1317.0000	675.115
1317.5000	675.157
1318.0000	675.094
1318.5000	675.121
1319.0000	675.189
1319.5000	675.196
1320.0000	675.172
1320.5000	675.132
1321.0000	675.229
1321.5000	675.242
1322.0000	675.248
1322.5000	675.285
1323.0000	675.301
1323.5000	675.33
1324.0000	675.29
1324.5000	675.237
1325.0000	675.21
1325.5000	675.248
1326.0000	675.34
1326.5000	675.403
1327.0000	675.409
1327.5000	675.379
1328.0000	675.416
1328.5000	675.436
1329.0000	675.439
1329.5000	675.378
1330.0000	675.347
1330.5000	675.278
1331.0000	675.392
1331.5000	675.444
1332.0000	675.399
1332.5000	675.542
1333.0000	675.521
1333.5000	675.563
1334.0000	675.622
1334.5000	675.679
1335.0000	675.551
1335.5000	675.556
1336.0000	675.497
1336.5000	675.422
1337.0000	675.451
1337.5000	675.426
1338.0000	675.473
1338.5000	675.416
1339.0000	675.463
1339.5000	675.472
1340.0000	675.571
1340.5000	675.565
1341.0000	675.611
1341.5000	675.711
1342.0000	675.763
1342.5000	675.799
1343.0000	675.824
1343.5000	675.794
1344.0000	675.698
1344.5000	675.786
1345.0000	675.773
1345.5000	675.777
1346.0000	675.848
1346.5000	675.905
1347.0000	675.879
1347.5000	675.892
1348.0000	675.85
1348.5000	675.775
1349.0000	675.914
1349.5000	675.955
1350.0000	675.939
1350.5000	675.923
1351.0000	675.794
1351.5000	675.789
1352.0000	675.768
1352.5000	675.907
1353.0000	675.969
1353.5000	675.957
1354.0000	676.025
1354.5000	675.861
1355.0000	675.883
1355.5000	675.957
1356.0000	675.932
1356.5000	676.047
1357.0000	676.025
1357.5000	675.989
1358.0000	675.991
1358.5000	676.009
1359.0000	676.036
1359.5000	676.047
1360.0000	676.004
1360.5000	676.005
1361.0000	675.963
1361.5000	675.975
1362.0000	676.086
1362.5000	676.033
1363.0000	676.042
1363.5000	675.868
1364.0000	675.853
1364.5000	675.87
1365.0000	675.842
1365.5000	675.961
1366.0000	675.995
1366.5000	675.953
1367.0000	675.98
1367.5000	676.042
1368.0000	676.014
1368.5000	676.007
1369.0000	676.039
1369.5000	676.003
1370.0000	675.921
1370.5000	676.01
1371.0000	676.056
1371.5000	676.044
1372.0000	676.039
1372.5000	676.039
1373.0000	676.039
1373.5000	676.025
1374.0000	676.151
1374.5000	676.026
1375.0000	675.951
1375.5000	675.903
1376.0000	675.835
1376.5000	675.953
1377.0000	675.918
1377.5000	675.99
1378.0000	676.052
1378.5000	676.055
1379.0000	676.159
1379.5000	676.129
1380.0000	676.101
1380.5000	676.099
1381.0000	675.988
1381.5000	675.979
1382.0000	675.966
1382.5000	676.002
1383.0000	676.001
1383.5000	676.103
1384.0000	676.151
1384.5000	676.073
1385.0000	676.14
1385.5000	675.963
1386.0000	675.804
1386.5000	675.759
1387.0000	675.681
1387.5000	675.818
1388.0000	675.879
1388.5000	675.912
1389.0000	676.001
1389.5000	675.941
1390.0000	675.968
1390.5000	676.043
1391.0000	676.076
1391.5000	676.095
1392.0000	676.144
1392.5000	676.106
1393.0000	675.89
1393.5000	675.919
1394.0000	675.901
1394.5000	675.922
1395.0000	676.044
1395.5000	676.209
1396.0000	676.214
1396.5000	676.239
1397.0000	676.309
1397.5000	676.172
1398.0000	676.213
1398.5000	676.178
1399.0000	676.242
1399.5000	676.226
1400.0000	676.233
1400.5000	676.291
1401.0000	676.209
1401.5000	676.165
1402.0000	676.105
1402.5000	676
1403.0000	676.004
1403.5000	676.141
1404.0000	676.164
1404.5000	676.216
1405.0000	676.225
1405.5000	676.131
1406.0000	676.142
1406.5000	676.099
1407.0000	676.149
1407.5000	676.196
1408.0000	676.236
1408.5000	676.264
1409.0000	676.149
1409.5000	676.169
1410.0000	676.137
1410.5000	676.179
1411.0000	676.286
1411.5000	676.178
1412.0000	676.1
1412.5000	676.116
1413.0000	676.166
1413.5000	676.224
1414.0000	676.327
1414.5000	676.301
1415.0000	676.253
1415.5000	676.26
1416.0000	676.25
1416.5000	676.312
1417.0000	676.353
1417.5000	676.344
1418.0000	676.324
1418.5000	676.29
1419.0000	676.361
1419.5000	676.4
1420.0000	676.438
1420.5000	676.47
1421.0000	676.363
1421.5000	676.382
1422.0000	676.354
1422.5000	676.269
1423.0000	676.191
1423.5000	676.24
1424.0000	676.305
1424.5000	676.332
1425.0000	676.516
1425.5000	676.502
1426.0000	676.449
1426.5000	676.547
1427.0000	676.535
1427.5000	676.528
1428.0000	676.574
1428.5000	676.586
1429.0000	676.536
1429.5000	676.582
1430.0000	676.667
1430.5000	676.599
1431.0000	676.492
1431.5000	676.531
1432.0000	676.514
1432.5000	676.601
1433.0000	676.809
1433.5000	676.759
1434.0000	676.672
1434.5000	676.668
1435.0000	676.596
1435.5000	676.659
1436.0000	676.688
1436.5000	676.652
1437.0000	676.693
1437.5000	676.77
1438.0000	676.874
1438.5000	676.956
1439.0000	676.979
1439.5000	676.968
1440.0000	676.954
1440.5000	676.936
1441.0000	676.907
1441.5000	676.874
1442.0000	676.847
1442.5000	676.896
1443.0000	676.91
1443.5000	676.913
1444.0000	676.929
1444.5000	676.818
1445.0000	676.851
1445.5000	676.891
1446.0000	676.922
1446.5000	677.002
1447.0000	676.955
1447.5000	676.825
1448.0000	676.819
1448.5000	676.84
1449.0000	676.828
1449.5000	676.884
1450.0000	676.915
1450.5000	676.902
1451.0000	677.015
1451.5000	677.021
1452.0000	676.924
1452.5000	676.993
1453.0000	676.972
1453.5000	676.983
1454.0000	677.031
1454.5000	677.033
1455.0000	676.995
1455.5000	676.949
1456.0000	676.936
1456.5000	676.877
1457.0000	676.833
1457.5000	676.828
1458.0000	676.887
1458.5000	676.888
1459.0000	677.021
1459.5000	677.101
1460.0000	677.065
1460.5000	677.012
1461.0000	676.953
1461.5000	676.967
1462.0000	677.057
1462.5000	677.105
1463.0000	677.076
1463.5000	676.98
1464.0000	676.908
1464.5000	676.966
1465.0000	677.019
1465.5000	677.027
1466.0000	677.025
1466.5000	676.988
1467.0000	676.968
1467.5000	677.065
1468.0000	677.106
1468.5000	677.2
1469.0000	677.274
1469.5000	677.253
1470.0000	677.107
1470.5000	676.945
1471.0000	676.931
1471.5000	677.052
1472.0000	677.208
1472.5000	677.294
1473.0000	677.263
1473.5000	677.062
1474.0000	677.032
1474.5000	676.965
1475.0000	676.972
1475.5000	676.932
1476.0000	676.989
1476.5000	677.024
1477.0000	677.027
1477.5000	677.236
1478.0000	677.217
1478.5000	677.271
1479.0000	677.245
1479.5000	677.204
1480.0000	677.147
1480.5000	677.138
1481.0000	677.162
1481.5000	677.047
1482.0000	677
1482.5000	677.062
1483.0000	677.053
1483.5000	677.1
1484.0000	677.164
1484.5000	676.984
1485.0000	676.856
1485.5000	676.905
1486.0000	676.967
1486.5000	677.048
1487.0000	677.116
1487.5000	677.136
1488.0000	677.082
1488.5000	677.09
1489.0000	677.099
1489.5000	677.013
1490.0000	677.011
1490.5000	677.018
1491.0000	677.023
1491.5000	677.016
1492.0000	677.068
1492.5000	677.09
1493.0000	677.049
1493.5000	677.01
1494.0000	677.03
1494.5000	676.996
1495.0000	676.885
1495.5000	677
1496.0000	676.966
1496.5000	676.977
1497.0000	677.13
1497.5000	677.138
1498.0000	677.129
1498.5000	677.058
1499.0000	677.126
1499.5000	677.067
1500.0000	676.981
1500.5000	677.079
1501.0000	677.064
1501.5000	676.938
1502.0000	677.019
1502.5000	676.975
1503.0000	676.842
1503.5000	676.958
1504.0000	676.884
1504.5000	676.831
1505.0000	676.839
1505.5000	676.891
1506.0000	676.977
1506.5000	677.11
1507.0000	677.146
1507.5000	677.143
1508.0000	677.123
1508.5000	677.002
1509.0000	677.069
1509.5000	677.039
1510.0000	676.955
1510.5000	676.967
1511.0000	676.919
1511.5000	676.953
1512.0000	677.042
1512.5000	677.04
1513.0000	677.068
1513.5000	677.075
1514.0000	677.046
1514.5000	676.971
1515.0000	676.828
1515.5000	676.729
1516.0000	676.73
1516.5000	676.836
1517.0000	676.887
1517.5000	676.996
1518.0000	676.932
1518.5000	676.913
1519.0000	676.877
1519.5000	676.839
1520.0000	676.831
1520.5000	676.804
1521.0000	676.919
1521.5000	676.901
1522.0000	676.838
1522.5000	676.92
1523.0000	676.931
1523.5000	676.945
1524.0000	676.992
1524.5000	677.029
1525.0000	676.933
1525.5000	676.936
1526.0000	676.966
1526.5000	676.844
1527.0000	676.861
1527.5000	676.867
1528.0000	676.796
1528.5000	676.819
1529.0000	676.816
1529.5000	676.699
1530.0000	676.798
1530.5000	676.857
1531.0000	676.896
1531.5000	676.943
1532.0000	676.884
1532.5000	676.741
1533.0000	676.613
1533.5000	676.598
1534.0000	676.709
1534.5000	676.829
1535.0000	676.845
1535.5000	676.874
1536.0000	676.772
1536.5000	676.775
1537.0000	676.822
1537.5000	676.812
1538.0000	676.84
1538.5000	676.792
1539.0000	676.816
1539.5000	676.811
1540.0000	676.768
1540.5000	676.739
1541.0000	676.726
1541.5000	676.697
1542.0000	676.734
1542.5000	676.772
1543.0000	676.765
1543.5000	676.739
1544.0000	676.709
1544.5000	676.751
1545.0000	676.728
1545.5000	676.715
1546.0000	676.748
1546.5000	676.661
1547.0000	676.764
1547.5000	676.82
1548.0000	676.736
1548.5000	676.683
1549.0000	676.472
1549.5000	676.409
1550.0000	676.474
1550.5000	676.537
1551.0000	676.653
1551.5000	676.719
1552.0000	676.757
1552.5000	676.682
1553.0000	676.742
1553.5000	676.748
1554.0000	676.739
1554.5000	676.807
1555.0000	676.686
1555.5000	676.637
1556.0000	676.57
1556.5000	676.626
1557.0000	676.73
1557.5000	676.742
1558.0000	676.817
1558.5000	676.711
1559.0000	676.728
1559.5000	676.678
1560.0000	676.586
1560.5000	676.613
1561.0000	676.609
1561.5000	676.692
1562.0000	676.741
1562.5000	676.782
1563.0000	676.741
1563.5000	676.654
1564.0000	676.576
1564.5000	676.581
1565.0000	676.613
1565.5000	676.669
1566.0000	676.661
1566.5000	676.517
1567.0000	676.47
1567.5000	676.472
1568.0000	676.462
1568.5000	676.568
1569.0000	676.576
1569.5000	676.574
1570.0000	676.586
1570.5000	676.644
1571.0000	676.568
1571.5000	676.454
1572.0000	676.539
1572.5000	676.4
1573.0000	676.364
1573.5000	676.496
1574.0000	676.463
1574.5000	676.611
1575.0000	676.672
1575.5000	676.57
1576.0000	676.565
1576.5000	676.392
1577.0000	676.255
1577.5000	676.275
1578.0000	676.233
1578.5000	676.317
1579.0000	676.462
1579.5000	676.464
1580.0000	676.408
1580.5000	676.406
1581.0000	676.328
1581.5000	676.315
1582.0000	676.303
1582.5000	676.307
1583.0000	676.316
1583.5000	676.261
1584.0000	676.306
1584.5000	676.223
1585.0000	676.215
1585.5000	676.314
1586.0000	676.344
1586.5000	676.33
1587.0000	676.351
1587.5000	676.342
1588.0000	676.246
1588.5000	676.28
1589.0000	676.304
1589.5000	676.226
1590.0000	676.301
1590.5000	676.32
1591.0000	676.37
1591.5000	676.342
1592.0000	676.315
1592.5000	676.32
1593.0000	676.262
1593.5000	676.332
1594.0000	676.37
1594.5000	676.321
1595.0000	676.265
1595.5000	676.185
1596.0000	676.148
1596.5000	676.218
1597.0000	676.223
1597.5000	676.197
1598.0000	676.2
1598.5000	676.18
1599.0000	676.091
1599.5000	676.144
1600.0000	676.153
1600.5000	676.063
1601.0000	676.119
1601.5000	676.074
1602.0000	676.005
1602.5000	676
1603.0000	676.023
1603.5000	676.069
1604.0000	676.079
1604.5000	676.126
1605.0000	676.037
1605.5000	675.984
1606.0000	676.061
1606.5000	676.051
1607.0000	676.175
1607.5000	676.183
1608.0000	676.129
1608.5000	676.046
1609.0000	676.023
1609.5000	676.046
1610.0000	676.029
1610.5000	676.096
1611.0000	675.971
1611.5000	675.972
1612.0000	676.01
1612.5000	675.982
1613.0000	676.048
1613.5000	676.094
1614.0000	676.084
1614.5000	676.042
1615.0000	676.16
1615.5000	676.019
1616.0000	675.978
1616.5000	675.974
1617.0000	675.975
1617.5000	676.036
1618.0000	676
1618.5000	675.925
1619.0000	675.844
1619.5000	675.882
1620.0000	675.886
1620.5000	676.051
1621.0000	676.042
1621.5000	675.925
1622.0000	675.995
1622.5000	675.92
1623.0000	675.944
1623.5000	676.055
1624.0000	675.94
1624.5000	675.992
1625.0000	676.021
1625.5000	676.011
1626.0000	676.077
1626.5000	676.133
1627.0000	676.11
1627.5000	675.998
1628.0000	676.041
1628.5000	675.934
1629.0000	675.922
1629.5000	675.977
1630.0000	675.88
1630.5000	675.763
1631.0000	675.744
1631.5000	675.814
1632.0000	675.814
1632.5000	675.907
1633.0000	675.804
1633.5000	675.773
1634.0000	675.884
1634.5000	675.903
1635.0000	675.937
1635.5000	675.963
1636.0000	675.865
1636.5000	675.799
1637.0000	675.88
1637.5000	675.737
1638.0000	675.711
1638.5000	675.826
1639.0000	675.771
1639.5000	675.901
1640.0000	675.906
1640.5000	675.784
1641.0000	675.794
1641.5000	675.77
1642.0000	675.766
1642.5000	675.88
1643.0000	675.844
1643.5000	675.83
1644.0000	675.81
1644.5000	675.764
1645.0000	675.773
1645.5000	675.724
1646.0000	675.868
1646.5000	675.84
1647.0000	675.878
1647.5000	675.91
1648.0000	675.726
1648.5000	675.739
1649.0000	675.765
1649.5000	675.685
1650.0000	675.735
1650.5000	675.745
1651.0000	675.61
1651.5000	675.626
1652.0000	675.661
1652.5000	675.626
1653.0000	675.696
1653.5000	675.753
1654.0000	675.707
1654.5000	675.768
1655.0000	675.679
1655.5000	675.624
1656.0000	675.657
1656.5000	675.562
1657.0000	675.61
1657.5000	675.662
1658.0000	675.554
1658.5000	675.586
1659.0000	675.661
1659.5000	675.659
1660.0000	675.753
1660.5000	675.789
1661.0000	675.728
1661.5000	675.637
1662.0000	675.603
1662.5000	675.526
1663.0000	675.524
1663.5000	675.533
1664.0000	675.561
1664.5000	675.655
1665.0000	675.644
1665.5000	675.698
1666.0000	675.595
1666.5000	675.497
1667.0000	675.486
1667.5000	675.536
1668.0000	675.66
1668.5000	675.68
1669.0000	675.763
1669.5000	675.721
1670.0000	675.657
1670.5000	675.652
1671.0000	675.685
1671.5000	675.762
1672.0000	675.764
1672.5000	675.76
1673.0000	675.693
1673.5000	675.688
1674.0000	675.659
1674.5000	675.644
1675.0000	675.678
1675.5000	675.598
1676.0000	675.585
1676.5000	675.569
1677.0000	675.533
1677.5000	675.499
1678.0000	675.591
1678.5000	675.648
1679.0000	675.7
1679.5000	675.72
1680.0000	675.724
1680.5000	675.753
1681.0000	675.638
1681.5000	675.605
1682.0000	675.568
1682.5000	675.535
1683.0000	675.599
1683.5000	675.561
1684.0000	675.613
1684.5000	675.584
1685.0000	675.663
1685.5000	675.712
1686.0000	675.645
1686.5000	675.655
1687.0000	675.586
1687.5000	675.567
1688.0000	675.573
1688.5000	675.677
1689.0000	675.664
1689.5000	675.699
1690.0000	675.685
1690.5000	675.628
1691.0000	675.668
1691.5000	675.769
1692.0000	675.656
1692.5000	675.719
1693.0000	675.688
1693.5000	675.6
1694.0000	675.712
1694.5000	675.661
1695.0000	675.719
1695.5000	675.727
1696.0000	675.752
1696.5000	675.718
1697.0000	675.701
1697.5000	675.707
1698.0000	675.714
1698.5000	675.768
1699.0000	675.795
1699.5000	675.804
1700.0000	675.815
1700.5000	675.743
1701.0000	675.718
1701.5000	675.621
1702.0000	675.554
1702.5000	675.499
1703.0000	675.545
1703.5000	675.628
1704.0000	675.793
1704.5000	675.856
1705.0000	675.736
1705.5000	675.694
1706.0000	675.497
1706.5000	675.463
1707.0000	675.493
1707.5000	675.593
1708.0000	675.765
1708.5000	675.896
1709.0000	675.909
1709.5000	675.846
1710.0000	675.739
1710.5000	675.614
1711.0000	675.644
1711.5000	675.638
1712.0000	675.726
1712.5000	675.706
1713.0000	675.67
1713.5000	675.679
1714.0000	675.579
1714.5000	675.697
1715.0000	675.661
1715.5000	675.542
1716.0000	675.654
1716.5000	675.604
1717.0000	675.612
1717.5000	675.826
1718.0000	675.784
1718.5000	675.731
1719.0000	675.794
1719.5000	675.731
1720.0000	675.764
1720.5000	675.848
1721.0000	675.84
1721.5000	675.854
1722.0000	675.79
1722.5000	675.864
1723.0000	675.881
1723.5000	675.837
1724.0000	675.761
1724.5000	675.693
1725.0000	675.494
1725.5000	675.515
1726.0000	675.665
1726.5000	675.617
1727.0000	675.72
1727.5000	675.75
1728.0000	675.648
1728.5000	675.714
1729.0000	675.825
1729.5000	675.922
1730.0000	676.027
1730.5000	676.014
1731.0000	676.028
1731.5000	675.947
1732.0000	675.816
1732.5000	675.765
1733.0000	675.792
1733.5000	675.824
1734.0000	675.844
1734.5000	675.879
1735.0000	675.834
1735.5000	675.794
1736.0000	675.844
1736.5000	675.857
1737.0000	675.734
1737.5000	675.694
1738.0000	675.657
1738.5000	675.675
1739.0000	675.713
1739.5000	675.683
1740.0000	675.715
1740.5000	675.618
1741.0000	675.6
1741.5000	675.584
1742.0000	675.531
1742.5000	675.529
1743.0000	675.591
1743.5000	675.544
1744.0000	675.631
1744.5000	675.675
1745.0000	675.647
1745.5000	675.703
1746.0000	675.665
1746.5000	675.698
1747.0000	675.77
1747.5000	675.773
1748.0000	675.73
1748.5000	675.644
1749.0000	675.581
1749.5000	675.621
1750.0000	675.657
1750.5000	675.621
1751.0000	675.628
1751.5000	675.689
1752.0000	675.714
1752.5000	675.818
1753.0000	675.831
1753.5000	675.755
1754.0000	675.703
1754.5000	675.737
1755.0000	675.721
1755.5000	675.689
1756.0000	675.666
1756.5000	675.497
1757.0000	675.447
1757.5000	675.453
1758.0000	675.475
1758.5000	675.592
1759.0000	675.627
1759.5000	675.671
1760.0000	675.648
1760.5000	675.701
1761.0000	675.677
1761.5000	675.636
1762.0000	675.661
1762.5000	675.607
1763.0000	675.558
1763.5000	675.635
1764.0000	675.687
1764.5000	675.575
1765.0000	675.539
1765.5000	675.415
1766.0000	675.271
1766.5000	675.312
1767.0000	675.402
1767.5000	675.36
1768.0000	675.462
1768.5000	675.408
1769.0000	675.423
1769.5000	675.478
1770.0000	675.395
1770.5000	675.558
1771.0000	675.524
1771.5000	675.546
1772.0000	675.597
1772.5000	675.476
1773.0000	675.51
1773.5000	675.573
1774.0000	675.604
1774.5000	675.593
1775.0000	675.546
1775.5000	675.467
1776.0000	675.506
1776.5000	675.604
1777.0000	675.575
1777.5000	675.486
1778.0000	675.489
1778.5000	675.45
1779.0000	675.419
1779.5000	675.497
1780.0000	675.48
1780.5000	675.501
1781.0000	675.606
1781.5000	675.553
1782.0000	675.475
1782.5000	675.455
1783.0000	675.476
1783.5000	675.636
1784.0000	675.598
1784.5000	675.577
1785.0000	675.519
1785.5000	675.392
1786.0000	675.396
1786.5000	675.36
1787.0000	675.355
1787.5000	675.388
1788.0000	675.431
1788.5000	675.569
1789.0000	675.635
1789.5000	675.623
1790.0000	675.67
1790.5000	675.615
1791.0000	675.598
1791.5000	675.67
1792.0000	675.692
1792.5000	675.629
1793.0000	675.587
1793.5000	675.541
1794.0000	675.364
1794.5000	675.373
1795.0000	675.371
1795.5000	675.288
1796.0000	675.346
1796.5000	675.271
1797.0000	675.265
1797.5000	675.325
1798.0000	675.376
1798.5000	675.41
1799.0000	675.432
1799.5000	675.443
1800.0000	675.348
1800.5000	675.311
1801.0000	675.288
1801.5000	675.315
1802.0000	675.392
1802.5000	675.496
1803.0000	675.458
1803.5000	675.393
1804.0000	675.358
1804.5000	675.337
1805.0000	675.327
1805.5000	675.25
1806.0000	675.275
1806.5000	675.253
1807.0000	675.162
1807.5000	675.264
1808.0000	675.281
1808.5000	675.202
1809.0000	675.337
1809.5000	675.268
1810.0000	675.232
1810.5000	675.287
1811.0000	675.29
1811.5000	675.394
1812.0000	675.431
1812.5000	675.342
1813.0000	675.23
1813.5000	675.159
1814.0000	675.228
1814.5000	675.353
1815.0000	675.31
1815.5000	675.174
1816.0000	675
1816.5000	674.858
1817.0000	674.925
1817.5000	675.058
1818.0000	675.086
1818.5000	675.113
1819.0000	675.015
1819.5000	674.922
1820.0000	674.933
1820.5000	675.001
1821.0000	675.129
1821.5000	675.178
1822.0000	675.186
1822.5000	675.033
1823.0000	674.916
1823.5000	674.903
1824.0000	674.916
1824.5000	674.904
1825.0000	674.976
1825.5000	675.036
1826.0000	674.907
1826.5000	675.037
1827.0000	674.962
1827.5000	674.969
1828.0000	675.022
1828.5000	674.903
1829.0000	674.819
1829.5000	674.643
1830.0000	674.699
1830.5000	674.802
1831.0000	674.858
1831.5000	674.988
1832.0000	674.95
1832.5000	674.874
1833.0000	674.866
1833.5000	674.848
1834.0000	674.822
1834.5000	674.868
1835.0000	674.881
1835.5000	674.864
1836.0000	674.88
1836.5000	674.806
1837.0000	674.772
1837.5000	674.795
1838.0000	674.807
1838.5000	674.8
1839.0000	674.885
1839.5000	674.795
1840.0000	674.726
1840.5000	674.751
1841.0000	674.7
1841.5000	674.737
1842.0000	674.703
1842.5000	674.735
1843.0000	674.783
1843.5000	674.693
1844.0000	674.717
1844.5000	674.646
1845.0000	674.573
1845.5000	674.629
1846.0000	674.616
1846.5000	674.594
1847.0000	674.68
1847.5000	674.617
1848.0000	674.553
1848.5000	674.598
1849.0000	674.54
1849.5000	674.61
1850.0000	674.677
1850.5000	674.677
1851.0000	674.652
1851.5000	674.536
1852.0000	674.568
1852.5000	674.524
1853.0000	674.52
1853.5000	674.587
1854.0000	674.507
1854.5000	674.595
1855.0000	674.681
1855.5000	674.639
1856.0000	674.749
1856.5000	674.686
1857.0000	674.586
1857.5000	674.574
1858.0000	674.546
1858.5000	674.577
1859.0000	674.578
1859.5000	674.622
1860.0000	674.502
1860.5000	674.445
1861.0000	674.452
1861.5000	674.453
1862.0000	674.425
1862.5000	674.463
1863.0000	674.47
1863.5000	674.496
1864.0000	674.56
1864.5000	674.478
1865.0000	674.509
1865.5000	674.412
1866.0000	674.431
1866.5000	674.49
1867.0000	674.483
1867.5000	674.527
1868.0000	674.581
1868.5000	674.56
1869.0000	674.487
1869.5000	674.429
1870.0000	674.389
1870.5000	674.33
1871.0000	674.361
1871.5000	674.367
1872.0000	674.255
1872.5000	674.284
1873.0000	674.24
1873.5000	674.235
1874.0000	674.232
1874.5000	674.339
1875.0000	674.322
1875.5000	674.17
1876.0000	674.195
1876.5000	674.053
1877.0000	674.012
1877.5000	674.135
1878.0000	674.108
1878.5000	674.118
1879.0000	674.16
1879.5000	674.163
1880.0000	674.148
1880.5000	674.092
1881.0000	674.003
1881.5000	674.008
1882.0000	673.936
1882.5000	673.987
1883.0000	674.026
1883.5000	674.021
1884.0000	674.049
1884.5000	674.053
1885.0000	674.032
1885.5000	674.026
1886.0000	674.114
1886.5000	674.033
1887.0000	674.058
1887.5000	673.953
1888.0000	673.931
1888.5000	673.971
1889.0000	673.925
1889.5000	673.982
1890.0000	673.957
1890.5000	674.005
1891.0000	674.032
1891.5000	674.096
1892.0000	674.068
1892.5000	673.96
1893.0000	674.018
1893.5000	673.957
1894.0000	673.891
1894.5000	673.928
1895.0000	673.78
1895.5000	673.823
1896.0000	673.892
1896.5000	673.838
1897.0000	673.674
1897.5000	673.586
1898.0000	673.477
1898.5000	673.416
1899.0000	673.484
1899.5000	673.408
1900.0000	673.471
1900.5000	673.522
1901.0000	673.598
1901.5000	673.602
1902.0000	673.569
1902.5000	673.506
1903.0000	673.483
1903.5000	673.482
1904.0000	673.46
1904.5000	673.518
1905.0000	673.454
1905.5000	673.514
1906.0000	673.478
1906.5000	673.461
1907.0000	673.485
1907.5000	673.393
1908.0000	673.48
1908.5000	673.407
1909.0000	673.411
1909.5000	673.378
1910.0000	673.246
1910.5000	673.328
1911.0000	673.338
1911.5000	673.495
1912.0000	673.595
1912.5000	673.418
1913.0000	673.336
1913.5000	673.213
1914.0000	673.154
1914.5000	673.262
1915.0000	673.29
1915.5000	673.304
1916.0000	673.25
1916.5000	673.249
1917.0000	673.287
1917.5000	673.339
1918.0000	673.383
1918.5000	673.391
1919.0000	673.338
1919.5000	673.25
1920.0000	673.134
1920.5000	673.054
1921.0000	673.002
1921.5000	672.992
1922.0000	673.06
1922.5000	673.117
1923.0000	673.254
1923.5000	673.151
1924.0000	673.083
1924.5000	672.962
1925.0000	672.839
1925.5000	672.886
1926.0000	672.991
1926.5000	673.034
1927.0000	673.076
1927.5000	673.088
1928.0000	672.913
1928.5000	673
1929.0000	672.96
1929.5000	672.851
1930.0000	672.912
1930.5000	672.848
1931.0000	672.899
1931.5000	672.992
1932.0000	673.018
1932.5000	672.951
1933.0000	672.855
1933.5000	672.751
1934.0000	672.728
1934.5000	672.764
1935.0000	672.614
1935.5000	672.747
1936.0000	672.738
1936.5000	672.668
1937.0000	672.814
1937.5000	672.709
1938.0000	672.71
1938.5000	672.671
1939.0000	672.673
1939.5000	672.661
1940.0000	672.685
1940.5000	672.678
1941.0000	672.672
1941.5000	672.638
1942.0000	672.629
1942.5000	672.633
1943.0000	672.653
1943.5000	672.739
1944.0000	672.568
1944.5000	672.535
1945.0000	672.572
1945.5000	672.464
1946.0000	672.566
1946.5000	672.606
1947.0000	672.525
1947.5000	672.567
1948.0000	672.487
1948.5000	672.404
1949.0000	672.367
1949.5000	672.343
1950.0000	672.381
1950.5000	672.422
1951.0000	672.429
1951.5000	672.461
1952.0000	672.45
1952.5000	672.46
1953.0000	672.469
1953.5000	672.503
1954.0000	672.447
1954.5000	672.498
1955.0000	672.414
1955.5000	672.328
1956.0000	672.495
1956.5000	672.46
1957.0000	672.453
1957.5000	672.399
1958.0000	672.22
1958.5000	672.204
1959.0000	672.172
1959.5000	672.24
1960.0000	672.244
1960.5000	672.256
1961.0000	672.269
1961.5000	672.205
1962.0000	672.262
1962.5000	672.23
1963.0000	672.265
1963.5000	672.377
1964.0000	672.359
1964.5000	672.361
1965.0000	672.362
1965.5000	672.194
1966.0000	672.115
1966.5000	672.12
1967.0000	672.066
1967.5000	672.088
1968.0000	672.121
1968.5000	672.042
1969.0000	672.043
1969.5000	672.014
1970.0000	672.011
1970.5000	671.964
1971.0000	672.058
1971.5000	672.168
1972.0000	672.198
1972.5000	672.287
1973.0000	672.18
1973.5000	672.082
1974.0000	671.996
1974.5000	671.893
1975.0000	671.888
1975.5000	671.913
1976.0000	671.981
1976.5000	671.961
1977.0000	671.952
1977.5000	671.974
1978.0000	671.898
1978.5000	671.938
1979.0000	671.963
1979.5000	671.885
1980.0000	671.913
1980.5000	671.895
1981.0000	671.789
1981.5000	671.839
1982.0000	671.829
1982.5000	671.807
1983.0000	671.918
1983.5000	671.801
1984.0000	671.751
1984.5000	671.73
1985.0000	671.575
1985.5000	671.576
1986.0000	671.578
1986.5000	671.64
1987.0000	671.666
1987.5000	671.735
1988.0000	671.843
1988.5000	671.76
1989.0000	671.68
1989.5000	671.586
1990.0000	671.433
1990.5000	671.437
1991.0000	671.571
1991.5000	671.664
1992.0000	671.6
1992.5000	671.579
1993.0000	671.566
1993.5000	671.47
1994.0000	671.509
1994.5000	671.58
1995.0000	671.54
1995.5000	671.557
1996.0000	671.627
1996.5000	671.512
1997.0000	671.495
1997.5000	671.561
1998.0000	671.558
1998.5000	671.58
1999.0000	671.578
1999.5000	671.542
2000.0000	671.452
