TITLE	
DATA TYPE	
ORIGIN	JASCO
OWNER	
DATE	22/08/25
TIME	13:54:11
SPECTROMETER/DATA SYSTEM	
RESOLUTION	
DELTAX	0.5
XUNITS	SEC
YUNITS	INTENSITY
FIRSTX	0.0000
LASTX	1864.5000
NPOINTS	3730
FIRSTY	349.37833
MAXY	378.10385
MINY	-64.18378
XYDATA
0.0000	349.378
0.5000	349.32
1.0000	349.367
1.5000	349.39
2.0000	349.467
2.5000	349.525
3.0000	349.537
3.5000	349.551
4.0000	349.55
4.5000	349.577
5.0000	349.581
5.5000	349.579
6.0000	349.58
6.5000	349.543
7.0000	349.52
7.5000	349.557
8.0000	349.563
8.5000	349.576
9.0000	349.576
9.5000	349.551
10.0000	349.545
10.5000	349.552
11.0000	349.582
11.5000	349.622
12.0000	349.63
12.5000	349.642
13.0000	349.641
13.5000	349.666
14.0000	349.677
14.5000	349.711
15.0000	349.714
15.5000	349.72
16.0000	349.727
16.5000	349.685
17.0000	349.722
17.5000	349.673
18.0000	349.664
18.5000	349.733
19.0000	349.752
19.5000	349.8
20.0000	349.83
20.5000	349.859
21.0000	349.798
21.5000	349.794
22.0000	349.743
22.5000	349.708
23.0000	349.743
23.5000	349.659
24.0000	349.72
24.5000	349.702
25.0000	349.759
25.5000	349.839
26.0000	349.827
26.5000	349.851
27.0000	349.803
27.5000	349.859
28.0000	349.873
28.5000	349.895
29.0000	349.96
29.5000	340.729
30.0000	326.857
30.5000	295.117
31.0000	83.0949
31.5000	-64.1838
32.0000	-38.8392
32.5000	-33.2789
33.0000	-31.2214
33.5000	-29.9365
34.0000	-29.1599
34.5000	-28.6881
35.0000	-28.2876
35.5000	-27.8485
36.0000	-27.6989
36.5000	-27.3909
37.0000	169.158
37.5000	196.904
38.0000	193.409
38.5000	191.632
39.0000	182.037
39.5000	177.47
40.0000	177.237
40.5000	177.362
41.0000	177.603
41.5000	177.829
42.0000	178.129
42.5000	178.425
43.0000	178.644
43.5000	178.909
44.0000	179.164
44.5000	179.406
45.0000	179.694
45.5000	179.984
46.0000	180.263
46.5000	180.551
47.0000	180.819
47.5000	181.084
48.0000	181.371
48.5000	181.646
49.0000	181.926
49.5000	182.229
50.0000	182.537
50.5000	182.813
51.0000	183.096
51.5000	183.363
52.0000	183.656
52.5000	183.939
53.0000	184.226
53.5000	184.518
54.0000	184.787
54.5000	185.07
55.0000	185.328
55.5000	185.579
56.0000	185.797
56.5000	186.08
57.0000	186.363
57.5000	186.657
58.0000	186.928
58.5000	187.187
59.0000	187.468
59.5000	187.712
60.0000	188.015
60.5000	188.272
61.0000	188.536
61.5000	188.787
62.0000	189.051
62.5000	189.292
63.0000	189.558
63.5000	189.839
64.0000	190.092
64.5000	190.394
65.0000	190.634
65.5000	190.895
66.0000	191.152
66.5000	191.405
67.0000	191.71
67.5000	191.997
68.0000	192.276
68.5000	192.55
69.0000	192.767
69.5000	193.012
70.0000	193.269
70.5000	193.521
71.0000	193.799
71.5000	194.091
72.0000	194.359
72.5000	194.627
73.0000	194.907
73.5000	195.155
74.0000	195.419
74.5000	195.69
75.0000	195.952
75.5000	196.224
76.0000	196.506
76.5000	196.772
77.0000	197.048
77.5000	197.302
78.0000	197.513
78.5000	197.761
79.0000	198.027
79.5000	198.289
80.0000	198.547
80.5000	198.814
81.0000	199.036
81.5000	199.269
82.0000	199.559
82.5000	199.801
83.0000	200.082
83.5000	200.35
84.0000	200.613
84.5000	200.87
85.0000	201.113
85.5000	201.373
86.0000	201.626
86.5000	201.882
87.0000	202.175
87.5000	202.448
88.0000	202.686
88.5000	202.963
89.0000	203.209
89.5000	203.454
90.0000	203.693
90.5000	203.917
91.0000	204.119
91.5000	204.351
92.0000	204.641
92.5000	204.907
93.0000	205.199
93.5000	205.486
94.0000	205.729
94.5000	205.999
95.0000	206.266
95.5000	206.52
96.0000	206.775
96.5000	207.01
97.0000	207.247
97.5000	207.468
98.0000	207.711
98.5000	207.968
99.0000	208.218
99.5000	208.488
100.0000	208.752
100.5000	209.007
101.0000	209.246
101.5000	209.475
102.0000	209.72
102.5000	209.954
103.0000	210.191
103.5000	210.451
104.0000	210.714
104.5000	210.945
105.0000	211.217
105.5000	211.459
106.0000	211.684
106.5000	211.966
107.0000	212.201
107.5000	212.427
108.0000	212.656
108.5000	212.878
109.0000	213.111
109.5000	213.364
110.0000	213.606
110.5000	213.865
111.0000	214.124
111.5000	214.359
112.0000	214.606
112.5000	214.855
113.0000	215.078
113.5000	215.34
114.0000	215.59
114.5000	215.795
115.0000	216.024
115.5000	216.268
116.0000	216.528
116.5000	216.784
117.0000	217.016
117.5000	217.248
118.0000	217.483
118.5000	217.739
119.0000	217.991
119.5000	218.233
120.0000	218.449
120.5000	218.66
121.0000	218.907
121.5000	219.157
122.0000	219.379
122.5000	219.613
123.0000	219.859
123.5000	220.047
124.0000	220.315
124.5000	220.572
125.0000	220.785
125.5000	221.019
126.0000	221.244
126.5000	221.447
127.0000	221.668
127.5000	221.924
128.0000	222.14
128.5000	222.379
129.0000	222.619
129.5000	222.852
130.0000	223.111
130.5000	223.361
131.0000	223.606
131.5000	223.842
132.0000	224.087
132.5000	224.321
133.0000	224.525
133.5000	224.763
134.0000	224.914
134.5000	225.168
135.0000	225.434
135.5000	225.647
136.0000	225.953
136.5000	226.161
137.0000	226.37
137.5000	226.597
138.0000	226.769
138.5000	226.957
139.0000	227.191
139.5000	227.428
140.0000	227.675
140.5000	227.947
141.0000	228.191
141.5000	228.399
142.0000	228.64
142.5000	228.838
143.0000	229.003
143.5000	229.24
144.0000	229.476
144.5000	229.663
145.0000	229.873
145.5000	230.068
146.0000	230.275
146.5000	230.509
147.0000	230.759
147.5000	230.981
148.0000	231.154
148.5000	231.378
149.0000	231.584
149.5000	231.795
150.0000	232.011
150.5000	232.211
151.0000	232.45
151.5000	232.665
152.0000	232.877
152.5000	233.1
153.0000	233.298
153.5000	233.491
154.0000	233.728
154.5000	233.921
155.0000	234.16
155.5000	234.411
156.0000	234.621
156.5000	234.865
157.0000	235.058
157.5000	235.258
158.0000	235.465
158.5000	235.655
159.0000	235.832
159.5000	236.061
160.0000	236.244
160.5000	236.48
161.0000	236.736
161.5000	236.908
162.0000	237.143
162.5000	237.378
163.0000	237.602
163.5000	237.798
164.0000	237.964
164.5000	238.132
165.0000	238.257
165.5000	238.494
166.0000	238.729
166.5000	238.915
167.0000	239.185
167.5000	239.395
168.0000	239.604
168.5000	239.841
169.0000	239.988
169.5000	240.175
170.0000	240.375
170.5000	240.561
171.0000	240.754
171.5000	240.934
172.0000	241.15
172.5000	241.343
173.0000	241.579
173.5000	241.807
174.0000	241.932
174.5000	242.109
175.0000	242.308
175.5000	242.487
176.0000	242.728
176.5000	242.934
177.0000	243.112
177.5000	243.297
178.0000	243.502
178.5000	243.725
179.0000	243.961
179.5000	244.204
180.0000	244.43
180.5000	244.568
181.0000	244.715
181.5000	244.889
182.0000	245.028
182.5000	245.223
183.0000	245.485
183.5000	245.691
184.0000	245.9
184.5000	246.144
185.0000	246.292
185.5000	246.461
186.0000	246.602
186.5000	246.78
187.0000	246.995
187.5000	247.175
188.0000	247.418
188.5000	247.613
189.0000	247.779
189.5000	247.984
190.0000	248.177
190.5000	248.351
191.0000	248.523
191.5000	248.685
192.0000	248.867
192.5000	249.069
193.0000	249.248
193.5000	249.46
194.0000	249.65
194.5000	249.858
195.0000	250.053
195.5000	250.241
196.0000	250.436
196.5000	250.616
197.0000	250.79
197.5000	250.953
198.0000	251.143
198.5000	251.277
199.0000	251.504
199.5000	251.724
200.0000	251.89
200.5000	252.112
201.0000	252.25
201.5000	252.455
202.0000	252.643
202.5000	252.789
203.0000	252.993
203.5000	253.114
204.0000	253.241
204.5000	253.406
205.0000	253.57
205.5000	253.77
206.0000	253.964
206.5000	254.166
207.0000	254.345
207.5000	254.515
208.0000	254.711
208.5000	254.926
209.0000	255.108
209.5000	255.276
210.0000	255.449
210.5000	255.606
211.0000	255.759
211.5000	255.935
212.0000	256.114
212.5000	256.27
213.0000	256.495
213.5000	256.68
214.0000	256.884
214.5000	257.092
215.0000	257.239
215.5000	257.404
216.0000	257.512
216.5000	257.691
217.0000	257.882
217.5000	258.051
218.0000	258.25
218.5000	258.429
219.0000	258.585
219.5000	258.762
220.0000	258.926
220.5000	259.044
221.0000	259.227
221.5000	259.381
222.0000	259.543
222.5000	259.722
223.0000	259.887
223.5000	260.08
224.0000	260.254
224.5000	260.451
225.0000	260.621
225.5000	260.772
226.0000	260.957
226.5000	261.115
227.0000	261.279
227.5000	261.431
228.0000	261.606
228.5000	261.804
229.0000	261.929
229.5000	262.133
230.0000	262.296
230.5000	262.42
231.0000	262.62
231.5000	262.77
232.0000	262.909
232.5000	263.048
233.0000	263.208
233.5000	263.344
234.0000	263.525
234.5000	263.696
235.0000	263.83
235.5000	263.987
236.0000	264.152
236.5000	264.351
237.0000	264.541
237.5000	264.663
238.0000	264.827
238.5000	264.949
239.0000	265.082
239.5000	265.311
240.0000	265.473
240.5000	265.631
241.0000	265.86
241.5000	266.018
242.0000	266.177
242.5000	266.335
243.0000	266.425
243.5000	266.551
244.0000	266.702
244.5000	266.915
245.0000	267.06
245.5000	267.235
246.0000	267.384
246.5000	267.519
247.0000	267.719
247.5000	267.876
248.0000	268.031
248.5000	268.17
249.0000	268.275
249.5000	268.447
250.0000	268.562
250.5000	268.699
251.0000	268.88
251.5000	269.011
252.0000	269.187
252.5000	269.311
253.0000	269.447
253.5000	269.588
254.0000	269.711
254.5000	269.848
255.0000	270.008
255.5000	270.14
256.0000	270.334
256.5000	270.535
257.0000	270.659
257.5000	270.857
258.0000	271.02
258.5000	271.152
259.0000	271.317
259.5000	271.437
260.0000	271.587
260.5000	271.73
261.0000	271.882
261.5000	272.005
262.0000	272.099
262.5000	272.235
263.0000	272.385
263.5000	272.548
264.0000	272.72
264.5000	272.888
265.0000	272.995
265.5000	273.129
266.0000	273.287
266.5000	273.414
267.0000	273.629
267.5000	273.831
268.0000	273.974
268.5000	274.127
269.0000	274.259
269.5000	274.349
270.0000	274.485
270.5000	274.623
271.0000	274.753
271.5000	274.943
272.0000	275.095
272.5000	275.267
273.0000	275.38
273.5000	275.51
274.0000	275.661
274.5000	275.781
275.0000	275.939
275.5000	276.082
276.0000	276.215
276.5000	276.395
277.0000	276.575
277.5000	276.716
278.0000	276.85
278.5000	276.973
279.0000	277.092
279.5000	277.194
280.0000	277.351
280.5000	277.476
281.0000	277.598
281.5000	277.793
282.0000	277.941
282.5000	278.06
283.0000	278.233
283.5000	278.354
284.0000	278.458
284.5000	278.621
285.0000	278.737
285.5000	278.858
286.0000	279.012
286.5000	279.147
287.0000	279.307
287.5000	279.477
288.0000	279.617
288.5000	279.763
289.0000	279.9
289.5000	280.025
290.0000	280.143
290.5000	280.269
291.0000	280.397
291.5000	280.541
292.0000	280.649
292.5000	280.771
293.0000	280.92
293.5000	281.024
294.0000	281.178
294.5000	281.349
295.0000	281.467
295.5000	281.592
296.0000	281.756
296.5000	281.895
297.0000	282.035
297.5000	282.188
298.0000	282.316
298.5000	282.495
299.0000	282.637
299.5000	282.8
300.0000	282.945
300.5000	282.976
301.0000	283.056
301.5000	283.134
302.0000	283.229
302.5000	283.419
303.0000	283.618
303.5000	283.786
304.0000	283.986
304.5000	284.089
305.0000	284.172
305.5000	284.273
306.0000	284.355
306.5000	284.511
307.0000	284.634
307.5000	284.794
308.0000	284.946
308.5000	285.063
309.0000	285.196
309.5000	285.326
310.0000	285.401
310.5000	285.498
311.0000	285.622
311.5000	285.747
312.0000	285.903
312.5000	286.025
313.0000	286.165
313.5000	286.299
314.0000	286.403
314.5000	286.594
315.0000	286.727
315.5000	286.854
316.0000	287.002
316.5000	287.12
317.0000	287.24
317.5000	287.378
318.0000	287.511
318.5000	287.605
319.0000	287.723
319.5000	287.823
320.0000	287.913
320.5000	288.058
321.0000	288.18
321.5000	288.302
322.0000	288.444
322.5000	288.577
323.0000	288.698
323.5000	288.815
324.0000	288.943
324.5000	289.052
325.0000	289.197
325.5000	289.335
326.0000	289.457
326.5000	289.595
327.0000	289.756
327.5000	289.911
328.0000	290.068
328.5000	290.157
329.0000	290.248
329.5000	290.285
330.0000	290.399
330.5000	290.531
331.0000	290.649
331.5000	290.841
332.0000	290.938
332.5000	291.014
333.0000	291.128
333.5000	291.285
334.0000	291.409
334.5000	291.543
335.0000	291.688
335.5000	291.76
336.0000	291.882
336.5000	292.02
337.0000	292.118
337.5000	292.287
338.0000	292.439
338.5000	292.583
339.0000	292.716
339.5000	292.787
340.0000	292.933
340.5000	293.043
341.0000	293.15
341.5000	293.27
342.0000	293.31
342.5000	293.416
343.0000	293.503
343.5000	293.636
344.0000	293.741
344.5000	293.887
345.0000	294.085
345.5000	294.168
346.0000	294.364
346.5000	294.455
347.0000	294.509
347.5000	294.659
348.0000	294.741
348.5000	294.825
349.0000	294.987
349.5000	295.108
350.0000	295.227
350.5000	295.418
351.0000	295.514
351.5000	295.616
352.0000	295.711
352.5000	295.799
353.0000	295.865
353.5000	295.942
354.0000	296.08
354.5000	296.217
355.0000	296.375
355.5000	296.505
356.0000	296.615
356.5000	296.711
357.0000	296.822
357.5000	296.927
358.0000	297.05
358.5000	297.184
359.0000	297.34
359.5000	297.496
360.0000	297.607
360.5000	297.698
361.0000	297.806
361.5000	297.899
362.0000	298.02
362.5000	298.133
363.0000	298.244
363.5000	298.361
364.0000	298.467
364.5000	298.551
365.0000	298.628
365.5000	298.698
366.0000	298.81
366.5000	298.968
367.0000	299.121
367.5000	299.251
368.0000	299.327
368.5000	299.404
369.0000	299.498
369.5000	299.61
370.0000	299.754
370.5000	299.888
371.0000	299.961
371.5000	300.099
372.0000	300.19
372.5000	300.329
373.0000	300.479
373.5000	300.614
374.0000	300.739
374.5000	300.811
375.0000	300.879
375.5000	301.002
376.0000	301.129
376.5000	301.309
377.0000	301.41
377.5000	301.513
378.0000	301.567
378.5000	301.663
379.0000	301.784
379.5000	301.907
380.0000	302.077
380.5000	302.128
381.0000	302.237
381.5000	302.29
382.0000	302.391
382.5000	302.541
383.0000	302.701
383.5000	302.831
384.0000	302.966
384.5000	303.081
385.0000	303.198
385.5000	303.324
386.0000	303.376
386.5000	303.459
387.0000	303.539
387.5000	303.634
388.0000	303.777
388.5000	303.884
389.0000	303.967
389.5000	304.077
390.0000	304.184
390.5000	304.258
391.0000	304.402
391.5000	304.489
392.0000	304.562
392.5000	304.706
393.0000	304.737
393.5000	304.85
394.0000	304.98
394.5000	305.043
395.0000	305.195
395.5000	305.342
396.0000	305.459
396.5000	305.573
397.0000	305.685
397.5000	305.782
398.0000	305.822
398.5000	305.948
399.0000	306.049
399.5000	306.139
400.0000	306.327
400.5000	306.463
401.0000	306.58
401.5000	306.669
402.0000	306.743
402.5000	306.838
403.0000	306.938
403.5000	307.026
404.0000	307.099
404.5000	307.19
405.0000	307.264
405.5000	307.339
406.0000	307.45
406.5000	307.535
407.0000	307.694
407.5000	307.829
408.0000	307.949
408.5000	308.059
409.0000	308.142
409.5000	308.235
410.0000	308.375
410.5000	308.484
411.0000	308.566
411.5000	308.664
412.0000	308.732
412.5000	308.868
413.0000	308.945
413.5000	309.059
414.0000	309.157
414.5000	309.249
415.0000	309.409
415.5000	309.496
416.0000	309.653
416.5000	309.747
417.0000	309.864
417.5000	309.978
418.0000	310.058
418.5000	310.149
419.0000	310.185
419.5000	310.31
420.0000	310.373
420.5000	310.418
421.0000	310.557
421.5000	310.662
422.0000	310.723
422.5000	310.858
423.0000	310.952
423.5000	311.004
424.0000	311.113
424.5000	311.244
425.0000	311.333
425.5000	311.477
426.0000	311.645
426.5000	311.73
427.0000	311.852
427.5000	311.977
428.0000	312.053
428.5000	312.162
429.0000	312.249
429.5000	312.286
430.0000	312.384
430.5000	312.412
431.0000	312.49
431.5000	312.607
432.0000	312.689
432.5000	312.809
433.0000	312.912
433.5000	313.005
434.0000	313.094
434.5000	313.218
435.0000	313.351
435.5000	313.472
436.0000	313.577
436.5000	313.714
437.0000	313.772
437.5000	313.85
438.0000	313.962
438.5000	314.012
439.0000	314.176
439.5000	314.305
440.0000	314.406
440.5000	314.462
441.0000	314.546
441.5000	314.597
442.0000	314.666
442.5000	314.839
443.0000	314.884
443.5000	314.995
444.0000	315.143
444.5000	315.215
445.0000	315.284
445.5000	315.421
446.0000	315.498
446.5000	315.572
447.0000	315.668
447.5000	315.699
448.0000	315.798
448.5000	315.888
449.0000	315.999
449.5000	316.133
450.0000	316.187
450.5000	316.301
451.0000	316.377
451.5000	316.431
452.0000	316.502
452.5000	316.586
453.0000	316.704
453.5000	316.817
454.0000	316.917
454.5000	317.068
455.0000	317.195
455.5000	317.281
456.0000	317.405
456.5000	317.455
457.0000	317.502
457.5000	317.562
458.0000	317.595
458.5000	317.673
459.0000	317.753
459.5000	317.832
460.0000	317.966
460.5000	318.053
461.0000	318.104
461.5000	318.193
462.0000	318.293
462.5000	318.328
463.0000	318.468
463.5000	318.569
464.0000	318.616
464.5000	318.704
465.0000	318.827
465.5000	318.932
466.0000	319.009
466.5000	319.161
467.0000	319.211
467.5000	319.272
468.0000	319.358
468.5000	319.395
469.0000	319.47
469.5000	319.619
470.0000	319.722
470.5000	319.83
471.0000	319.921
471.5000	319.951
472.0000	320.1
472.5000	320.19
473.0000	320.267
473.5000	320.35
474.0000	320.403
474.5000	320.473
475.0000	320.578
475.5000	320.697
476.0000	320.747
476.5000	320.849
477.0000	320.932
477.5000	321.02
478.0000	321.117
478.5000	321.132
479.0000	321.205
479.5000	321.28
480.0000	321.343
480.5000	321.532
481.0000	321.617
481.5000	321.694
482.0000	321.779
482.5000	321.835
483.0000	321.934
483.5000	322.026
484.0000	322.08
484.5000	322.155
485.0000	322.201
485.5000	322.257
486.0000	322.387
486.5000	322.461
487.0000	322.549
487.5000	322.617
488.0000	322.702
488.5000	322.825
489.0000	322.895
489.5000	322.966
490.0000	323.075
490.5000	323.083
491.0000	323.169
491.5000	323.273
492.0000	323.327
492.5000	323.427
493.0000	323.528
493.5000	323.616
494.0000	323.655
494.5000	323.728
495.0000	323.754
495.5000	323.853
496.0000	323.943
496.5000	324.012
497.0000	324.081
497.5000	324.119
498.0000	324.231
498.5000	324.333
499.0000	324.421
499.5000	324.494
500.0000	324.578
500.5000	324.647
501.0000	324.777
501.5000	324.882
502.0000	324.891
502.5000	324.943
503.0000	324.996
503.5000	325.035
504.0000	325.162
504.5000	325.212
505.0000	325.265
505.5000	325.365
506.0000	325.378
506.5000	325.527
507.0000	325.653
507.5000	325.652
508.0000	325.779
508.5000	325.813
509.0000	325.862
509.5000	325.974
510.0000	326.039
510.5000	326.123
511.0000	326.174
511.5000	326.271
512.0000	326.344
512.5000	326.436
513.0000	326.537
513.5000	326.603
514.0000	326.658
514.5000	326.713
515.0000	326.752
515.5000	326.837
516.0000	326.914
516.5000	326.987
517.0000	327.112
517.5000	327.172
518.0000	327.268
518.5000	327.358
519.0000	327.371
519.5000	327.465
520.0000	327.517
520.5000	327.549
521.0000	327.656
521.5000	327.766
522.0000	327.874
522.5000	327.967
523.0000	327.991
523.5000	327.982
524.0000	328.063
524.5000	328.106
525.0000	328.188
525.5000	328.285
526.0000	328.336
526.5000	328.387
527.0000	328.447
527.5000	328.531
528.0000	328.614
528.5000	328.721
529.0000	328.832
529.5000	328.914
530.0000	328.943
530.5000	329.039
531.0000	329.069
531.5000	329.078
532.0000	329.171
532.5000	329.232
533.0000	329.327
533.5000	329.409
534.0000	329.464
534.5000	329.538
535.0000	329.622
535.5000	329.673
536.0000	329.75
536.5000	329.815
537.0000	329.842
537.5000	329.997
538.0000	330.074
538.5000	330.139
539.0000	330.225
539.5000	330.218
540.0000	330.281
540.5000	330.331
541.0000	330.427
541.5000	330.53
542.0000	330.566
542.5000	330.638
543.0000	330.702
543.5000	330.741
544.0000	330.822
544.5000	330.903
545.0000	330.931
545.5000	331.044
546.0000	331.113
546.5000	331.208
547.0000	331.294
547.5000	331.317
548.0000	331.39
548.5000	331.459
549.0000	331.532
549.5000	331.62
550.0000	331.688
550.5000	331.707
551.0000	331.8
551.5000	331.867
552.0000	331.96
552.5000	331.999
553.0000	332.057
553.5000	332.11
554.0000	332.199
554.5000	332.328
555.0000	332.345
555.5000	332.444
556.0000	332.412
556.5000	332.457
557.0000	332.574
557.5000	332.583
558.0000	332.705
558.5000	332.778
559.0000	332.85
559.5000	332.933
560.0000	333.006
560.5000	333.076
561.0000	333.12
561.5000	333.211
562.0000	333.268
562.5000	333.346
563.0000	333.426
563.5000	333.51
564.0000	333.613
564.5000	333.658
565.0000	333.749
565.5000	333.801
566.0000	333.835
566.5000	333.936
567.0000	334.001
567.5000	334.047
568.0000	334.091
568.5000	334.106
569.0000	334.123
569.5000	334.172
570.0000	334.283
570.5000	334.343
571.0000	334.411
571.5000	334.454
572.0000	334.473
572.5000	334.494
573.0000	334.524
573.5000	334.626
574.0000	334.668
574.5000	334.776
575.0000	334.917
575.5000	334.992
576.0000	335.037
576.5000	335.108
577.0000	335.15
577.5000	335.208
578.0000	335.271
578.5000	335.312
579.0000	335.356
579.5000	335.42
580.0000	335.538
580.5000	335.612
581.0000	335.723
581.5000	335.789
582.0000	335.805
582.5000	335.914
583.0000	335.938
583.5000	335.949
584.0000	336.054
584.5000	336.074
585.0000	336.149
585.5000	336.217
586.0000	336.253
586.5000	336.326
587.0000	336.368
587.5000	336.466
588.0000	336.535
588.5000	336.564
589.0000	336.637
589.5000	336.686
590.0000	336.773
590.5000	336.854
591.0000	336.946
591.5000	337.059
592.0000	337.122
592.5000	337.138
593.0000	337.115
593.5000	337.124
594.0000	337.114
594.5000	337.23
595.0000	337.327
595.5000	337.379
596.0000	337.446
596.5000	337.524
597.0000	337.613
597.5000	337.631
598.0000	337.702
598.5000	337.69
599.0000	337.724
599.5000	337.837
600.0000	337.908
600.5000	337.968
601.0000	337.998
601.5000	338.045
602.0000	338.143
602.5000	338.215
603.0000	338.321
603.5000	338.397
604.0000	338.403
604.5000	338.479
605.0000	338.534
605.5000	338.595
606.0000	338.666
606.5000	338.772
607.0000	338.811
607.5000	338.838
608.0000	338.902
608.5000	338.898
609.0000	338.9
609.5000	338.969
610.0000	338.992
610.5000	339.076
611.0000	339.151
611.5000	339.231
612.0000	339.313
612.5000	339.33
613.0000	339.413
613.5000	339.477
614.0000	339.542
614.5000	339.595
615.0000	339.608
615.5000	339.641
616.0000	339.665
616.5000	339.689
617.0000	339.842
617.5000	339.855
618.0000	339.904
618.5000	340.035
619.0000	339.998
619.5000	340.069
620.0000	340.201
620.5000	340.216
621.0000	340.3
621.5000	340.363
622.0000	340.374
622.5000	340.444
623.0000	340.568
623.5000	340.622
624.0000	340.718
624.5000	340.77
625.0000	340.76
625.5000	340.823
626.0000	340.838
626.5000	340.94
627.0000	340.964
627.5000	341.062
628.0000	341.08
628.5000	341.125
629.0000	341.199
629.5000	341.223
630.0000	341.302
630.5000	341.355
631.0000	341.38
631.5000	341.392
632.0000	341.501
632.5000	341.609
633.0000	341.736
633.5000	341.846
634.0000	341.883
634.5000	341.866
635.0000	341.891
635.5000	341.958
636.0000	341.991
636.5000	342.076
637.0000	342.107
637.5000	342.123
638.0000	342.176
638.5000	342.207
639.0000	342.301
639.5000	342.377
640.0000	342.465
640.5000	342.494
641.0000	342.561
641.5000	342.555
642.0000	342.617
642.5000	342.65
643.0000	342.694
643.5000	342.793
644.0000	342.87
644.5000	342.963
645.0000	343.009
645.5000	343.035
646.0000	343.055
646.5000	343.151
647.0000	343.216
647.5000	343.312
648.0000	343.35
648.5000	343.458
649.0000	343.483
649.5000	343.513
650.0000	343.553
650.5000	343.517
651.0000	343.592
651.5000	343.635
652.0000	343.665
652.5000	343.702
653.0000	343.726
653.5000	343.8
654.0000	343.871
654.5000	343.962
655.0000	344.018
655.5000	344.072
656.0000	344.138
656.5000	344.144
657.0000	344.217
657.5000	344.254
658.0000	344.274
658.5000	344.368
659.0000	344.387
659.5000	344.421
660.0000	344.489
660.5000	344.535
661.0000	344.626
661.5000	344.715
662.0000	344.765
662.5000	344.751
663.0000	344.776
663.5000	344.824
664.0000	344.921
664.5000	345.011
665.0000	345.077
665.5000	345.076
666.0000	345.077
666.5000	345.079
667.0000	345.101
667.5000	345.169
668.0000	345.163
668.5000	345.243
669.0000	345.219
669.5000	345.286
670.0000	345.36
670.5000	345.421
671.0000	345.552
671.5000	345.589
672.0000	345.674
672.5000	345.695
673.0000	345.703
673.5000	345.704
674.0000	345.723
674.5000	345.78
675.0000	345.833
675.5000	345.941
676.0000	345.997
676.5000	346.078
677.0000	346.146
677.5000	346.16
678.0000	346.199
678.5000	346.242
679.0000	346.292
679.5000	346.372
680.0000	346.471
680.5000	346.474
681.0000	346.497
681.5000	346.518
682.0000	346.484
682.5000	346.555
683.0000	346.641
683.5000	346.676
684.0000	346.753
684.5000	346.746
685.0000	346.784
685.5000	346.776
686.0000	346.793
686.5000	346.95
687.0000	346.947
687.5000	347.067
688.0000	347.152
688.5000	347.125
689.0000	347.23
689.5000	347.243
690.0000	347.268
690.5000	347.388
691.0000	347.411
691.5000	347.481
692.0000	347.587
692.5000	347.551
693.0000	347.579
693.5000	347.651
694.0000	347.634
694.5000	347.656
695.0000	347.667
695.5000	347.668
696.0000	347.73
696.5000	347.794
697.0000	347.884
697.5000	347.98
698.0000	348.006
698.5000	348.082
699.0000	348.161
699.5000	348.186
700.0000	348.163
700.5000	348.171
701.0000	348.156
701.5000	348.138
702.0000	348.281
702.5000	348.307
703.0000	348.429
703.5000	348.494
704.0000	348.52
704.5000	348.619
705.0000	348.536
705.5000	348.632
706.0000	348.605
706.5000	348.596
707.0000	348.692
707.5000	348.693
708.0000	348.814
708.5000	348.837
709.0000	348.908
709.5000	348.991
710.0000	349.046
710.5000	349.116
711.0000	349.139
711.5000	349.148
712.0000	349.162
712.5000	349.223
713.0000	349.241
713.5000	349.248
714.0000	349.299
714.5000	349.314
715.0000	349.36
715.5000	349.38
716.0000	349.346
716.5000	349.404
717.0000	349.462
717.5000	349.587
718.0000	349.669
718.5000	349.728
719.0000	349.8
719.5000	349.803
720.0000	349.847
720.5000	349.897
721.0000	349.888
721.5000	349.905
722.0000	349.93
722.5000	349.969
723.0000	350
723.5000	350.07
724.0000	350.15
724.5000	350.159
725.0000	350.191
725.5000	350.226
726.0000	350.26
726.5000	350.259
727.0000	350.273
727.5000	350.352
728.0000	350.415
728.5000	350.471
729.0000	350.55
729.5000	350.602
730.0000	350.595
730.5000	350.656
731.0000	350.708
731.5000	350.701
732.0000	350.745
732.5000	350.802
733.0000	350.803
733.5000	350.829
734.0000	350.863
734.5000	350.894
735.0000	350.97
735.5000	350.973
736.0000	351.028
736.5000	351.026
737.0000	351.079
737.5000	351.13
738.0000	351.155
738.5000	351.257
739.0000	351.274
739.5000	351.318
740.0000	351.335
740.5000	351.335
741.0000	351.386
741.5000	351.464
742.0000	351.525
742.5000	351.546
743.0000	351.575
743.5000	351.601
744.0000	351.647
744.5000	351.71
745.0000	351.724
745.5000	351.732
746.0000	351.768
746.5000	351.846
747.0000	351.901
747.5000	351.949
748.0000	352.028
748.5000	352.022
749.0000	352.098
749.5000	352.115
750.0000	352.134
750.5000	352.155
751.0000	352.124
751.5000	352.168
752.0000	352.188
752.5000	352.3
753.0000	352.377
753.5000	352.44
754.0000	352.487
754.5000	352.458
755.0000	352.528
755.5000	352.516
756.0000	352.578
756.5000	352.658
757.0000	352.726
757.5000	352.82
758.0000	352.848
758.5000	352.8
759.0000	352.779
759.5000	352.776
760.0000	352.801
760.5000	352.874
761.0000	352.868
761.5000	352.933
762.0000	352.973
762.5000	352.975
763.0000	353.022
763.5000	353.053
764.0000	353.095
764.5000	353.181
765.0000	353.259
765.5000	353.319
766.0000	353.341
766.5000	353.387
767.0000	353.442
767.5000	353.446
768.0000	353.481
768.5000	353.441
769.0000	353.399
769.5000	353.468
770.0000	353.557
770.5000	353.617
771.0000	353.713
771.5000	353.712
772.0000	353.677
772.5000	353.714
773.0000	353.744
773.5000	353.816
774.0000	353.866
774.5000	353.944
775.0000	354.009
775.5000	354.04
776.0000	354.03
776.5000	354.042
777.0000	354.077
777.5000	354.1
778.0000	354.16
778.5000	354.25
779.0000	354.272
779.5000	354.34
780.0000	354.455
780.5000	354.52
781.0000	354.548
781.5000	354.508
782.0000	354.516
782.5000	354.521
783.0000	354.533
783.5000	354.606
784.0000	354.621
784.5000	354.584
785.0000	354.692
785.5000	354.742
786.0000	354.727
786.5000	354.8
787.0000	354.822
787.5000	354.89
788.0000	354.989
788.5000	355.025
789.0000	355.009
789.5000	355.037
790.0000	354.99
790.5000	355.027
791.0000	355.055
791.5000	355.059
792.0000	355.111
792.5000	355.148
793.0000	355.195
793.5000	355.284
794.0000	355.4
794.5000	355.426
795.0000	355.465
795.5000	355.453
796.0000	355.422
796.5000	355.462
797.0000	355.441
797.5000	355.521
798.0000	355.555
798.5000	355.594
799.0000	355.664
799.5000	355.635
800.0000	355.728
800.5000	355.738
801.0000	355.74
801.5000	355.793
802.0000	355.785
802.5000	355.81
803.0000	355.877
803.5000	355.916
804.0000	355.915
804.5000	355.954
805.0000	356.073
805.5000	356.064
806.0000	356.164
806.5000	356.273
807.0000	356.235
807.5000	356.26
808.0000	356.268
808.5000	356.225
809.0000	356.234
809.5000	356.284
810.0000	356.302
810.5000	356.344
811.0000	356.331
811.5000	356.35
812.0000	356.406
812.5000	356.435
813.0000	356.487
813.5000	356.541
814.0000	356.523
814.5000	356.561
815.0000	356.631
815.5000	356.642
816.0000	356.669
816.5000	356.703
817.0000	356.804
817.5000	356.845
818.0000	356.874
818.5000	356.934
819.0000	356.927
819.5000	356.962
820.0000	356.941
820.5000	356.946
821.0000	356.917
821.5000	356.936
822.0000	357.082
822.5000	357.052
823.0000	357.12
823.5000	357.199
824.0000	357.174
824.5000	357.255
825.0000	357.263
825.5000	357.261
826.0000	357.321
826.5000	357.316
827.0000	357.359
827.5000	357.385
828.0000	357.367
828.5000	357.443
829.0000	357.471
829.5000	357.526
830.0000	357.625
830.5000	357.631
831.0000	357.661
831.5000	357.661
832.0000	357.651
832.5000	357.678
833.0000	357.684
833.5000	357.708
834.0000	357.729
834.5000	357.784
835.0000	357.779
835.5000	357.813
836.0000	357.853
836.5000	357.886
837.0000	357.992
837.5000	357.999
838.0000	357.995
838.5000	358.01
839.0000	358.003
839.5000	358.035
840.0000	358.089
840.5000	358.132
841.0000	358.202
841.5000	358.24
842.0000	358.287
842.5000	358.27
843.0000	358.282
843.5000	358.303
844.0000	358.31
844.5000	358.348
845.0000	358.347
845.5000	358.426
846.0000	358.451
846.5000	358.49
847.0000	358.525
847.5000	358.485
848.0000	358.549
848.5000	358.542
849.0000	358.568
849.5000	358.684
850.0000	358.66
850.5000	358.717
851.0000	358.743
851.5000	358.749
852.0000	358.78
852.5000	358.844
853.0000	358.878
853.5000	358.885
854.0000	358.969
854.5000	358.996
855.0000	359.035
855.5000	359.05
856.0000	359.061
856.5000	359.081
857.0000	359.082
857.5000	359.047
858.0000	359.095
858.5000	359.102
859.0000	359.143
859.5000	359.233
860.0000	359.227
860.5000	359.214
861.0000	359.227
861.5000	359.204
862.0000	359.2
862.5000	359.266
863.0000	359.346
863.5000	359.415
864.0000	359.495
864.5000	359.514
865.0000	359.506
865.5000	359.574
866.0000	359.564
866.5000	359.625
867.0000	359.618
867.5000	359.608
868.0000	359.648
868.5000	359.67
869.0000	359.703
869.5000	359.724
870.0000	359.744
870.5000	359.689
871.0000	359.76
871.5000	359.769
872.0000	359.749
872.5000	359.809
873.0000	359.783
873.5000	359.816
874.0000	359.843
874.5000	359.84
875.0000	359.888
875.5000	359.919
876.0000	359.969
876.5000	360.02
877.0000	360.013
877.5000	360.063
878.0000	360.076
878.5000	360.1
879.0000	360.111
879.5000	360.098
880.0000	360.148
880.5000	360.187
881.0000	360.247
881.5000	360.24
882.0000	360.254
882.5000	360.273
883.0000	360.281
883.5000	360.295
884.0000	360.266
884.5000	360.344
885.0000	360.376
885.5000	360.443
886.0000	360.556
886.5000	360.529
887.0000	360.531
887.5000	360.575
888.0000	360.59
888.5000	360.632
889.0000	360.691
889.5000	360.686
890.0000	360.675
890.5000	360.664
891.0000	360.74
891.5000	360.762
892.0000	360.789
892.5000	360.849
893.0000	360.816
893.5000	360.815
894.0000	360.874
894.5000	360.937
895.0000	360.925
895.5000	360.985
896.0000	360.991
896.5000	360.925
897.0000	360.941
897.5000	360.955
898.0000	361.006
898.5000	361.05
899.0000	361.089
899.5000	361.109
900.0000	361.081
900.5000	361.096
901.0000	361.105
901.5000	361.09
902.0000	361.079
902.5000	361.153
903.0000	361.227
903.5000	361.261
904.0000	361.277
904.5000	361.293
905.0000	361.297
905.5000	361.399
906.0000	361.46
906.5000	361.457
907.0000	361.515
907.5000	361.57
908.0000	361.613
908.5000	361.58
909.0000	361.537
909.5000	361.536
910.0000	361.528
910.5000	361.562
911.0000	361.642
911.5000	361.62
912.0000	361.647
912.5000	361.712
913.0000	361.699
913.5000	361.724
914.0000	361.774
914.5000	361.81
915.0000	361.826
915.5000	361.866
916.0000	361.864
916.5000	361.882
917.0000	361.96
917.5000	361.994
918.0000	361.988
918.5000	361.979
919.0000	361.954
919.5000	361.88
920.0000	361.944
920.5000	362.008
921.0000	362.033
921.5000	362.105
922.0000	362.1
922.5000	362.044
923.0000	362.093
923.5000	362.176
924.0000	362.221
924.5000	362.308
925.0000	362.355
925.5000	362.38
926.0000	362.377
926.5000	362.384
927.0000	362.344
927.5000	362.296
928.0000	362.352
928.5000	362.402
929.0000	362.442
929.5000	362.485
930.0000	362.476
930.5000	362.457
931.0000	362.484
931.5000	362.54
932.0000	362.557
932.5000	362.56
933.0000	362.565
933.5000	362.567
934.0000	362.616
934.5000	362.673
935.0000	362.729
935.5000	362.766
936.0000	362.809
936.5000	362.802
937.0000	362.805
937.5000	362.779
938.0000	362.818
938.5000	362.854
939.0000	362.894
939.5000	362.938
940.0000	362.922
940.5000	362.924
941.0000	363.01
941.5000	363.064
942.0000	363.054
942.5000	363.149
943.0000	363.086
943.5000	363.085
944.0000	363.186
944.5000	363.179
945.0000	363.26
945.5000	363.298
946.0000	363.288
946.5000	363.322
947.0000	363.317
947.5000	363.316
948.0000	363.391
948.5000	363.454
949.0000	363.499
949.5000	363.575
950.0000	363.542
950.5000	363.55
951.0000	363.524
951.5000	363.54
952.0000	363.624
952.5000	363.583
953.0000	363.67
953.5000	363.637
954.0000	363.624
954.5000	363.682
955.0000	363.64
955.5000	363.756
956.0000	363.85
956.5000	363.894
957.0000	363.884
957.5000	363.849
958.0000	363.855
958.5000	363.863
959.0000	363.958
959.5000	363.998
960.0000	363.934
960.5000	363.953
961.0000	363.999
961.5000	364.01
962.0000	364.074
962.5000	364.112
963.0000	364.119
963.5000	364.167
964.0000	364.195
964.5000	364.226
965.0000	364.167
965.5000	364.171
966.0000	364.201
966.5000	364.248
967.0000	364.339
967.5000	364.38
968.0000	364.427
968.5000	364.445
969.0000	364.479
969.5000	364.513
970.0000	364.484
970.5000	364.477
971.0000	364.47
971.5000	364.437
972.0000	364.478
972.5000	364.502
973.0000	364.536
973.5000	364.615
974.0000	364.612
974.5000	364.658
975.0000	364.751
975.5000	364.732
976.0000	364.757
976.5000	364.73
977.0000	364.679
977.5000	364.75
978.0000	364.797
978.5000	364.881
979.0000	364.919
979.5000	364.913
980.0000	364.964
980.5000	364.997
981.0000	365.031
981.5000	365.019
982.0000	364.99
982.5000	364.953
983.0000	364.958
983.5000	364.953
984.0000	364.974
984.5000	365.056
985.0000	365.06
985.5000	365.143
986.0000	365.216
986.5000	365.207
987.0000	365.269
987.5000	365.3
988.0000	365.25
988.5000	365.219
989.0000	365.215
989.5000	365.246
990.0000	365.353
990.5000	365.445
991.0000	365.437
991.5000	365.458
992.0000	365.46
992.5000	365.421
993.0000	365.475
993.5000	365.45
994.0000	365.466
994.5000	365.526
995.0000	365.58
995.5000	365.606
996.0000	365.633
996.5000	365.629
997.0000	365.593
997.5000	365.63
998.0000	365.706
998.5000	365.727
999.0000	365.73
999.5000	365.74
1000.0000	365.649
1000.5000	365.662
1001.0000	365.683
1001.5000	365.713
1002.0000	365.73
1002.5000	365.748
1003.0000	365.816
1003.5000	365.818
1004.0000	365.826
1004.5000	365.859
1005.0000	365.846
1005.5000	365.82
1006.0000	365.827
1006.5000	365.826
1007.0000	365.818
1007.5000	365.857
1008.0000	365.842
1008.5000	365.831
1009.0000	365.895
1009.5000	365.933
1010.0000	365.986
1010.5000	366.007
1011.0000	365.963
1011.5000	365.966
1012.0000	365.943
1012.5000	365.959
1013.0000	366.015
1013.5000	366.007
1014.0000	366.066
1014.5000	366.029
1015.0000	366.032
1015.5000	366.084
1016.0000	366.105
1016.5000	366.2
1017.0000	366.17
1017.5000	366.159
1018.0000	366.188
1018.5000	366.21
1019.0000	366.283
1019.5000	366.335
1020.0000	366.337
1020.5000	366.419
1021.0000	366.429
1021.5000	366.44
1022.0000	366.484
1022.5000	366.445
1023.0000	366.454
1023.5000	366.455
1024.0000	366.463
1024.5000	366.464
1025.0000	366.494
1025.5000	366.484
1026.0000	366.508
1026.5000	366.535
1027.0000	366.572
1027.5000	366.658
1028.0000	366.644
1028.5000	366.654
1029.0000	366.675
1029.5000	366.688
1030.0000	366.716
1030.5000	366.729
1031.0000	366.767
1031.5000	366.775
1032.0000	366.784
1032.5000	366.801
1033.0000	366.773
1033.5000	366.799
1034.0000	366.844
1034.5000	366.9
1035.0000	366.947
1035.5000	366.962
1036.0000	367.004
1036.5000	367.039
1037.0000	367.062
1037.5000	367.098
1038.0000	367.127
1038.5000	367.083
1039.0000	367.127
1039.5000	367.106
1040.0000	367.082
1040.5000	367.154
1041.0000	367.169
1041.5000	367.175
1042.0000	367.226
1042.5000	367.257
1043.0000	367.261
1043.5000	367.336
1044.0000	367.371
1044.5000	367.413
1045.0000	367.481
1045.5000	367.504
1046.0000	367.518
1046.5000	367.529
1047.0000	367.531
1047.5000	367.472
1048.0000	367.492
1048.5000	367.552
1049.0000	367.567
1049.5000	367.682
1050.0000	367.702
1050.5000	367.674
1051.0000	367.699
1051.5000	367.75
1052.0000	367.735
1052.5000	367.717
1053.0000	367.723
1053.5000	367.656
1054.0000	367.714
1054.5000	367.801
1055.0000	367.848
1055.5000	367.946
1056.0000	367.948
1056.5000	367.914
1057.0000	367.873
1057.5000	367.92
1058.0000	367.916
1058.5000	367.9
1059.0000	367.976
1059.5000	367.937
1060.0000	367.995
1060.5000	368.058
1061.0000	368.066
1061.5000	368.132
1062.0000	368.194
1062.5000	368.212
1063.0000	368.23
1063.5000	368.184
1064.0000	368.152
1064.5000	368.169
1065.0000	368.159
1065.5000	368.169
1066.0000	368.222
1066.5000	368.285
1067.0000	368.285
1067.5000	368.284
1068.0000	368.313
1068.5000	368.319
1069.0000	368.344
1069.5000	368.379
1070.0000	368.397
1070.5000	368.388
1071.0000	368.42
1071.5000	368.442
1072.0000	368.472
1072.5000	368.517
1073.0000	368.529
1073.5000	368.56
1074.0000	368.512
1074.5000	368.533
1075.0000	368.562
1075.5000	368.577
1076.0000	368.684
1076.5000	368.679
1077.0000	368.69
1077.5000	368.752
1078.0000	368.708
1078.5000	368.71
1079.0000	368.772
1079.5000	368.729
1080.0000	368.762
1080.5000	368.852
1081.0000	368.827
1081.5000	368.846
1082.0000	368.863
1082.5000	368.849
1083.0000	368.902
1083.5000	368.89
1084.0000	368.928
1084.5000	368.93
1085.0000	368.921
1085.5000	368.979
1086.0000	368.958
1086.5000	369.007
1087.0000	369.05
1087.5000	369.094
1088.0000	369.165
1088.5000	369.163
1089.0000	369.154
1089.5000	369.14
1090.0000	369.092
1090.5000	369.14
1091.0000	369.164
1091.5000	369.155
1092.0000	369.155
1092.5000	369.172
1093.0000	369.118
1093.5000	369.199
1094.0000	369.237
1094.5000	369.216
1095.0000	369.311
1095.5000	369.355
1096.0000	369.391
1096.5000	369.377
1097.0000	369.38
1097.5000	369.413
1098.0000	369.365
1098.5000	369.367
1099.0000	369.42
1099.5000	369.414
1100.0000	369.453
1100.5000	369.509
1101.0000	369.47
1101.5000	369.465
1102.0000	369.515
1102.5000	369.502
1103.0000	369.553
1103.5000	369.562
1104.0000	369.593
1104.5000	369.605
1105.0000	369.587
1105.5000	369.611
1106.0000	369.601
1106.5000	369.631
1107.0000	369.63
1107.5000	369.609
1108.0000	369.597
1108.5000	369.618
1109.0000	369.613
1109.5000	369.574
1110.0000	369.608
1110.5000	369.629
1111.0000	369.683
1111.5000	369.781
1112.0000	369.753
1112.5000	369.774
1113.0000	369.808
1113.5000	369.746
1114.0000	369.793
1114.5000	369.789
1115.0000	369.762
1115.5000	369.802
1116.0000	369.833
1116.5000	369.839
1117.0000	369.917
1117.5000	369.956
1118.0000	369.964
1118.5000	369.971
1119.0000	369.927
1119.5000	369.953
1120.0000	369.932
1120.5000	369.937
1121.0000	369.947
1121.5000	369.966
1122.0000	370.006
1122.5000	369.994
1123.0000	370.038
1123.5000	370.075
1124.0000	370.123
1124.5000	370.186
1125.0000	370.173
1125.5000	370.132
1126.0000	370.1
1126.5000	370.116
1127.0000	370.13
1127.5000	370.145
1128.0000	370.18
1128.5000	370.176
1129.0000	370.164
1129.5000	370.221
1130.0000	370.27
1130.5000	370.271
1131.0000	370.262
1131.5000	370.184
1132.0000	370.12
1132.5000	370.135
1133.0000	370.203
1133.5000	370.25
1134.0000	370.318
1134.5000	370.377
1135.0000	370.391
1135.5000	370.404
1136.0000	370.342
1136.5000	370.288
1137.0000	370.254
1137.5000	370.293
1138.0000	370.335
1138.5000	370.324
1139.0000	370.354
1139.5000	370.395
1140.0000	370.41
1140.5000	370.447
1141.0000	370.467
1141.5000	370.409
1142.0000	370.425
1142.5000	370.445
1143.0000	370.432
1143.5000	370.453
1144.0000	370.47
1144.5000	370.527
1145.0000	370.559
1145.5000	370.603
1146.0000	370.637
1146.5000	370.574
1147.0000	370.591
1147.5000	370.552
1148.0000	370.545
1148.5000	370.594
1149.0000	370.596
1149.5000	370.645
1150.0000	370.64
1150.5000	370.603
1151.0000	370.626
1151.5000	370.645
1152.0000	370.614
1152.5000	370.705
1153.0000	370.727
1153.5000	370.747
1154.0000	370.824
1154.5000	370.805
1155.0000	370.801
1155.5000	370.821
1156.0000	370.801
1156.5000	370.823
1157.0000	370.893
1157.5000	370.86
1158.0000	370.869
1158.5000	370.901
1159.0000	370.896
1159.5000	370.876
1160.0000	370.928
1160.5000	370.902
1161.0000	370.914
1161.5000	370.962
1162.0000	370.963
1162.5000	371.034
1163.0000	371.031
1163.5000	371.036
1164.0000	371.063
1164.5000	370.989
1165.0000	370.976
1165.5000	371.009
1166.0000	370.968
1166.5000	371.059
1167.0000	371.049
1167.5000	371.102
1168.0000	371.124
1168.5000	371.137
1169.0000	371.161
1169.5000	371.133
1170.0000	371.213
1170.5000	371.185
1171.0000	371.216
1171.5000	371.186
1172.0000	371.094
1172.5000	371.101
1173.0000	371.126
1173.5000	371.172
1174.0000	371.211
1174.5000	371.265
1175.0000	371.221
1175.5000	371.24
1176.0000	371.245
1176.5000	371.288
1177.0000	371.367
1177.5000	371.389
1178.0000	371.45
1178.5000	371.408
1179.0000	371.41
1179.5000	371.385
1180.0000	371.407
1180.5000	371.405
1181.0000	371.389
1181.5000	371.477
1182.0000	371.487
1182.5000	371.52
1183.0000	371.555
1183.5000	371.525
1184.0000	371.537
1184.5000	371.518
1185.0000	371.47
1185.5000	371.487
1186.0000	371.513
1186.5000	371.567
1187.0000	371.653
1187.5000	371.619
1188.0000	371.582
1188.5000	371.538
1189.0000	371.483
1189.5000	371.513
1190.0000	371.577
1190.5000	371.601
1191.0000	371.622
1191.5000	371.66
1192.0000	371.595
1192.5000	371.631
1193.0000	371.705
1193.5000	371.739
1194.0000	371.826
1194.5000	371.857
1195.0000	371.875
1195.5000	371.861
1196.0000	371.871
1196.5000	371.865
1197.0000	371.851
1197.5000	371.856
1198.0000	371.859
1198.5000	371.849
1199.0000	371.882
1199.5000	371.891
1200.0000	371.894
1200.5000	371.951
1201.0000	371.916
1201.5000	372.008
1202.0000	372.028
1202.5000	372.017
1203.0000	372.061
1203.5000	372.035
1204.0000	372.033
1204.5000	372.069
1205.0000	372.105
1205.5000	372.098
1206.0000	372.173
1206.5000	372.181
1207.0000	372.149
1207.5000	372.166
1208.0000	372.126
1208.5000	372.117
1209.0000	372.166
1209.5000	372.17
1210.0000	372.191
1210.5000	372.238
1211.0000	372.223
1211.5000	372.296
1212.0000	372.245
1212.5000	372.287
1213.0000	372.283
1213.5000	372.243
1214.0000	372.306
1214.5000	372.312
1215.0000	372.342
1215.5000	372.377
1216.0000	372.371
1216.5000	372.37
1217.0000	372.406
1217.5000	372.366
1218.0000	372.412
1218.5000	372.404
1219.0000	372.477
1219.5000	372.468
1220.0000	372.469
1220.5000	372.481
1221.0000	372.459
1221.5000	372.554
1222.0000	372.501
1222.5000	372.503
1223.0000	372.509
1223.5000	372.465
1224.0000	372.544
1224.5000	372.587
1225.0000	372.551
1225.5000	372.548
1226.0000	372.555
1226.5000	372.509
1227.0000	372.553
1227.5000	372.601
1228.0000	372.619
1228.5000	372.656
1229.0000	372.671
1229.5000	372.683
1230.0000	372.677
1230.5000	372.686
1231.0000	372.721
1231.5000	372.728
1232.0000	372.787
1232.5000	372.75
1233.0000	372.699
1233.5000	372.745
1234.0000	372.726
1234.5000	372.846
1235.0000	372.928
1235.5000	372.899
1236.0000	372.861
1236.5000	372.816
1237.0000	372.747
1237.5000	372.712
1238.0000	372.759
1238.5000	372.778
1239.0000	372.839
1239.5000	372.878
1240.0000	372.868
1240.5000	372.915
1241.0000	372.922
1241.5000	373.039
1242.0000	373.122
1242.5000	373.145
1243.0000	373.117
1243.5000	373.079
1244.0000	373.096
1244.5000	373.021
1245.0000	373.027
1245.5000	373.028
1246.0000	372.987
1246.5000	373.004
1247.0000	373.023
1247.5000	373.042
1248.0000	373.054
1248.5000	373.094
1249.0000	373.114
1249.5000	373.128
1250.0000	373.138
1250.5000	373.187
1251.0000	373.222
1251.5000	373.193
1252.0000	373.259
1252.5000	373.199
1253.0000	373.206
1253.5000	373.229
1254.0000	373.194
1254.5000	373.23
1255.0000	373.268
1255.5000	373.214
1256.0000	373.247
1256.5000	373.245
1257.0000	373.185
1257.5000	373.257
1258.0000	373.249
1258.5000	373.277
1259.0000	373.319
1259.5000	373.383
1260.0000	373.437
1260.5000	373.445
1261.0000	373.402
1261.5000	373.357
1262.0000	373.318
1262.5000	373.347
1263.0000	373.414
1263.5000	373.407
1264.0000	373.404
1264.5000	373.403
1265.0000	373.408
1265.5000	373.458
1266.0000	373.525
1266.5000	373.54
1267.0000	373.544
1267.5000	373.561
1268.0000	373.485
1268.5000	373.495
1269.0000	373.558
1269.5000	373.534
1270.0000	373.553
1270.5000	373.559
1271.0000	373.453
1271.5000	373.399
1272.0000	373.424
1272.5000	373.435
1273.0000	373.491
1273.5000	373.579
1274.0000	373.634
1274.5000	373.632
1275.0000	373.678
1275.5000	373.697
1276.0000	373.666
1276.5000	373.686
1277.0000	373.68
1277.5000	373.692
1278.0000	373.745
1278.5000	373.755
1279.0000	373.779
1279.5000	373.753
1280.0000	373.754
1280.5000	373.804
1281.0000	373.849
1281.5000	373.87
1282.0000	373.871
1282.5000	373.818
1283.0000	373.757
1283.5000	373.757
1284.0000	373.756
1284.5000	373.75
1285.0000	373.756
1285.5000	373.816
1286.0000	373.856
1286.5000	373.913
1287.0000	373.969
1287.5000	373.967
1288.0000	373.99
1288.5000	374.023
1289.0000	373.997
1289.5000	373.983
1290.0000	373.962
1290.5000	373.933
1291.0000	373.938
1291.5000	373.906
1292.0000	373.896
1292.5000	373.958
1293.0000	374.021
1293.5000	374.125
1294.0000	374.098
1294.5000	374.068
1295.0000	374.067
1295.5000	374.032
1296.0000	374.153
1296.5000	374.148
1297.0000	374.155
1297.5000	374.236
1298.0000	374.18
1298.5000	374.2
1299.0000	374.174
1299.5000	374.063
1300.0000	374.048
1300.5000	374.013
1301.0000	374.076
1301.5000	374.158
1302.0000	374.214
1302.5000	374.196
1303.0000	374.163
1303.5000	374.147
1304.0000	374.116
1304.5000	374.219
1305.0000	374.264
1305.5000	374.296
1306.0000	374.294
1306.5000	374.263
1307.0000	374.269
1307.5000	374.272
1308.0000	374.303
1308.5000	374.273
1309.0000	374.251
1309.5000	374.257
1310.0000	374.325
1310.5000	374.387
1311.0000	374.388
1311.5000	374.385
1312.0000	374.346
1312.5000	374.316
1313.0000	374.358
1313.5000	374.274
1314.0000	374.306
1314.5000	374.397
1315.0000	374.419
1315.5000	374.52
1316.0000	374.482
1316.5000	374.437
1317.0000	374.408
1317.5000	374.402
1318.0000	374.403
1318.5000	374.424
1319.0000	374.417
1319.5000	374.462
1320.0000	374.525
1320.5000	374.49
1321.0000	374.489
1321.5000	374.482
1322.0000	374.436
1322.5000	374.456
1323.0000	374.493
1323.5000	374.498
1324.0000	374.505
1324.5000	374.567
1325.0000	374.557
1325.5000	374.551
1326.0000	374.54
1326.5000	374.452
1327.0000	374.472
1327.5000	374.486
1328.0000	374.522
1328.5000	374.591
1329.0000	374.573
1329.5000	374.56
1330.0000	374.553
1330.5000	374.522
1331.0000	374.583
1331.5000	374.609
1332.0000	374.602
1332.5000	374.613
1333.0000	374.586
1333.5000	374.59
1334.0000	374.608
1334.5000	374.668
1335.0000	374.7
1335.5000	374.67
1336.0000	374.668
1336.5000	374.612
1337.0000	374.611
1337.5000	374.608
1338.0000	374.575
1338.5000	374.623
1339.0000	374.636
1339.5000	374.684
1340.0000	374.725
1340.5000	374.636
1341.0000	374.625
1341.5000	374.583
1342.0000	374.533
1342.5000	374.579
1343.0000	374.556
1343.5000	374.592
1344.0000	374.673
1344.5000	374.733
1345.0000	374.694
1345.5000	374.74
1346.0000	374.723
1346.5000	374.689
1347.0000	374.779
1347.5000	374.739
1348.0000	374.753
1348.5000	374.765
1349.0000	374.712
1349.5000	374.739
1350.0000	374.728
1350.5000	374.7
1351.0000	374.761
1351.5000	374.771
1352.0000	374.77
1352.5000	374.774
1353.0000	374.76
1353.5000	374.685
1354.0000	374.675
1354.5000	374.709
1355.0000	374.728
1355.5000	374.727
1356.0000	374.768
1356.5000	374.785
1357.0000	374.737
1357.5000	374.796
1358.0000	374.792
1358.5000	374.798
1359.0000	374.858
1359.5000	374.884
1360.0000	374.94
1360.5000	374.963
1361.0000	374.927
1361.5000	374.916
1362.0000	374.867
1362.5000	374.848
1363.0000	374.876
1363.5000	374.9
1364.0000	374.944
1364.5000	374.974
1365.0000	374.947
1365.5000	374.956
1366.0000	375.01
1366.5000	374.999
1367.0000	375.047
1367.5000	375.043
1368.0000	374.959
1368.5000	375.005
1369.0000	375.082
1369.5000	375.085
1370.0000	375.14
1370.5000	375.115
1371.0000	375.065
1371.5000	375.079
1372.0000	375.066
1372.5000	375.047
1373.0000	375.047
1373.5000	375.07
1374.0000	375.058
1374.5000	375.045
1375.0000	375.041
1375.5000	375.007
1376.0000	375.019
1376.5000	375.117
1377.0000	375.117
1377.5000	375.116
1378.0000	375.144
1378.5000	375.101
1379.0000	375.09
1379.5000	375.101
1380.0000	375.169
1380.5000	375.157
1381.0000	375.166
1381.5000	375.215
1382.0000	375.168
1382.5000	375.212
1383.0000	375.194
1383.5000	375.186
1384.0000	375.148
1384.5000	375.08
1385.0000	375.134
1385.5000	375.129
1386.0000	375.146
1386.5000	375.203
1387.0000	375.2
1387.5000	375.231
1388.0000	375.278
1388.5000	375.267
1389.0000	375.308
1389.5000	375.277
1390.0000	375.272
1390.5000	375.304
1391.0000	375.321
1391.5000	375.384
1392.0000	375.304
1392.5000	375.3
1393.0000	375.284
1393.5000	375.25
1394.0000	375.3
1394.5000	375.295
1395.0000	375.282
1395.5000	375.26
1396.0000	375.351
1396.5000	375.37
1397.0000	375.393
1397.5000	375.439
1398.0000	375.382
1398.5000	375.458
1399.0000	375.492
1399.5000	375.439
1400.0000	375.459
1400.5000	375.401
1401.0000	375.4
1401.5000	375.393
1402.0000	375.368
1402.5000	375.351
1403.0000	375.396
1403.5000	375.48
1404.0000	375.546
1404.5000	375.568
1405.0000	375.518
1405.5000	375.54
1406.0000	375.554
1406.5000	375.56
1407.0000	375.568
1407.5000	375.564
1408.0000	375.551
1408.5000	375.495
1409.0000	375.512
1409.5000	375.617
1410.0000	375.599
1410.5000	375.68
1411.0000	375.668
1411.5000	375.504
1412.0000	375.472
1412.5000	375.444
1413.0000	375.408
1413.5000	375.409
1414.0000	375.479
1414.5000	375.53
1415.0000	375.597
1415.5000	375.65
1416.0000	375.641
1416.5000	375.646
1417.0000	375.679
1417.5000	375.677
1418.0000	375.667
1418.5000	375.673
1419.0000	375.658
1419.5000	375.665
1420.0000	375.724
1420.5000	375.693
1421.0000	375.698
1421.5000	375.735
1422.0000	375.718
1422.5000	375.752
1423.0000	375.754
1423.5000	375.769
1424.0000	375.761
1424.5000	375.733
1425.0000	375.781
1425.5000	375.719
1426.0000	375.751
1426.5000	375.806
1427.0000	375.803
1427.5000	375.819
1428.0000	375.839
1428.5000	375.83
1429.0000	375.785
1429.5000	375.783
1430.0000	375.731
1430.5000	375.704
1431.0000	375.695
1431.5000	375.741
1432.0000	375.817
1432.5000	375.865
1433.0000	375.871
1433.5000	375.84
1434.0000	375.809
1434.5000	375.789
1435.0000	375.765
1435.5000	375.791
1436.0000	375.764
1436.5000	375.806
1437.0000	375.835
1437.5000	375.849
1438.0000	375.92
1438.5000	375.895
1439.0000	375.901
1439.5000	375.879
1440.0000	375.895
1440.5000	375.923
1441.0000	375.946
1441.5000	375.989
1442.0000	375.904
1442.5000	375.912
1443.0000	375.888
1443.5000	375.857
1444.0000	375.91
1444.5000	375.893
1445.0000	375.881
1445.5000	375.932
1446.0000	375.897
1446.5000	375.844
1447.0000	375.973
1447.5000	376.01
1448.0000	376.04
1448.5000	376.082
1449.0000	376.003
1449.5000	375.983
1450.0000	375.948
1450.5000	376.004
1451.0000	375.992
1451.5000	375.982
1452.0000	376.04
1452.5000	375.986
1453.0000	376.038
1453.5000	376.065
1454.0000	375.984
1454.5000	375.999
1455.0000	376.014
1455.5000	375.987
1456.0000	376.052
1456.5000	376.083
1457.0000	376.023
1457.5000	376.043
1458.0000	376.018
1458.5000	375.971
1459.0000	375.998
1459.5000	375.974
1460.0000	376.049
1460.5000	376.03
1461.0000	376.008
1461.5000	376.012
1462.0000	375.989
1462.5000	376.004
1463.0000	376.046
1463.5000	376.081
1464.0000	376.076
1464.5000	376.101
1465.0000	376.074
1465.5000	376.031
1466.0000	376.06
1466.5000	376.086
1467.0000	376.134
1467.5000	376.147
1468.0000	376.134
1468.5000	376.153
1469.0000	376.218
1469.5000	376.229
1470.0000	376.202
1470.5000	376.178
1471.0000	376.088
1471.5000	376.09
1472.0000	376.11
1472.5000	376.114
1473.0000	376.198
1473.5000	376.237
1474.0000	376.281
1474.5000	376.291
1475.0000	376.193
1475.5000	376.187
1476.0000	376.162
1476.5000	376.201
1477.0000	376.26
1477.5000	376.281
1478.0000	376.249
1478.5000	376.231
1479.0000	376.197
1479.5000	376.131
1480.0000	376.212
1480.5000	376.184
1481.0000	376.215
1481.5000	376.292
1482.0000	376.329
1482.5000	376.302
1483.0000	376.322
1483.5000	376.301
1484.0000	376.284
1484.5000	376.375
1485.0000	376.313
1485.5000	376.275
1486.0000	376.323
1486.5000	376.332
1487.0000	376.332
1487.5000	376.412
1488.0000	376.374
1488.5000	376.39
1489.0000	376.501
1489.5000	376.533
1490.0000	376.492
1490.5000	376.471
1491.0000	376.422
1491.5000	376.385
1492.0000	376.429
1492.5000	376.449
1493.0000	376.392
1493.5000	376.355
1494.0000	376.34
1494.5000	376.314
1495.0000	376.343
1495.5000	376.421
1496.0000	376.43
1496.5000	376.432
1497.0000	376.439
1497.5000	376.376
1498.0000	376.439
1498.5000	376.44
1499.0000	376.489
1499.5000	376.582
1500.0000	376.537
1500.5000	376.521
1501.0000	376.514
1501.5000	376.517
1502.0000	376.52
1502.5000	376.561
1503.0000	376.545
1503.5000	376.5
1504.0000	376.502
1504.5000	376.53
1505.0000	376.599
1505.5000	376.621
1506.0000	376.641
1506.5000	376.645
1507.0000	376.644
1507.5000	376.598
1508.0000	376.573
1508.5000	376.58
1509.0000	376.562
1509.5000	376.58
1510.0000	376.613
1510.5000	376.601
1511.0000	376.617
1511.5000	376.657
1512.0000	376.661
1512.5000	376.68
1513.0000	376.698
1513.5000	376.749
1514.0000	376.698
1514.5000	376.702
1515.0000	376.7
1515.5000	376.631
1516.0000	376.71
1516.5000	376.742
1517.0000	376.742
1517.5000	376.811
1518.0000	376.801
1518.5000	376.803
1519.0000	376.797
1519.5000	376.792
1520.0000	376.851
1520.5000	376.863
1521.0000	376.894
1521.5000	376.884
1522.0000	376.863
1522.5000	376.785
1523.0000	376.769
1523.5000	376.773
1524.0000	376.717
1524.5000	376.756
1525.0000	376.767
1525.5000	376.789
1526.0000	376.817
1526.5000	376.841
1527.0000	376.885
1527.5000	376.817
1528.0000	376.824
1528.5000	376.861
1529.0000	376.851
1529.5000	376.853
1530.0000	376.875
1530.5000	376.808
1531.0000	376.764
1531.5000	376.772
1532.0000	376.738
1532.5000	376.794
1533.0000	376.854
1533.5000	376.962
1534.0000	376.995
1534.5000	376.985
1535.0000	377.018
1535.5000	376.999
1536.0000	377.028
1536.5000	377.059
1537.0000	377.007
1537.5000	377.004
1538.0000	376.959
1538.5000	376.9
1539.0000	376.946
1539.5000	376.909
1540.0000	376.936
1540.5000	376.993
1541.0000	376.951
1541.5000	376.997
1542.0000	376.992
1542.5000	376.952
1543.0000	376.931
1543.5000	376.913
1544.0000	376.91
1544.5000	376.939
1545.0000	377.01
1545.5000	377.018
1546.0000	377.037
1546.5000	377.063
1547.0000	377.001
1547.5000	376.986
1548.0000	376.986
1548.5000	377.019
1549.0000	377.076
1549.5000	377.062
1550.0000	377
1550.5000	376.931
1551.0000	376.892
1551.5000	376.915
1552.0000	376.961
1552.5000	376.95
1553.0000	376.966
1553.5000	376.921
1554.0000	376.989
1554.5000	376.976
1555.0000	376.905
1555.5000	376.937
1556.0000	376.831
1556.5000	376.886
1557.0000	376.917
1557.5000	376.936
1558.0000	376.947
1558.5000	376.969
1559.0000	377.01
1559.5000	376.975
1560.0000	377.018
1560.5000	376.972
1561.0000	376.954
1561.5000	376.959
1562.0000	376.968
1562.5000	377.01
1563.0000	376.986
1563.5000	377.006
1564.0000	377.004
1564.5000	376.993
1565.0000	377.024
1565.5000	377.069
1566.0000	377.076
1566.5000	377.095
1567.0000	377.088
1567.5000	377.083
1568.0000	377.069
1568.5000	377.055
1569.0000	377.019
1569.5000	376.999
1570.0000	376.978
1570.5000	377.013
1571.0000	377.046
1571.5000	377.01
1572.0000	377.043
1572.5000	376.989
1573.0000	377.004
1573.5000	377.061
1574.0000	377.077
1574.5000	377.073
1575.0000	377.033
1575.5000	376.998
1576.0000	376.952
1576.5000	376.969
1577.0000	377.007
1577.5000	377.05
1578.0000	377.031
1578.5000	377.003
1579.0000	377.007
1579.5000	377.005
1580.0000	377.079
1580.5000	377.105
1581.0000	377.118
1581.5000	377.106
1582.0000	377.125
1582.5000	377.169
1583.0000	377.136
1583.5000	377.124
1584.0000	377.124
1584.5000	377.107
1585.0000	377.101
1585.5000	377.133
1586.0000	377.102
1586.5000	377.108
1587.0000	377.17
1587.5000	377.145
1588.0000	377.119
1588.5000	377.11
1589.0000	377.117
1589.5000	377.142
1590.0000	377.178
1590.5000	377.206
1591.0000	377.239
1591.5000	377.215
1592.0000	377.203
1592.5000	377.171
1593.0000	377.176
1593.5000	377.21
1594.0000	377.264
1594.5000	377.284
1595.0000	377.256
1595.5000	377.23
1596.0000	377.26
1596.5000	377.25
1597.0000	377.223
1597.5000	377.208
1598.0000	377.151
1598.5000	377.17
1599.0000	377.173
1599.5000	377.235
1600.0000	377.25
1600.5000	377.247
1601.0000	377.276
1601.5000	377.277
1602.0000	377.27
1602.5000	377.281
1603.0000	377.296
1603.5000	377.328
1604.0000	377.319
1604.5000	377.324
1605.0000	377.277
1605.5000	377.215
1606.0000	377.263
1606.5000	377.276
1607.0000	377.288
1607.5000	377.361
1608.0000	377.349
1608.5000	377.342
1609.0000	377.445
1609.5000	377.491
1610.0000	377.444
1610.5000	377.443
1611.0000	377.385
1611.5000	377.26
1612.0000	377.312
1612.5000	377.364
1613.0000	377.391
1613.5000	377.444
1614.0000	377.485
1614.5000	377.444
1615.0000	377.433
1615.5000	377.443
1616.0000	377.445
1616.5000	377.428
1617.0000	377.473
1617.5000	377.443
1618.0000	377.443
1618.5000	377.5
1619.0000	377.48
1619.5000	377.479
1620.0000	377.505
1620.5000	377.496
1621.0000	377.472
1621.5000	377.507
1622.0000	377.45
1622.5000	377.49
1623.0000	377.473
1623.5000	377.514
1624.0000	377.477
1624.5000	377.483
1625.0000	377.524
1625.5000	377.466
1626.0000	377.546
1626.5000	377.559
1627.0000	377.547
1627.5000	377.592
1628.0000	377.572
1628.5000	377.572
1629.0000	377.613
1629.5000	377.63
1630.0000	377.617
1630.5000	377.612
1631.0000	377.607
1631.5000	377.603
1632.0000	377.692
1632.5000	377.683
1633.0000	377.678
1633.5000	377.603
1634.0000	377.544
1634.5000	377.5
1635.0000	377.485
1635.5000	377.568
1636.0000	377.554
1636.5000	377.581
1637.0000	377.602
1637.5000	377.594
1638.0000	377.64
1638.5000	377.674
1639.0000	377.678
1639.5000	377.661
1640.0000	377.674
1640.5000	377.651
1641.0000	377.694
1641.5000	377.718
1642.0000	377.708
1642.5000	377.751
1643.0000	377.745
1643.5000	377.785
1644.0000	377.761
1644.5000	377.751
1645.0000	377.754
1645.5000	377.706
1646.0000	377.673
1646.5000	377.692
1647.0000	377.687
1647.5000	377.722
1648.0000	377.761
1648.5000	377.742
1649.0000	377.765
1649.5000	377.752
1650.0000	377.788
1650.5000	377.767
1651.0000	377.706
1651.5000	377.691
1652.0000	377.663
1652.5000	377.587
1653.0000	377.634
1653.5000	377.685
1654.0000	377.706
1654.5000	377.786
1655.0000	377.809
1655.5000	377.747
1656.0000	377.752
1656.5000	377.754
1657.0000	377.77
1657.5000	377.789
1658.0000	377.811
1658.5000	377.869
1659.0000	377.786
1659.5000	377.827
1660.0000	377.799
1660.5000	377.822
1661.0000	377.842
1661.5000	377.855
1662.0000	377.847
1662.5000	377.744
1663.0000	377.693
1663.5000	377.66
1664.0000	377.676
1664.5000	377.69
1665.0000	377.776
1665.5000	377.79
1666.0000	377.792
1666.5000	377.799
1667.0000	377.848
1667.5000	377.85
1668.0000	377.843
1668.5000	377.887
1669.0000	377.807
1669.5000	377.808
1670.0000	377.842
1670.5000	377.885
1671.0000	377.905
1671.5000	377.905
1672.0000	377.835
1672.5000	377.79
1673.0000	377.858
1673.5000	377.874
1674.0000	377.936
1674.5000	377.905
1675.0000	377.817
1675.5000	377.839
1676.0000	377.84
1676.5000	377.901
1677.0000	377.937
1677.5000	377.911
1678.0000	377.929
1678.5000	377.866
1679.0000	377.826
1679.5000	377.842
1680.0000	377.787
1680.5000	377.816
1681.0000	377.799
1681.5000	377.78
1682.0000	377.832
1682.5000	377.819
1683.0000	377.912
1683.5000	377.894
1684.0000	377.857
1684.5000	377.864
1685.0000	377.847
1685.5000	377.844
1686.0000	377.876
1686.5000	377.93
1687.0000	377.938
1687.5000	377.984
1688.0000	377.972
1688.5000	377.975
1689.0000	377.904
1689.5000	377.887
1690.0000	377.87
1690.5000	377.812
1691.0000	377.896
1691.5000	377.908
1692.0000	377.972
1692.5000	377.992
1693.0000	377.926
1693.5000	377.928
1694.0000	377.864
1694.5000	377.89
1695.0000	377.977
1695.5000	377.997
1696.0000	378.062
1696.5000	378.064
1697.0000	378.035
1697.5000	378.023
1698.0000	377.952
1698.5000	377.865
1699.0000	377.836
1699.5000	377.848
1700.0000	377.898
1700.5000	377.944
1701.0000	377.992
1701.5000	378.018
1702.0000	378.022
1702.5000	378.087
1703.0000	378.104
1703.5000	378.068
1704.0000	378.067
1704.5000	378.015
1705.0000	377.94
1705.5000	377.926
1706.0000	377.928
1706.5000	377.964
1707.0000	377.96
1707.5000	377.966
1708.0000	377.934
1708.5000	377.868
1709.0000	377.945
1709.5000	377.976
1710.0000	377.999
1710.5000	378.047
1711.0000	377.992
1711.5000	377.939
1712.0000	377.896
1712.5000	377.921
1713.0000	377.935
1713.5000	377.94
1714.0000	377.96
1714.5000	377.92
1715.0000	377.926
1715.5000	377.973
1716.0000	377.96
1716.5000	377.987
1717.0000	377.983
1717.5000	377.934
1718.0000	377.971
1718.5000	377.944
1719.0000	377.906
1719.5000	377.989
1720.0000	377.978
1720.5000	378.001
1721.0000	378.023
1721.5000	377.954
1722.0000	377.957
1722.5000	377.928
1723.0000	377.972
1723.5000	377.999
1724.0000	378.022
1724.5000	378.001
1725.0000	377.966
1725.5000	377.902
1726.0000	377.927
1726.5000	377.977
1727.0000	377.984
1727.5000	378.067
1728.0000	378.018
1728.5000	377.989
1729.0000	377.978
1729.5000	377.983
1730.0000	378.001
1730.5000	378.046
1731.0000	378.092
1731.5000	378.042
1732.0000	377.998
1732.5000	377.962
1733.0000	377.919
1733.5000	377.937
1734.0000	378.034
1734.5000	378.003
1735.0000	378.036
1735.5000	378.078
1736.0000	377.949
1736.5000	377.96
1737.0000	377.923
1737.5000	377.894
1738.0000	377.962
1738.5000	377.994
1739.0000	378.003
1739.5000	377.992
1740.0000	377.96
1740.5000	377.961
1741.0000	377.949
1741.5000	377.937
1742.0000	377.947
1742.5000	377.982
1743.0000	377.988
1743.5000	377.951
1744.0000	377.97
1744.5000	377.894
1745.0000	377.879
1745.5000	377.855
1746.0000	377.875
1746.5000	377.889
1747.0000	377.912
1747.5000	377.922
1748.0000	377.907
1748.5000	377.929
1749.0000	377.897
1749.5000	377.935
1750.0000	377.908
1750.5000	377.892
1751.0000	377.929
1751.5000	377.937
1752.0000	377.945
1752.5000	377.931
1753.0000	377.905
1753.5000	377.881
1754.0000	377.837
1754.5000	377.889
1755.0000	377.876
1755.5000	377.92
1756.0000	377.963
1756.5000	377.9
1757.0000	377.861
1757.5000	377.816
1758.0000	377.786
1758.5000	377.802
1759.0000	377.835
1759.5000	377.815
1760.0000	377.879
1760.5000	377.932
1761.0000	377.936
1761.5000	377.946
1762.0000	377.904
1762.5000	377.833
1763.0000	377.837
1763.5000	377.862
1764.0000	377.864
1764.5000	377.847
1765.0000	377.843
1765.5000	377.786
1766.0000	377.786
1766.5000	377.802
1767.0000	377.8
1767.5000	377.86
1768.0000	377.871
1768.5000	377.858
1769.0000	377.857
1769.5000	377.813
1770.0000	377.796
1770.5000	377.844
1771.0000	377.803
1771.5000	377.802
1772.0000	377.771
1772.5000	377.755
1773.0000	377.753
1773.5000	377.741
1774.0000	377.733
1774.5000	377.663
1775.0000	377.694
1775.5000	377.711
1776.0000	377.741
1776.5000	377.821
1777.0000	377.833
1777.5000	377.836
1778.0000	377.841
1778.5000	377.836
1779.0000	377.751
1779.5000	377.742
1780.0000	377.703
1780.5000	377.644
1781.0000	377.676
1781.5000	377.677
1782.0000	377.665
1782.5000	377.654
1783.0000	377.637
1783.5000	377.631
1784.0000	377.644
1784.5000	377.658
1785.0000	377.71
1785.5000	377.719
1786.0000	377.748
1786.5000	377.797
1787.0000	377.804
1787.5000	377.796
1788.0000	377.79
1788.5000	377.781
1789.0000	377.765
1789.5000	377.783
1790.0000	377.733
1790.5000	377.779
1791.0000	377.748
1791.5000	377.679
1792.0000	377.682
1792.5000	377.623
1793.0000	377.62
1793.5000	377.703
1794.0000	377.75
1794.5000	377.67
1795.0000	377.662
1795.5000	377.603
1796.0000	377.548
1796.5000	377.607
1797.0000	377.603
1797.5000	377.622
1798.0000	377.642
1798.5000	377.659
1799.0000	377.659
1799.5000	377.659
1800.0000	377.648
1800.5000	377.591
1801.0000	377.625
1801.5000	377.61
1802.0000	377.595
1802.5000	377.598
1803.0000	377.605
1803.5000	377.581
1804.0000	377.566
1804.5000	377.649
1805.0000	377.619
1805.5000	377.627
1806.0000	377.711
1806.5000	377.606
1807.0000	377.655
1807.5000	377.656
1808.0000	377.637
1808.5000	377.689
1809.0000	377.615
1809.5000	377.618
1810.0000	377.569
1810.5000	377.587
1811.0000	377.628
1811.5000	377.554
1812.0000	377.583
1812.5000	377.594
1813.0000	377.502
1813.5000	377.526
1814.0000	377.504
1814.5000	377.474
1815.0000	377.58
1815.5000	377.58
1816.0000	377.588
1816.5000	377.601
1817.0000	377.555
1817.5000	377.578
1818.0000	377.561
1818.5000	377.558
1819.0000	377.562
1819.5000	377.553
1820.0000	377.552
1820.5000	377.49
1821.0000	377.457
1821.5000	377.502
1822.0000	377.488
1822.5000	377.485
1823.0000	377.544
1823.5000	377.521
1824.0000	377.547
1824.5000	377.541
1825.0000	377.53
1825.5000	377.51
1826.0000	377.483
1826.5000	377.532
1827.0000	377.559
1827.5000	377.512
1828.0000	377.464
1828.5000	377.463
1829.0000	377.428
1829.5000	377.465
1830.0000	377.48
1830.5000	377.416
1831.0000	377.389
1831.5000	377.394
1832.0000	377.392
1832.5000	377.394
1833.0000	377.358
1833.5000	377.327
1834.0000	377.35
1834.5000	377.342
1835.0000	377.301
1835.5000	377.313
1836.0000	377.353
1836.5000	377.357
1837.0000	377.443
1837.5000	377.446
1838.0000	377.358
1838.5000	377.369
1839.0000	377.38
1839.5000	377.419
1840.0000	377.482
1840.5000	377.428
1841.0000	377.403
1841.5000	377.37
1842.0000	377.332
1842.5000	377.444
1843.0000	377.428
1843.5000	377.413
1844.0000	377.371
1844.5000	377.253
1845.0000	377.282
1845.5000	377.221
1846.0000	377.242
1846.5000	377.282
1847.0000	377.217
1847.5000	377.269
1848.0000	377.306
1848.5000	377.275
1849.0000	377.316
1849.5000	377.297
1850.0000	377.309
1850.5000	377.308
1851.0000	377.213
1851.5000	377.202
1852.0000	377.202
1852.5000	377.27
1853.0000	377.324
1853.5000	377.373
1854.0000	377.345
1854.5000	377.288
1855.0000	377.313
1855.5000	377.3
1856.0000	377.336
1856.5000	377.341
1857.0000	377.347
1857.5000	377.37
1858.0000	377.327
1858.5000	377.331
1859.0000	377.288
1859.5000	377.212
1860.0000	377.245
1860.5000	377.254
1861.0000	377.261
1861.5000	377.308
1862.0000	377.233
1862.5000	377.227
1863.0000	377.239
1863.5000	377.229
1864.0000	377.251
1864.5000	377.262
