TITLE	
DATA TYPE	
ORIGIN	JASCO
OWNER	
DATE	22/08/24
TIME	15:50:06
SPECTROMETER/DATA SYSTEM	
RESOLUTION	
DELTAX	0.5
XUNITS	SEC
YUNITS	INTENSITY
FIRSTX	0.0000
LASTX	1700.5000
NPOINTS	3402
FIRSTY	320.21136
MAXY	370.68857
MINY	-69.96680
XYDATA
0.0000	320.211
0.5000	320.222
1.0000	320.186
1.5000	320.133
2.0000	320.078
2.5000	320.033
3.0000	320.078
3.5000	320.097
4.0000	320.117
4.5000	320.051
5.0000	319.99
5.5000	319.936
6.0000	319.869
6.5000	319.954
7.0000	319.937
7.5000	319.916
8.0000	319.953
8.5000	319.858
9.0000	319.869
9.5000	319.898
10.0000	319.857
10.5000	319.84
11.0000	319.747
11.5000	319.679
12.0000	319.701
12.5000	319.703
13.0000	319.756
13.5000	319.78
14.0000	319.695
14.5000	319.663
15.0000	319.649
15.5000	319.665
16.0000	319.698
16.5000	319.694
17.0000	319.684
17.5000	319.652
18.0000	319.634
18.5000	319.6
19.0000	319.548
19.5000	319.564
20.0000	319.545
20.5000	319.557
21.0000	319.535
21.5000	319.438
22.0000	319.436
22.5000	319.427
23.0000	319.483
23.5000	319.507
24.0000	319.512
24.5000	319.48
25.0000	319.397
25.5000	319.441
26.0000	319.369
26.5000	319.358
27.0000	319.319
27.5000	319.278
28.0000	319.288
28.5000	319.237
29.0000	319.277
29.5000	319.233
30.0000	319.199
30.5000	319.212
31.0000	319.205
31.5000	319.187
32.0000	319.194
32.5000	319.188
33.0000	319.187
33.5000	319.191
34.0000	319.183
34.5000	319.172
35.0000	319.13
35.5000	319.08
36.0000	319.05
36.5000	319.036
37.0000	319.038
37.5000	319.037
38.0000	319.031
38.5000	319.04
39.0000	319.013
39.5000	319.007
40.0000	319.004
40.5000	318.97
41.0000	318.953
41.5000	318.92
42.0000	318.897
42.5000	318.846
43.0000	318.877
43.5000	318.887
44.0000	318.905
44.5000	318.952
45.0000	318.879
45.5000	318.851
46.0000	318.821
46.5000	318.824
47.0000	318.8
47.5000	318.816
48.0000	318.879
48.5000	318.847
49.0000	318.887
49.5000	318.881
50.0000	311.433
50.5000	299.645
51.0000	274.406
51.5000	137.087
52.0000	-69.9668
52.5000	-39.8843
53.0000	-33.9877
53.5000	-31.8857
54.0000	-30.7772
54.5000	-30.1335
55.0000	-29.5628
55.5000	-29.222
56.0000	-28.8871
56.5000	-28.5747
57.0000	-28.3554
57.5000	-27.8815
58.0000	-27.8659
58.5000	-27.7175
59.0000	203.721
59.5000	184.496
60.0000	179.341
60.5000	177.008
61.0000	162.684
61.5000	162.208
62.0000	162.293
62.5000	162.514
63.0000	162.785
63.5000	163.085
64.0000	163.373
64.5000	163.643
65.0000	163.946
65.5000	164.227
66.0000	164.519
66.5000	164.839
67.0000	165.12
67.5000	165.408
68.0000	165.708
68.5000	165.951
69.0000	166.22
69.5000	166.503
70.0000	166.799
70.5000	167.109
71.0000	167.398
71.5000	167.689
72.0000	167.975
72.5000	168.249
73.0000	168.54
73.5000	168.819
74.0000	169.077
74.5000	169.362
75.0000	169.634
75.5000	169.906
76.0000	170.204
76.5000	170.473
77.0000	170.722
77.5000	171.001
78.0000	171.268
78.5000	171.549
79.0000	171.856
79.5000	172.14
80.0000	172.42
80.5000	172.676
81.0000	172.93
81.5000	173.195
82.0000	173.434
82.5000	173.742
83.0000	174.028
83.5000	174.267
84.0000	174.566
84.5000	174.799
85.0000	175.036
85.5000	175.32
86.0000	175.565
86.5000	175.833
87.0000	176.104
87.5000	176.351
88.0000	176.584
88.5000	176.84
89.0000	177.086
89.5000	177.34
90.0000	177.609
90.5000	177.882
91.0000	178.143
91.5000	178.379
92.0000	178.632
92.5000	178.86
93.0000	179.113
93.5000	179.388
94.0000	179.654
94.5000	179.898
95.0000	180.135
95.5000	180.399
96.0000	180.632
96.5000	180.886
97.0000	181.151
97.5000	181.366
98.0000	181.62
98.5000	181.889
99.0000	182.144
99.5000	182.403
100.0000	182.651
100.5000	182.875
101.0000	183.131
101.5000	183.396
102.0000	183.66
102.5000	183.891
103.0000	184.11
103.5000	184.367
104.0000	184.596
104.5000	184.874
105.0000	185.149
105.5000	185.364
106.0000	185.62
106.5000	185.838
107.0000	186.078
107.5000	186.331
108.0000	186.565
108.5000	186.797
109.0000	187.01
109.5000	187.252
110.0000	187.482
110.5000	187.732
111.0000	187.991
111.5000	188.241
112.0000	188.505
112.5000	188.723
113.0000	188.942
113.5000	189.143
114.0000	189.347
114.5000	189.589
115.0000	189.837
115.5000	190.104
116.0000	190.339
116.5000	190.562
117.0000	190.792
117.5000	191.007
118.0000	191.273
118.5000	191.546
119.0000	191.818
119.5000	192.102
120.0000	192.349
120.5000	192.593
121.0000	192.782
121.5000	193
122.0000	193.215
122.5000	193.453
123.0000	193.692
123.5000	193.911
124.0000	194.144
124.5000	194.368
125.0000	194.619
125.5000	194.831
126.0000	195.078
126.5000	195.29
127.0000	195.528
127.5000	195.774
128.0000	195.978
128.5000	196.216
129.0000	196.431
129.5000	196.668
130.0000	196.895
130.5000	197.122
131.0000	197.352
131.5000	197.589
132.0000	197.844
132.5000	198.041
133.0000	198.261
133.5000	198.497
134.0000	198.666
134.5000	198.909
135.0000	199.137
135.5000	199.308
136.0000	199.539
136.5000	199.781
137.0000	200.001
137.5000	200.232
138.0000	200.456
138.5000	200.652
139.0000	200.863
139.5000	201.068
140.0000	201.277
140.5000	201.527
141.0000	201.789
141.5000	202.043
142.0000	202.309
142.5000	202.506
143.0000	202.688
143.5000	202.889
144.0000	203.091
144.5000	203.309
145.0000	203.554
145.5000	203.776
146.0000	204.004
146.5000	204.229
147.0000	204.435
147.5000	204.659
148.0000	204.844
148.5000	205.06
149.0000	205.242
149.5000	205.448
150.0000	205.671
150.5000	205.891
151.0000	206.115
151.5000	206.317
152.0000	206.55
152.5000	206.722
153.0000	206.928
153.5000	207.122
154.0000	207.289
154.5000	207.514
155.0000	207.743
155.5000	207.983
156.0000	208.188
156.5000	208.384
157.0000	208.582
157.5000	208.746
158.0000	208.962
158.5000	209.166
159.0000	209.358
159.5000	209.563
160.0000	209.772
160.5000	209.989
161.0000	210.159
161.5000	210.371
162.0000	210.579
162.5000	210.741
163.0000	210.973
163.5000	211.169
164.0000	211.385
164.5000	211.597
165.0000	211.792
165.5000	211.985
166.0000	212.154
166.5000	212.393
167.0000	212.609
167.5000	212.811
168.0000	213.037
168.5000	213.26
169.0000	213.446
169.5000	213.696
170.0000	213.887
170.5000	214.058
171.0000	214.306
171.5000	214.496
172.0000	214.701
172.5000	214.907
173.0000	215.078
173.5000	215.262
174.0000	215.48
174.5000	215.703
175.0000	215.856
175.5000	216.039
176.0000	216.242
176.5000	216.412
177.0000	216.658
177.5000	216.904
178.0000	217.054
178.5000	217.268
179.0000	217.444
179.5000	217.592
180.0000	217.809
180.5000	217.943
181.0000	218.139
181.5000	218.329
182.0000	218.539
182.5000	218.755
183.0000	218.915
183.5000	219.13
184.0000	219.306
184.5000	219.507
185.0000	219.746
185.5000	219.961
186.0000	220.121
186.5000	220.285
187.0000	220.455
187.5000	220.613
188.0000	220.829
188.5000	221.034
189.0000	221.216
189.5000	221.422
190.0000	221.612
190.5000	221.822
191.0000	222.008
191.5000	222.209
192.0000	222.368
192.5000	222.535
193.0000	222.72
193.5000	222.872
194.0000	223.087
194.5000	223.251
195.0000	223.491
195.5000	223.703
196.0000	223.881
196.5000	224.092
197.0000	224.254
197.5000	224.439
198.0000	224.616
198.5000	224.803
199.0000	224.98
199.5000	225.149
200.0000	225.33
200.5000	225.505
201.0000	225.676
201.5000	225.85
202.0000	226.057
202.5000	226.251
203.0000	226.453
203.5000	226.582
204.0000	226.727
204.5000	226.934
205.0000	227.093
205.5000	227.297
206.0000	227.55
206.5000	227.687
207.0000	227.876
207.5000	228.075
208.0000	228.213
208.5000	228.383
209.0000	228.528
209.5000	228.705
210.0000	228.863
210.5000	229.071
211.0000	229.25
211.5000	229.424
212.0000	229.655
212.5000	229.815
213.0000	230.027
213.5000	230.234
214.0000	230.354
214.5000	230.556
215.0000	230.725
215.5000	230.881
216.0000	231.085
216.5000	231.238
217.0000	231.374
217.5000	231.548
218.0000	231.694
218.5000	231.884
219.0000	232.059
219.5000	232.233
220.0000	232.439
220.5000	232.585
221.0000	232.81
221.5000	232.959
222.0000	233.103
222.5000	233.275
223.0000	233.422
223.5000	233.654
224.0000	233.852
224.5000	233.986
225.0000	234.172
225.5000	234.305
226.0000	234.453
226.5000	234.68
227.0000	234.826
227.5000	234.937
228.0000	235.106
228.5000	235.281
229.0000	235.465
229.5000	235.708
230.0000	235.87
230.5000	236.058
231.0000	236.215
231.5000	236.372
232.0000	236.558
232.5000	236.705
233.0000	236.866
233.5000	236.996
234.0000	237.127
234.5000	237.274
235.0000	237.421
235.5000	237.587
236.0000	237.806
236.5000	237.964
237.0000	238.158
237.5000	238.324
238.0000	238.464
238.5000	238.633
239.0000	238.741
239.5000	238.944
240.0000	239.105
240.5000	239.267
241.0000	239.512
241.5000	239.656
242.0000	239.832
242.5000	240.044
243.0000	240.196
243.5000	240.354
244.0000	240.467
244.5000	240.547
245.0000	240.681
245.5000	240.85
246.0000	241.002
246.5000	241.144
247.0000	241.292
247.5000	241.431
248.0000	241.628
248.5000	241.808
249.0000	241.975
249.5000	242.133
250.0000	242.297
250.5000	242.471
251.0000	242.638
251.5000	242.826
252.0000	242.979
252.5000	243.145
253.0000	243.322
253.5000	243.456
254.0000	243.621
254.5000	243.76
255.0000	243.922
255.5000	244.101
256.0000	244.238
256.5000	244.398
257.0000	244.491
257.5000	244.689
258.0000	244.883
258.5000	245.018
259.0000	245.186
259.5000	245.297
260.0000	245.443
260.5000	245.647
261.0000	245.844
261.5000	245.986
262.0000	246.126
262.5000	246.272
263.0000	246.434
263.5000	246.634
264.0000	246.764
264.5000	246.892
265.0000	247.043
265.5000	247.138
266.0000	247.304
266.5000	247.487
267.0000	247.652
267.5000	247.817
268.0000	247.978
268.5000	248.116
269.0000	248.267
269.5000	248.428
270.0000	248.547
270.5000	248.687
271.0000	248.837
271.5000	248.958
272.0000	249.121
272.5000	249.272
273.0000	249.368
273.5000	249.55
274.0000	249.7
274.5000	249.863
275.0000	250.029
275.5000	250.134
276.0000	250.27
276.5000	250.405
277.0000	250.529
277.5000	250.714
278.0000	250.882
278.5000	250.996
279.0000	251.163
279.5000	251.28
280.0000	251.421
280.5000	251.61
281.0000	251.746
281.5000	251.863
282.0000	251.998
282.5000	252.116
283.0000	252.263
283.5000	252.425
284.0000	252.57
284.5000	252.739
285.0000	252.883
285.5000	253.059
286.0000	253.221
286.5000	253.357
287.0000	253.485
287.5000	253.591
288.0000	253.76
288.5000	253.892
289.0000	254.029
289.5000	254.221
290.0000	254.346
290.5000	254.505
291.0000	254.662
291.5000	254.804
292.0000	254.912
292.5000	255.044
293.0000	255.196
293.5000	255.338
294.0000	255.486
294.5000	255.628
295.0000	255.786
295.5000	255.89
296.0000	256.046
296.5000	256.215
297.0000	256.301
297.5000	256.45
298.0000	256.56
298.5000	256.665
299.0000	256.846
299.5000	256.991
300.0000	257.145
300.5000	257.305
301.0000	257.441
301.5000	257.571
302.0000	257.708
302.5000	257.807
303.0000	257.955
303.5000	258.036
304.0000	258.149
304.5000	258.314
305.0000	258.451
305.5000	258.703
306.0000	258.851
306.5000	258.995
307.0000	259.077
307.5000	259.157
308.0000	259.31
308.5000	259.44
309.0000	259.634
309.5000	259.738
310.0000	259.866
310.5000	259.992
311.0000	260.088
311.5000	260.293
312.0000	260.47
312.5000	260.617
313.0000	260.728
313.5000	260.787
314.0000	260.888
314.5000	261.005
315.0000	261.179
315.5000	261.35
316.0000	261.488
316.5000	261.613
317.0000	261.749
317.5000	261.894
318.0000	262.012
318.5000	262.153
319.0000	262.274
319.5000	262.385
320.0000	262.51
320.5000	262.664
321.0000	262.793
321.5000	262.92
322.0000	263.04
322.5000	263.156
323.0000	263.301
323.5000	263.428
324.0000	263.569
324.5000	263.718
325.0000	263.82
325.5000	263.952
326.0000	264.095
326.5000	264.225
327.0000	264.349
327.5000	264.481
328.0000	264.565
328.5000	264.64
329.0000	264.805
329.5000	264.944
330.0000	265.144
330.5000	265.306
331.0000	265.45
331.5000	265.531
332.0000	265.659
332.5000	265.781
333.0000	265.852
333.5000	266.011
334.0000	266.117
334.5000	266.249
335.0000	266.374
335.5000	266.485
336.0000	266.602
336.5000	266.71
337.0000	266.883
337.5000	266.999
338.0000	267.122
338.5000	267.248
339.0000	267.334
339.5000	267.44
340.0000	267.587
340.5000	267.754
341.0000	267.869
341.5000	268.026
342.0000	268.132
342.5000	268.206
343.0000	268.365
343.5000	268.531
344.0000	268.61
344.5000	268.715
345.0000	268.835
345.5000	268.911
346.0000	269.076
346.5000	269.241
347.0000	269.358
347.5000	269.518
348.0000	269.654
348.5000	269.769
349.0000	269.87
349.5000	270.04
350.0000	270.191
350.5000	270.318
351.0000	270.455
351.5000	270.525
352.0000	270.58
352.5000	270.668
353.0000	270.784
353.5000	270.872
354.0000	271.02
354.5000	271.159
355.0000	271.312
355.5000	271.437
356.0000	271.551
356.5000	271.707
357.0000	271.734
357.5000	271.826
358.0000	271.913
358.5000	271.996
359.0000	272.152
359.5000	272.285
360.0000	272.443
360.5000	272.513
361.0000	272.629
361.5000	272.786
362.0000	272.876
362.5000	273.001
363.0000	273.121
363.5000	273.193
364.0000	273.308
364.5000	273.442
365.0000	273.567
365.5000	273.711
366.0000	273.782
366.5000	273.924
367.0000	274.065
367.5000	274.143
368.0000	274.326
368.5000	274.418
369.0000	274.523
369.5000	274.653
370.0000	274.783
370.5000	274.962
371.0000	275.052
371.5000	275.212
372.0000	275.309
372.5000	275.412
373.0000	275.534
373.5000	275.613
374.0000	275.702
374.5000	275.778
375.0000	275.917
375.5000	276.01
376.0000	276.124
376.5000	276.275
377.0000	276.373
377.5000	276.536
378.0000	276.673
378.5000	276.767
379.0000	276.909
379.5000	277.023
380.0000	277.128
380.5000	277.261
381.0000	277.363
381.5000	277.468
382.0000	277.578
382.5000	277.653
383.0000	277.792
383.5000	277.905
384.0000	278.026
384.5000	278.164
385.0000	278.231
385.5000	278.321
386.0000	278.459
386.5000	278.592
387.0000	278.692
387.5000	278.851
388.0000	278.965
388.5000	279.048
389.0000	279.156
389.5000	279.254
390.0000	279.332
390.5000	279.443
391.0000	279.621
391.5000	279.73
392.0000	279.87
392.5000	279.982
393.0000	280.08
393.5000	280.126
394.0000	280.191
394.5000	280.35
395.0000	280.437
395.5000	280.585
396.0000	280.703
396.5000	280.768
397.0000	280.909
397.5000	281.023
398.0000	281.154
398.5000	281.255
399.0000	281.359
399.5000	281.502
400.0000	281.622
400.5000	281.774
401.0000	281.848
401.5000	281.937
402.0000	282.019
402.5000	282.098
403.0000	282.215
403.5000	282.315
404.0000	282.461
404.5000	282.532
405.0000	282.634
405.5000	282.781
406.0000	282.898
406.5000	283.049
407.0000	283.197
407.5000	283.228
408.0000	283.298
408.5000	283.391
409.0000	283.457
409.5000	283.625
410.0000	283.729
410.5000	283.85
411.0000	283.962
411.5000	284.067
412.0000	284.153
412.5000	284.237
413.0000	284.388
413.5000	284.49
414.0000	284.631
414.5000	284.771
415.0000	284.817
415.5000	284.948
416.0000	285.11
416.5000	285.217
417.0000	285.368
417.5000	285.426
418.0000	285.471
418.5000	285.57
419.0000	285.618
419.5000	285.75
420.0000	285.827
420.5000	285.88
421.0000	286.018
421.5000	286.09
422.0000	286.222
422.5000	286.355
423.0000	286.473
423.5000	286.586
424.0000	286.666
424.5000	286.735
425.0000	286.804
425.5000	286.922
426.0000	287.04
426.5000	287.162
427.0000	287.313
427.5000	287.424
428.0000	287.515
428.5000	287.643
429.0000	287.786
429.5000	287.82
430.0000	287.949
430.5000	288.054
431.0000	288.121
431.5000	288.258
432.0000	288.376
432.5000	288.479
433.0000	288.542
433.5000	288.665
434.0000	288.731
434.5000	288.822
435.0000	288.919
435.5000	289.003
436.0000	289.129
436.5000	289.205
437.0000	289.294
437.5000	289.426
438.0000	289.527
438.5000	289.625
439.0000	289.727
439.5000	289.794
440.0000	289.87
440.5000	289.992
441.0000	290.108
441.5000	290.213
442.0000	290.341
442.5000	290.423
443.0000	290.525
443.5000	290.657
444.0000	290.741
444.5000	290.827
445.0000	290.896
445.5000	290.951
446.0000	291.044
446.5000	291.14
447.0000	291.257
447.5000	291.401
448.0000	291.5
448.5000	291.6
449.0000	291.679
449.5000	291.739
450.0000	291.88
450.5000	292.019
451.0000	292.136
451.5000	292.243
452.0000	292.299
452.5000	292.356
453.0000	292.444
453.5000	292.541
454.0000	292.619
454.5000	292.709
455.0000	292.771
455.5000	292.877
456.0000	292.99
456.5000	293.125
457.0000	293.244
457.5000	293.354
458.0000	293.46
458.5000	293.56
459.0000	293.685
459.5000	293.78
460.0000	293.846
460.5000	293.922
461.0000	294.006
461.5000	294.068
462.0000	294.124
462.5000	294.238
463.0000	294.323
463.5000	294.429
464.0000	294.537
464.5000	294.597
465.0000	294.671
465.5000	294.708
466.0000	294.825
466.5000	294.936
467.0000	295.07
467.5000	295.201
468.0000	295.316
468.5000	295.38
469.0000	295.438
469.5000	295.484
470.0000	295.588
470.5000	295.718
471.0000	295.829
471.5000	295.999
472.0000	296.076
472.5000	296.152
473.0000	296.237
473.5000	296.28
474.0000	296.309
474.5000	296.437
475.0000	296.503
475.5000	296.56
476.0000	296.694
476.5000	296.761
477.0000	296.856
477.5000	297.025
478.0000	297.128
478.5000	297.2
479.0000	297.276
479.5000	297.349
480.0000	297.436
480.5000	297.563
481.0000	297.72
481.5000	297.804
482.0000	297.928
482.5000	297.952
483.0000	298.01
483.5000	298.045
484.0000	298.051
484.5000	298.135
485.0000	298.243
485.5000	298.389
486.0000	298.547
486.5000	298.661
487.0000	298.708
487.5000	298.783
488.0000	298.802
488.5000	298.891
489.0000	298.978
489.5000	299.064
490.0000	299.194
490.5000	299.29
491.0000	299.406
491.5000	299.444
492.0000	299.514
492.5000	299.573
493.0000	299.642
493.5000	299.753
494.0000	299.776
494.5000	299.865
495.0000	299.959
495.5000	300.033
496.0000	300.188
496.5000	300.29
497.0000	300.328
497.5000	300.442
498.0000	300.566
498.5000	300.572
499.0000	300.669
499.5000	300.722
500.0000	300.722
500.5000	300.886
501.0000	300.938
501.5000	300.974
502.0000	301.093
502.5000	301.154
503.0000	301.222
503.5000	301.377
504.0000	301.458
504.5000	301.552
505.0000	301.649
505.5000	301.725
506.0000	301.813
506.5000	301.882
507.0000	301.992
507.5000	302.066
508.0000	302.149
508.5000	302.192
509.0000	302.272
509.5000	302.348
510.0000	302.391
510.5000	302.469
511.0000	302.555
511.5000	302.616
512.0000	302.69
512.5000	302.795
513.0000	302.861
513.5000	302.915
514.0000	302.98
514.5000	303.059
515.0000	303.127
515.5000	303.293
516.0000	303.356
516.5000	303.431
517.0000	303.482
517.5000	303.51
518.0000	303.621
518.5000	303.717
519.0000	303.797
519.5000	303.866
520.0000	303.953
520.5000	304.036
521.0000	304.102
521.5000	304.131
522.0000	304.22
522.5000	304.3
523.0000	304.406
523.5000	304.503
524.0000	304.555
524.5000	304.597
525.0000	304.69
525.5000	304.761
526.0000	304.798
526.5000	304.894
527.0000	304.946
527.5000	304.994
528.0000	305.123
528.5000	305.173
529.0000	305.256
529.5000	305.357
530.0000	305.425
530.5000	305.466
531.0000	305.556
531.5000	305.656
532.0000	305.744
532.5000	305.862
533.0000	305.955
533.5000	306.052
534.0000	306.09
534.5000	306.154
535.0000	306.223
535.5000	306.307
536.0000	306.425
536.5000	306.526
537.0000	306.58
537.5000	306.573
538.0000	306.621
538.5000	306.711
539.0000	306.74
539.5000	306.859
540.0000	306.905
540.5000	306.968
541.0000	307.093
541.5000	307.186
542.0000	307.314
542.5000	307.37
543.0000	307.432
543.5000	307.523
544.0000	307.529
544.5000	307.619
545.0000	307.689
545.5000	307.672
546.0000	307.815
546.5000	307.85
547.0000	307.938
547.5000	308.084
548.0000	308.114
548.5000	308.229
549.0000	308.333
549.5000	308.48
550.0000	308.594
550.5000	308.648
551.0000	308.721
551.5000	308.696
552.0000	308.75
552.5000	308.811
553.0000	308.824
553.5000	308.907
554.0000	308.993
554.5000	309.079
555.0000	309.226
555.5000	309.295
556.0000	309.374
556.5000	309.454
557.0000	309.48
557.5000	309.582
558.0000	309.62
558.5000	309.723
559.0000	309.811
559.5000	309.905
560.0000	310.017
560.5000	310.088
561.0000	310.177
561.5000	310.179
562.0000	310.247
562.5000	310.291
563.0000	310.309
563.5000	310.401
564.0000	310.446
564.5000	310.511
565.0000	310.669
565.5000	310.785
566.0000	310.938
566.5000	311.023
567.0000	311.017
567.5000	311.05
568.0000	311.072
568.5000	311.156
569.0000	311.23
569.5000	311.314
570.0000	311.413
570.5000	311.464
571.0000	311.604
571.5000	311.664
572.0000	311.672
572.5000	311.789
573.0000	311.852
573.5000	311.923
574.0000	312.038
574.5000	312.061
575.0000	312.119
575.5000	312.23
576.0000	312.266
576.5000	312.332
577.0000	312.413
577.5000	312.48
578.0000	312.557
578.5000	312.619
579.0000	312.637
579.5000	312.71
580.0000	312.752
580.5000	312.81
581.0000	312.95
581.5000	312.959
582.0000	313.048
582.5000	313.116
583.0000	313.16
583.5000	313.307
584.0000	313.404
584.5000	313.535
585.0000	313.581
585.5000	313.647
586.0000	313.684
586.5000	313.724
587.0000	313.818
587.5000	313.824
588.0000	313.913
588.5000	314.007
589.0000	314.073
589.5000	314.155
590.0000	314.195
590.5000	314.228
591.0000	314.249
591.5000	314.286
592.0000	314.366
592.5000	314.445
593.0000	314.543
593.5000	314.68
594.0000	314.786
594.5000	314.868
595.0000	314.928
595.5000	314.944
596.0000	314.989
596.5000	315.055
597.0000	315.117
597.5000	315.192
598.0000	315.24
598.5000	315.288
599.0000	315.338
599.5000	315.411
600.0000	315.487
600.5000	315.565
601.0000	315.625
601.5000	315.701
602.0000	315.795
602.5000	315.879
603.0000	316.019
603.5000	316.095
604.0000	316.15
604.5000	316.162
605.0000	316.165
605.5000	316.233
606.0000	316.261
606.5000	316.433
607.0000	316.524
607.5000	316.594
608.0000	316.68
608.5000	316.681
609.0000	316.744
609.5000	316.832
610.0000	316.904
610.5000	316.982
611.0000	317.074
611.5000	317.123
612.0000	317.178
612.5000	317.22
613.0000	317.239
613.5000	317.292
614.0000	317.394
614.5000	317.53
615.0000	317.601
615.5000	317.655
616.0000	317.694
616.5000	317.725
617.0000	317.858
617.5000	317.939
618.0000	317.993
618.5000	318.042
619.0000	318.008
619.5000	318.073
620.0000	318.176
620.5000	318.226
621.0000	318.319
621.5000	318.394
622.0000	318.438
622.5000	318.509
623.0000	318.569
623.5000	318.621
624.0000	318.696
624.5000	318.762
625.0000	318.844
625.5000	318.889
626.0000	318.873
626.5000	318.964
627.0000	319.045
627.5000	319.178
628.0000	319.285
628.5000	319.326
629.0000	319.345
629.5000	319.383
630.0000	319.453
630.5000	319.45
631.0000	319.515
631.5000	319.557
632.0000	319.65
632.5000	319.817
633.0000	319.901
633.5000	319.961
634.0000	319.996
634.5000	320.002
635.0000	320.023
635.5000	320.078
636.0000	320.113
636.5000	320.136
637.0000	320.239
637.5000	320.309
638.0000	320.457
638.5000	320.536
639.0000	320.599
639.5000	320.634
640.0000	320.635
640.5000	320.682
641.0000	320.732
641.5000	320.794
642.0000	320.849
642.5000	320.962
643.0000	321.025
643.5000	321.126
644.0000	321.198
644.5000	321.219
645.0000	321.314
645.5000	321.405
646.0000	321.475
646.5000	321.592
647.0000	321.644
647.5000	321.621
648.0000	321.713
648.5000	321.754
649.0000	321.799
649.5000	321.895
650.0000	321.957
650.5000	322.001
651.0000	322.07
651.5000	322.174
652.0000	322.191
652.5000	322.226
653.0000	322.297
653.5000	322.295
654.0000	322.35
654.5000	322.45
655.0000	322.505
655.5000	322.559
656.0000	322.634
656.5000	322.688
657.0000	322.71
657.5000	322.802
658.0000	322.872
658.5000	322.934
659.0000	323.008
659.5000	323.053
660.0000	323.092
660.5000	323.145
661.0000	323.222
661.5000	323.283
662.0000	323.337
662.5000	323.395
663.0000	323.439
663.5000	323.502
664.0000	323.628
664.5000	323.667
665.0000	323.755
665.5000	323.807
666.0000	323.817
666.5000	323.923
667.0000	323.983
667.5000	324.059
668.0000	324.143
668.5000	324.189
669.0000	324.222
669.5000	324.313
670.0000	324.319
670.5000	324.416
671.0000	324.447
671.5000	324.462
672.0000	324.548
672.5000	324.612
673.0000	324.777
673.5000	324.869
674.0000	324.928
674.5000	324.941
675.0000	324.978
675.5000	324.991
676.0000	325.029
676.5000	325.118
677.0000	325.192
677.5000	325.305
678.0000	325.425
678.5000	325.478
679.0000	325.498
679.5000	325.558
680.0000	325.592
680.5000	325.676
681.0000	325.718
681.5000	325.739
682.0000	325.794
682.5000	325.858
683.0000	325.954
683.5000	326.043
684.0000	326.102
684.5000	326.1
685.0000	326.123
685.5000	326.184
686.0000	326.199
686.5000	326.301
687.0000	326.358
687.5000	326.387
688.0000	326.488
688.5000	326.551
689.0000	326.63
689.5000	326.716
690.0000	326.762
690.5000	326.827
691.0000	326.843
691.5000	326.921
692.0000	327.008
692.5000	327.009
693.0000	327.124
693.5000	327.184
694.0000	327.19
694.5000	327.285
695.0000	327.268
695.5000	327.264
696.0000	327.386
696.5000	327.429
697.0000	327.547
697.5000	327.606
698.0000	327.651
698.5000	327.719
699.0000	327.811
699.5000	327.914
700.0000	328.004
700.5000	328.064
701.0000	328.126
701.5000	328.198
702.0000	328.261
702.5000	328.275
703.0000	328.328
703.5000	328.371
704.0000	328.414
704.5000	328.547
705.0000	328.589
705.5000	328.636
706.0000	328.681
706.5000	328.704
707.0000	328.75
707.5000	328.853
708.0000	328.892
708.5000	328.981
709.0000	329.041
709.5000	329.073
710.0000	329.179
710.5000	329.162
711.0000	329.228
711.5000	329.219
712.0000	329.236
712.5000	329.313
713.0000	329.375
713.5000	329.483
714.0000	329.497
714.5000	329.573
715.0000	329.605
715.5000	329.64
716.0000	329.746
716.5000	329.776
717.0000	329.845
717.5000	329.962
718.0000	330.052
718.5000	330.154
719.0000	330.209
719.5000	330.246
720.0000	330.271
720.5000	330.329
721.0000	330.403
721.5000	330.455
722.0000	330.468
722.5000	330.499
723.0000	330.557
723.5000	330.594
724.0000	330.695
724.5000	330.766
725.0000	330.782
725.5000	330.854
726.0000	330.951
726.5000	331.007
727.0000	331.048
727.5000	331.072
728.0000	331.057
728.5000	331.085
729.0000	331.207
729.5000	331.329
730.0000	331.409
730.5000	331.481
731.0000	331.518
731.5000	331.501
732.0000	331.627
732.5000	331.692
733.0000	331.77
733.5000	331.902
734.0000	331.903
734.5000	331.936
735.0000	332.006
735.5000	332.009
736.0000	332.036
736.5000	332.113
737.0000	332.109
737.5000	332.18
738.0000	332.234
738.5000	332.275
739.0000	332.347
739.5000	332.4
740.0000	332.506
740.5000	332.605
741.0000	332.672
741.5000	332.736
742.0000	332.806
742.5000	332.838
743.0000	332.893
743.5000	332.978
744.0000	333.024
744.5000	333.081
745.0000	333.172
745.5000	333.185
746.0000	333.217
746.5000	333.262
747.0000	333.322
747.5000	333.33
748.0000	333.366
748.5000	333.403
749.0000	333.396
749.5000	333.512
750.0000	333.604
750.5000	333.689
751.0000	333.704
751.5000	333.731
752.0000	333.74
752.5000	333.767
753.0000	333.871
753.5000	333.917
754.0000	333.977
754.5000	334.06
755.0000	334.102
755.5000	334.171
756.0000	334.234
756.5000	334.245
757.0000	334.298
757.5000	334.354
758.0000	334.397
758.5000	334.49
759.0000	334.561
759.5000	334.627
760.0000	334.699
760.5000	334.715
761.0000	334.784
761.5000	334.831
762.0000	334.873
762.5000	334.921
763.0000	334.942
763.5000	335.004
764.0000	335.06
764.5000	335.161
765.0000	335.22
765.5000	335.269
766.0000	335.319
766.5000	335.327
767.0000	335.358
767.5000	335.389
768.0000	335.437
768.5000	335.527
769.0000	335.61
769.5000	335.652
770.0000	335.641
770.5000	335.681
771.0000	335.728
771.5000	335.801
772.0000	335.902
772.5000	335.99
773.0000	336.028
773.5000	336.089
774.0000	336.101
774.5000	336.092
775.0000	336.144
775.5000	336.185
776.0000	336.305
776.5000	336.375
777.0000	336.41
777.5000	336.423
778.0000	336.415
778.5000	336.446
779.0000	336.498
779.5000	336.537
780.0000	336.67
780.5000	336.725
781.0000	336.802
781.5000	336.898
782.0000	336.857
782.5000	336.955
783.0000	337.017
783.5000	337.046
784.0000	337.125
784.5000	337.149
785.0000	337.145
785.5000	337.186
786.0000	337.245
786.5000	337.332
787.0000	337.384
787.5000	337.44
788.0000	337.532
788.5000	337.534
789.0000	337.634
789.5000	337.695
790.0000	337.719
790.5000	337.785
791.0000	337.799
791.5000	337.854
792.0000	337.876
792.5000	337.884
793.0000	337.932
793.5000	338.002
794.0000	338.074
794.5000	338.153
795.0000	338.247
795.5000	338.289
796.0000	338.311
796.5000	338.364
797.0000	338.387
797.5000	338.446
798.0000	338.514
798.5000	338.553
799.0000	338.587
799.5000	338.65
800.0000	338.734
800.5000	338.779
801.0000	338.843
801.5000	338.912
802.0000	338.951
802.5000	339.002
803.0000	339.041
803.5000	339.086
804.0000	339.089
804.5000	339.124
805.0000	339.218
805.5000	339.187
806.0000	339.249
806.5000	339.344
807.0000	339.338
807.5000	339.419
808.0000	339.479
808.5000	339.494
809.0000	339.59
809.5000	339.615
810.0000	339.663
810.5000	339.758
811.0000	339.743
811.5000	339.797
812.0000	339.89
812.5000	339.893
813.0000	339.948
813.5000	340.017
814.0000	340.035
814.5000	340.097
815.0000	340.196
815.5000	340.265
816.0000	340.277
816.5000	340.325
817.0000	340.36
817.5000	340.356
818.0000	340.402
818.5000	340.438
819.0000	340.455
819.5000	340.521
820.0000	340.555
820.5000	340.607
821.0000	340.661
821.5000	340.656
822.0000	340.743
822.5000	340.826
823.0000	340.855
823.5000	340.941
824.0000	340.96
824.5000	340.967
825.0000	341.04
825.5000	341.118
826.0000	341.184
826.5000	341.307
827.0000	341.368
827.5000	341.388
828.0000	341.439
828.5000	341.468
829.0000	341.516
829.5000	341.602
830.0000	341.731
830.5000	341.684
831.0000	341.699
831.5000	341.723
832.0000	341.693
832.5000	341.799
833.0000	341.812
833.5000	341.83
834.0000	341.871
834.5000	341.897
835.0000	341.959
835.5000	342.047
836.0000	342.097
836.5000	342.184
837.0000	342.256
837.5000	342.303
838.0000	342.37
838.5000	342.374
839.0000	342.424
839.5000	342.407
840.0000	342.449
840.5000	342.464
841.0000	342.524
841.5000	342.575
842.0000	342.62
842.5000	342.732
843.0000	342.754
843.5000	342.866
844.0000	342.858
844.5000	342.859
845.0000	342.89
845.5000	342.885
846.0000	342.954
846.5000	343.004
847.0000	343.032
847.5000	343.121
848.0000	343.14
848.5000	343.149
849.0000	343.203
849.5000	343.222
850.0000	343.365
850.5000	343.437
851.0000	343.531
851.5000	343.569
852.0000	343.554
852.5000	343.586
853.0000	343.582
853.5000	343.598
854.0000	343.642
854.5000	343.764
855.0000	343.845
855.5000	343.934
856.0000	343.984
856.5000	343.973
857.0000	344.031
857.5000	344.051
858.0000	344.105
858.5000	344.161
859.0000	344.131
859.5000	344.182
860.0000	344.182
860.5000	344.235
861.0000	344.303
861.5000	344.295
862.0000	344.345
862.5000	344.379
863.0000	344.478
863.5000	344.567
864.0000	344.648
864.5000	344.707
865.0000	344.741
865.5000	344.833
866.0000	344.855
866.5000	344.896
867.0000	344.964
867.5000	344.99
868.0000	345.004
868.5000	344.968
869.0000	344.976
869.5000	344.955
870.0000	345.038
870.5000	345.157
871.0000	345.178
871.5000	345.277
872.0000	345.284
872.5000	345.289
873.0000	345.312
873.5000	345.348
874.0000	345.421
874.5000	345.48
875.0000	345.536
875.5000	345.596
876.0000	345.676
876.5000	345.74
877.0000	345.765
877.5000	345.78
878.0000	345.744
878.5000	345.757
879.0000	345.845
879.5000	345.861
880.0000	345.98
880.5000	346.001
881.0000	345.98
881.5000	346.043
882.0000	346.071
882.5000	346.132
883.0000	346.231
883.5000	346.257
884.0000	346.305
884.5000	346.335
885.0000	346.33
885.5000	346.407
886.0000	346.401
886.5000	346.474
887.0000	346.535
887.5000	346.572
888.0000	346.606
888.5000	346.59
889.0000	346.585
889.5000	346.636
890.0000	346.642
890.5000	346.752
891.0000	346.851
891.5000	346.847
892.0000	346.9
892.5000	346.845
893.0000	346.864
893.5000	346.958
894.0000	347.031
894.5000	347.098
895.0000	347.175
895.5000	347.123
896.0000	347.162
896.5000	347.241
897.0000	347.21
897.5000	347.302
898.0000	347.343
898.5000	347.37
899.0000	347.442
899.5000	347.43
900.0000	347.451
900.5000	347.466
901.0000	347.447
901.5000	347.513
902.0000	347.562
902.5000	347.647
903.0000	347.727
903.5000	347.758
904.0000	347.741
904.5000	347.694
905.0000	347.77
905.5000	347.83
906.0000	347.891
906.5000	347.969
907.0000	348.006
907.5000	347.985
908.0000	348.012
908.5000	348.003
909.0000	347.975
909.5000	348.023
910.0000	348.047
910.5000	348.066
911.0000	348.151
911.5000	348.237
912.0000	348.265
912.5000	348.314
913.0000	348.296
913.5000	348.315
914.0000	348.406
914.5000	348.475
915.0000	348.56
915.5000	348.592
916.0000	348.594
916.5000	348.637
917.0000	348.651
917.5000	348.668
918.0000	348.739
918.5000	348.785
919.0000	348.817
919.5000	348.854
920.0000	348.872
920.5000	348.9
921.0000	348.955
921.5000	348.994
922.0000	349.068
922.5000	349.072
923.0000	349.079
923.5000	349.114
924.0000	349.138
924.5000	349.18
925.0000	349.253
925.5000	349.267
926.0000	349.245
926.5000	349.328
927.0000	349.306
927.5000	349.381
928.0000	349.458
928.5000	349.45
929.0000	349.548
929.5000	349.586
930.0000	349.603
930.5000	349.646
931.0000	349.664
931.5000	349.701
932.0000	349.732
932.5000	349.75
933.0000	349.74
933.5000	349.7
934.0000	349.762
934.5000	349.79
935.0000	349.84
935.5000	349.897
936.0000	349.872
936.5000	349.909
937.0000	349.957
937.5000	349.977
938.0000	350.033
938.5000	350.148
939.0000	350.191
939.5000	350.282
940.0000	350.303
940.5000	350.278
941.0000	350.309
941.5000	350.292
942.0000	350.313
942.5000	350.349
943.0000	350.343
943.5000	350.405
944.0000	350.481
944.5000	350.527
945.0000	350.558
945.5000	350.584
946.0000	350.557
946.5000	350.594
947.0000	350.68
947.5000	350.762
948.0000	350.83
948.5000	350.94
949.0000	350.914
949.5000	350.854
950.0000	351.403
950.5000	351.209
951.0000	351.38
951.5000	351.457
952.0000	351.03
952.5000	351.213
953.0000	351.161
953.5000	351.159
954.0000	351.159
954.5000	351.185
955.0000	351.259
955.5000	351.333
956.0000	351.359
956.5000	351.447
957.0000	351.387
957.5000	351.399
958.0000	351.443
958.5000	351.456
959.0000	351.622
959.5000	351.711
960.0000	351.798
960.5000	351.868
961.0000	351.774
961.5000	351.824
962.0000	351.835
962.5000	351.809
963.0000	351.861
963.5000	351.887
964.0000	351.862
964.5000	351.876
965.0000	351.926
965.5000	351.939
966.0000	352.084
966.5000	352.161
967.0000	352.247
967.5000	352.248
968.0000	352.244
968.5000	352.257
969.0000	352.231
969.5000	352.292
970.0000	352.296
970.5000	352.285
971.0000	352.332
971.5000	352.303
972.0000	352.337
972.5000	352.406
973.0000	352.411
973.5000	352.518
974.0000	352.469
974.5000	352.504
975.0000	352.621
975.5000	352.645
976.0000	352.716
976.5000	352.756
977.0000	352.719
977.5000	352.788
978.0000	352.848
978.5000	352.848
979.0000	352.877
979.5000	352.868
980.0000	352.922
980.5000	352.993
981.0000	353.025
981.5000	353.056
982.0000	353.047
982.5000	352.986
983.0000	352.993
983.5000	353.055
984.0000	353.05
984.5000	353.076
985.0000	353.13
985.5000	353.118
986.0000	353.181
986.5000	353.222
987.0000	353.255
987.5000	353.288
988.0000	353.328
988.5000	353.413
989.0000	353.5
989.5000	353.546
990.0000	353.549
990.5000	353.58
991.0000	353.576
991.5000	353.597
992.0000	353.626
992.5000	353.641
993.0000	353.649
993.5000	353.673
994.0000	353.789
994.5000	353.839
995.0000	353.821
995.5000	353.824
996.0000	353.821
996.5000	353.827
997.0000	353.87
997.5000	353.893
998.0000	353.796
998.5000	353.838
999.0000	353.902
999.5000	353.925
1000.0000	354.023
1000.5000	354.069
1001.0000	354.11
1001.5000	354.138
1002.0000	354.145
1002.5000	354.101
1003.0000	354.116
1003.5000	354.191
1004.0000	354.231
1004.5000	354.262
1005.0000	354.285
1005.5000	354.254
1006.0000	354.318
1006.5000	354.37
1007.0000	354.408
1007.5000	354.464
1008.0000	354.495
1008.5000	354.602
1009.0000	354.612
1009.5000	354.72
1010.0000	354.723
1010.5000	354.713
1011.0000	354.756
1011.5000	354.691
1012.0000	354.72
1012.5000	354.68
1013.0000	354.7
1013.5000	354.74
1014.0000	354.763
1014.5000	354.85
1015.0000	354.908
1015.5000	354.929
1016.0000	355.008
1016.5000	355.043
1017.0000	355.026
1017.5000	355.109
1018.0000	355.128
1018.5000	355.12
1019.0000	355.18
1019.5000	355.17
1020.0000	355.102
1020.5000	355.12
1021.0000	355.101
1021.5000	355.154
1022.0000	355.243
1022.5000	355.315
1023.0000	355.324
1023.5000	355.308
1024.0000	355.358
1024.5000	355.363
1025.0000	355.446
1025.5000	355.487
1026.0000	355.513
1026.5000	355.552
1027.0000	355.564
1027.5000	355.546
1028.0000	355.495
1028.5000	355.539
1029.0000	355.609
1029.5000	355.705
1030.0000	355.853
1030.5000	355.849
1031.0000	355.816
1031.5000	355.844
1032.0000	355.776
1032.5000	355.751
1033.0000	355.802
1033.5000	355.833
1034.0000	355.84
1034.5000	355.929
1035.0000	355.95
1035.5000	355.95
1036.0000	356.037
1036.5000	356.023
1037.0000	356.062
1037.5000	356.109
1038.0000	356.11
1038.5000	356.146
1039.0000	356.17
1039.5000	356.187
1040.0000	356.205
1040.5000	356.261
1041.0000	356.276
1041.5000	356.323
1042.0000	356.376
1042.5000	356.415
1043.0000	356.44
1043.5000	356.475
1044.0000	356.486
1044.5000	356.484
1045.0000	356.509
1045.5000	356.513
1046.0000	356.542
1046.5000	356.586
1047.0000	356.647
1047.5000	356.664
1048.0000	356.742
1048.5000	356.746
1049.0000	356.768
1049.5000	356.809
1050.0000	356.78
1050.5000	356.833
1051.0000	356.86
1051.5000	356.839
1052.0000	356.864
1052.5000	356.876
1053.0000	356.879
1053.5000	356.95
1054.0000	357.01
1054.5000	357.055
1055.0000	357.099
1055.5000	357.112
1056.0000	357.098
1056.5000	357.077
1057.0000	357.098
1057.5000	357.132
1058.0000	357.199
1058.5000	357.264
1059.0000	357.258
1059.5000	357.239
1060.0000	357.276
1060.5000	357.244
1061.0000	357.276
1061.5000	357.33
1062.0000	357.332
1062.5000	357.391
1063.0000	357.47
1063.5000	357.482
1064.0000	357.469
1064.5000	357.47
1065.0000	357.485
1065.5000	357.572
1066.0000	357.664
1066.5000	357.745
1067.0000	357.789
1067.5000	357.727
1068.0000	357.729
1068.5000	357.733
1069.0000	357.722
1069.5000	357.768
1070.0000	357.745
1070.5000	357.769
1071.0000	357.77
1071.5000	357.829
1072.0000	357.9
1072.5000	357.92
1073.0000	357.946
1073.5000	357.946
1074.0000	357.915
1074.5000	357.964
1075.0000	357.967
1075.5000	357.95
1076.0000	358.028
1076.5000	358.041
1077.0000	358.099
1077.5000	358.144
1078.0000	358.137
1078.5000	358.153
1079.0000	358.188
1079.5000	358.221
1080.0000	358.246
1080.5000	358.288
1081.0000	358.288
1081.5000	358.302
1082.0000	358.381
1082.5000	358.385
1083.0000	358.368
1083.5000	358.439
1084.0000	358.419
1084.5000	358.45
1085.0000	358.541
1085.5000	358.515
1086.0000	358.539
1086.5000	358.564
1087.0000	358.503
1087.5000	358.514
1088.0000	358.577
1088.5000	358.624
1089.0000	358.683
1089.5000	358.706
1090.0000	358.709
1090.5000	358.659
1091.0000	358.698
1091.5000	358.744
1092.0000	358.78
1092.5000	358.814
1093.0000	358.824
1093.5000	358.852
1094.0000	358.856
1094.5000	358.908
1095.0000	358.91
1095.5000	358.902
1096.0000	358.945
1096.5000	358.874
1097.0000	358.903
1097.5000	359.038
1098.0000	359.019
1098.5000	359.091
1099.0000	359.142
1099.5000	359.033
1100.0000	359.109
1100.5000	359.107
1101.0000	359.118
1101.5000	359.176
1102.0000	359.144
1102.5000	359.26
1103.0000	359.251
1103.5000	359.288
1104.0000	359.329
1104.5000	359.272
1105.0000	359.29
1105.5000	359.315
1106.0000	359.321
1106.5000	359.394
1107.0000	359.415
1107.5000	359.467
1108.0000	359.468
1108.5000	359.483
1109.0000	359.569
1109.5000	359.512
1110.0000	359.541
1110.5000	359.536
1111.0000	359.568
1111.5000	359.597
1112.0000	359.573
1112.5000	359.619
1113.0000	359.632
1113.5000	359.671
1114.0000	359.761
1114.5000	359.808
1115.0000	359.792
1115.5000	359.799
1116.0000	359.786
1116.5000	359.775
1117.0000	359.849
1117.5000	359.866
1118.0000	359.916
1118.5000	359.883
1119.0000	359.836
1119.5000	359.835
1120.0000	359.831
1120.5000	359.878
1121.0000	359.947
1121.5000	360.037
1122.0000	360.074
1122.5000	360.104
1123.0000	360.081
1123.5000	360.067
1124.0000	360.071
1124.5000	360.043
1125.0000	360.037
1125.5000	360.059
1126.0000	360.101
1126.5000	360.16
1127.0000	360.183
1127.5000	360.184
1128.0000	360.174
1128.5000	360.199
1129.0000	360.234
1129.5000	360.227
1130.0000	360.269
1130.5000	360.306
1131.0000	360.297
1131.5000	360.295
1132.0000	360.293
1132.5000	360.294
1133.0000	360.296
1133.5000	360.335
1134.0000	360.336
1134.5000	360.301
1135.0000	360.381
1135.5000	360.4
1136.0000	360.346
1136.5000	360.361
1137.0000	360.316
1137.5000	360.341
1138.0000	360.452
1138.5000	360.463
1139.0000	360.473
1139.5000	360.493
1140.0000	360.428
1140.5000	360.462
1141.0000	360.471
1141.5000	360.503
1142.0000	360.602
1142.5000	360.609
1143.0000	360.664
1143.5000	360.718
1144.0000	360.732
1144.5000	360.787
1145.0000	360.838
1145.5000	360.83
1146.0000	360.811
1146.5000	360.773
1147.0000	360.767
1147.5000	360.772
1148.0000	360.774
1148.5000	360.881
1149.0000	360.914
1149.5000	360.962
1150.0000	361.026
1150.5000	360.953
1151.0000	360.915
1151.5000	360.916
1152.0000	360.906
1152.5000	360.984
1153.0000	361.029
1153.5000	361.001
1154.0000	361.032
1154.5000	361.025
1155.0000	361.043
1155.5000	361.067
1156.0000	361.09
1156.5000	361.111
1157.0000	361.107
1157.5000	361.116
1158.0000	361.116
1158.5000	361.14
1159.0000	361.108
1159.5000	361.153
1160.0000	361.157
1160.5000	361.144
1161.0000	361.191
1161.5000	361.134
1162.0000	361.165
1162.5000	361.165
1163.0000	361.178
1163.5000	361.216
1164.0000	361.252
1164.5000	361.314
1165.0000	361.355
1165.5000	361.421
1166.0000	361.433
1166.5000	361.504
1167.0000	361.493
1167.5000	361.51
1168.0000	361.521
1168.5000	361.467
1169.0000	361.497
1169.5000	361.478
1170.0000	361.458
1170.5000	361.454
1171.0000	361.524
1171.5000	361.564
1172.0000	361.559
1172.5000	361.582
1173.0000	361.587
1173.5000	361.54
1174.0000	361.586
1174.5000	361.547
1175.0000	361.491
1175.5000	361.567
1176.0000	361.577
1176.5000	361.61
1177.0000	361.684
1177.5000	361.686
1178.0000	361.692
1178.5000	361.77
1179.0000	361.808
1179.5000	361.786
1180.0000	361.815
1180.5000	361.827
1181.0000	361.764
1181.5000	361.821
1182.0000	361.812
1182.5000	361.812
1183.0000	361.848
1183.5000	361.806
1184.0000	361.791
1184.5000	361.773
1185.0000	361.805
1185.5000	361.88
1186.0000	361.912
1186.5000	361.906
1187.0000	361.902
1187.5000	361.833
1188.0000	361.826
1188.5000	361.871
1189.0000	361.916
1189.5000	361.928
1190.0000	362.031
1190.5000	362.082
1191.0000	362.066
1191.5000	362.137
1192.0000	362.101
1192.5000	362.134
1193.0000	362.189
1193.5000	362.167
1194.0000	362.208
1194.5000	362.216
1195.0000	362.137
1195.5000	362.205
1196.0000	362.128
1196.5000	362.05
1197.0000	362.099
1197.5000	362.121
1198.0000	362.172
1198.5000	362.245
1199.0000	362.271
1199.5000	362.262
1200.0000	362.252
1200.5000	362.247
1201.0000	362.246
1201.5000	362.269
1202.0000	362.293
1202.5000	362.289
1203.0000	362.324
1203.5000	362.364
1204.0000	362.367
1204.5000	362.397
1205.0000	362.399
1205.5000	362.323
1206.0000	362.379
1206.5000	362.377
1207.0000	362.377
1207.5000	362.426
1208.0000	362.423
1208.5000	362.455
1209.0000	362.513
1209.5000	362.503
1210.0000	362.534
1210.5000	362.51
1211.0000	362.447
1211.5000	362.478
1212.0000	362.457
1212.5000	362.527
1213.0000	362.541
1213.5000	362.534
1214.0000	362.569
1214.5000	362.546
1215.0000	362.631
1215.5000	362.607
1216.0000	362.552
1216.5000	362.557
1217.0000	362.525
1217.5000	362.569
1218.0000	362.61
1218.5000	362.654
1219.0000	362.635
1219.5000	362.693
1220.0000	362.676
1220.5000	362.644
1221.0000	362.691
1221.5000	362.666
1222.0000	362.724
1222.5000	362.726
1223.0000	362.769
1223.5000	362.721
1224.0000	362.744
1224.5000	362.775
1225.0000	362.739
1225.5000	362.827
1226.0000	362.774
1226.5000	362.803
1227.0000	362.839
1227.5000	362.814
1228.0000	362.864
1228.5000	362.811
1229.0000	362.797
1229.5000	362.781
1230.0000	362.807
1230.5000	362.806
1231.0000	362.782
1231.5000	362.84
1232.0000	362.787
1232.5000	362.81
1233.0000	362.887
1233.5000	362.848
1234.0000	362.894
1234.5000	362.919
1235.0000	362.913
1235.5000	362.987
1236.0000	363.029
1236.5000	363.063
1237.0000	363.111
1237.5000	363.082
1238.0000	363.054
1238.5000	363.043
1239.0000	362.979
1239.5000	362.974
1240.0000	363.009
1240.5000	363.036
1241.0000	363.083
1241.5000	363.079
1242.0000	363.082
1242.5000	363.121
1243.0000	363.092
1243.5000	363.144
1244.0000	363.179
1244.5000	363.192
1245.0000	363.201
1245.5000	363.249
1246.0000	363.214
1246.5000	363.169
1247.0000	363.233
1247.5000	363.16
1248.0000	363.199
1248.5000	363.262
1249.0000	363.218
1249.5000	363.268
1250.0000	363.253
1250.5000	363.192
1251.0000	363.239
1251.5000	363.269
1252.0000	363.269
1252.5000	363.311
1253.0000	363.26
1253.5000	363.282
1254.0000	363.306
1254.5000	363.378
1255.0000	363.374
1255.5000	363.356
1256.0000	363.335
1256.5000	363.339
1257.0000	363.384
1257.5000	363.396
1258.0000	363.433
1258.5000	363.412
1259.0000	363.467
1259.5000	363.459
1260.0000	363.537
1260.5000	363.469
1261.0000	363.478
1261.5000	363.511
1262.0000	363.51
1262.5000	363.579
1263.0000	363.529
1263.5000	363.609
1264.0000	363.612
1264.5000	363.609
1265.0000	363.653
1265.5000	363.574
1266.0000	363.559
1266.5000	363.62
1267.0000	363.638
1267.5000	363.657
1268.0000	363.679
1268.5000	363.665
1269.0000	363.722
1269.5000	363.751
1270.0000	363.799
1270.5000	363.832
1271.0000	363.809
1271.5000	363.859
1272.0000	363.879
1272.5000	363.858
1273.0000	363.853
1273.5000	363.857
1274.0000	363.844
1274.5000	363.883
1275.0000	363.914
1275.5000	363.897
1276.0000	363.899
1276.5000	363.868
1277.0000	363.883
1277.5000	363.883
1278.0000	363.887
1278.5000	363.923
1279.0000	363.952
1279.5000	363.923
1280.0000	363.91
1280.5000	363.971
1281.0000	363.966
1281.5000	364.016
1282.0000	364.077
1282.5000	364.039
1283.0000	364.004
1283.5000	363.972
1284.0000	363.908
1284.5000	363.908
1285.0000	363.932
1285.5000	363.973
1286.0000	364.078
1286.5000	364.058
1287.0000	364.081
1287.5000	364.102
1288.0000	363.987
1288.5000	364.003
1289.0000	363.973
1289.5000	363.947
1290.0000	363.983
1290.5000	364.028
1291.0000	364.049
1291.5000	364.07
1292.0000	364.075
1292.5000	364.048
1293.0000	364.076
1293.5000	364.134
1294.0000	364.205
1294.5000	364.226
1295.0000	364.242
1295.5000	364.203
1296.0000	364.226
1296.5000	364.229
1297.0000	364.204
1297.5000	364.255
1298.0000	364.22
1298.5000	364.223
1299.0000	364.19
1299.5000	364.146
1300.0000	364.169
1300.5000	364.194
1301.0000	364.256
1301.5000	364.312
1302.0000	364.297
1302.5000	364.326
1303.0000	364.313
1303.5000	364.289
1304.0000	364.295
1304.5000	364.243
1305.0000	364.321
1305.5000	364.287
1306.0000	364.277
1306.5000	364.272
1307.0000	364.225
1307.5000	364.22
1308.0000	364.222
1308.5000	364.244
1309.0000	364.283
1309.5000	364.385
1310.0000	364.412
1310.5000	364.47
1311.0000	364.473
1311.5000	364.449
1312.0000	364.465
1312.5000	364.466
1313.0000	364.448
1313.5000	364.417
1314.0000	364.421
1314.5000	364.398
1315.0000	364.368
1315.5000	364.408
1316.0000	364.363
1316.5000	364.34
1317.0000	364.413
1317.5000	364.445
1318.0000	364.466
1318.5000	364.538
1319.0000	364.476
1319.5000	364.429
1320.0000	364.449
1320.5000	364.435
1321.0000	364.515
1321.5000	364.512
1322.0000	364.541
1322.5000	364.6
1323.0000	364.586
1323.5000	364.662
1324.0000	364.675
1324.5000	364.685
1325.0000	364.685
1325.5000	364.671
1326.0000	364.737
1326.5000	364.706
1327.0000	364.688
1327.5000	364.686
1328.0000	364.595
1328.5000	364.552
1329.0000	364.634
1329.5000	364.633
1330.0000	364.656
1330.5000	364.677
1331.0000	364.624
1331.5000	364.611
1332.0000	364.625
1332.5000	364.65
1333.0000	364.685
1333.5000	364.7
1334.0000	364.713
1334.5000	364.743
1335.0000	364.74
1335.5000	364.731
1336.0000	364.748
1336.5000	364.783
1337.0000	364.784
1337.5000	364.8
1338.0000	364.776
1338.5000	364.738
1339.0000	364.808
1339.5000	364.846
1340.0000	364.895
1340.5000	364.917
1341.0000	364.869
1341.5000	364.897
1342.0000	364.907
1342.5000	364.848
1343.0000	364.848
1343.5000	364.858
1344.0000	364.884
1344.5000	364.964
1345.0000	365.011
1345.5000	364.976
1346.0000	364.929
1346.5000	364.961
1347.0000	364.978
1347.5000	364.956
1348.0000	364.932
1348.5000	364.909
1349.0000	364.846
1349.5000	364.909
1350.0000	365.01
1350.5000	364.963
1351.0000	365.067
1351.5000	365.043
1352.0000	364.96
1352.5000	365.013
1353.0000	364.9
1353.5000	364.907
1354.0000	364.978
1354.5000	364.979
1355.0000	365.018
1355.5000	365.054
1356.0000	365.059
1356.5000	365.069
1357.0000	365.092
1357.5000	365.105
1358.0000	365.11
1358.5000	365.086
1359.0000	365.09
1359.5000	365.076
1360.0000	365.034
1360.5000	365.069
1361.0000	365.069
1361.5000	365.093
1362.0000	365.119
1362.5000	365.132
1363.0000	365.114
1363.5000	365.131
1364.0000	365.199
1364.5000	365.181
1365.0000	365.196
1365.5000	365.146
1366.0000	365.103
1366.5000	365.092
1367.0000	365.103
1367.5000	365.113
1368.0000	365.106
1368.5000	365.125
1369.0000	365.183
1369.5000	365.246
1370.0000	365.292
1370.5000	365.277
1371.0000	365.204
1371.5000	365.144
1372.0000	365.101
1372.5000	365.122
1373.0000	365.186
1373.5000	365.24
1374.0000	365.275
1374.5000	365.293
1375.0000	365.285
1375.5000	365.276
1376.0000	365.296
1376.5000	365.323
1377.0000	365.319
1377.5000	365.334
1378.0000	365.3
1378.5000	365.248
1379.0000	365.286
1379.5000	365.298
1380.0000	365.297
1380.5000	365.359
1381.0000	365.375
1381.5000	365.337
1382.0000	365.356
1382.5000	365.356
1383.0000	365.349
1383.5000	365.412
1384.0000	365.408
1384.5000	365.417
1385.0000	365.359
1385.5000	365.269
1386.0000	365.222
1386.5000	365.226
1387.0000	365.28
1387.5000	365.382
1388.0000	365.45
1388.5000	365.441
1389.0000	365.405
1389.5000	365.358
1390.0000	365.383
1390.5000	365.345
1391.0000	365.376
1391.5000	365.401
1392.0000	365.394
1392.5000	365.449
1393.0000	365.482
1393.5000	365.466
1394.0000	365.481
1394.5000	365.474
1395.0000	365.434
1395.5000	365.441
1396.0000	365.426
1396.5000	365.418
1397.0000	365.434
1397.5000	365.459
1398.0000	365.464
1398.5000	365.499
1399.0000	365.482
1399.5000	365.449
1400.0000	365.431
1400.5000	365.448
1401.0000	365.474
1401.5000	365.476
1402.0000	365.498
1402.5000	365.452
1403.0000	365.541
1403.5000	365.557
1404.0000	365.55
1404.5000	365.608
1405.0000	365.504
1405.5000	365.526
1406.0000	365.517
1406.5000	365.473
1407.0000	365.473
1407.5000	365.477
1408.0000	365.542
1408.5000	365.551
1409.0000	365.624
1409.5000	365.649
1410.0000	365.657
1410.5000	365.626
1411.0000	365.548
1411.5000	365.573
1412.0000	365.568
1412.5000	365.647
1413.0000	365.743
1413.5000	365.671
1414.0000	365.635
1414.5000	365.596
1415.0000	365.581
1415.5000	365.595
1416.0000	365.637
1416.5000	365.665
1417.0000	365.677
1417.5000	365.722
1418.0000	365.692
1418.5000	365.683
1419.0000	365.64
1419.5000	365.668
1420.0000	365.746
1420.5000	365.8
1421.0000	365.849
1421.5000	365.886
1422.0000	365.86
1422.5000	365.901
1423.0000	365.898
1423.5000	365.843
1424.0000	365.827
1424.5000	365.793
1425.0000	365.78
1425.5000	365.843
1426.0000	365.825
1426.5000	365.833
1427.0000	365.852
1427.5000	365.822
1428.0000	365.842
1428.5000	365.777
1429.0000	365.785
1429.5000	365.756
1430.0000	365.738
1430.5000	365.713
1431.0000	365.702
1431.5000	365.747
1432.0000	365.79
1432.5000	365.84
1433.0000	365.855
1433.5000	365.822
1434.0000	365.826
1434.5000	365.844
1435.0000	365.899
1435.5000	365.898
1436.0000	365.89
1436.5000	365.933
1437.0000	365.908
1437.5000	365.898
1438.0000	365.935
1438.5000	365.931
1439.0000	365.882
1439.5000	365.923
1440.0000	365.963
1440.5000	365.97
1441.0000	366.028
1441.5000	366.04
1442.0000	365.966
1442.5000	365.928
1443.0000	365.916
1443.5000	365.899
1444.0000	365.942
1444.5000	365.997
1445.0000	365.979
1445.5000	366.002
1446.0000	365.991
1446.5000	365.983
1447.0000	366.02
1447.5000	366.031
1448.0000	366.074
1448.5000	366.101
1449.0000	366.089
1449.5000	366.081
1450.0000	366.029
1450.5000	366.007
1451.0000	366.06
1451.5000	366.103
1452.0000	366.15
1452.5000	366.124
1453.0000	366.022
1453.5000	366.027
1454.0000	366.05
1454.5000	366.094
1455.0000	366.148
1455.5000	366.118
1456.0000	366.089
1456.5000	366.111
1457.0000	366.161
1457.5000	366.132
1458.0000	366.102
1458.5000	366.067
1459.0000	366.052
1459.5000	366.135
1460.0000	366.143
1460.5000	366.156
1461.0000	366.186
1461.5000	366.121
1462.0000	366.194
1462.5000	366.198
1463.0000	366.183
1463.5000	366.208
1464.0000	366.151
1464.5000	366.181
1465.0000	366.204
1465.5000	366.191
1466.0000	366.228
1466.5000	366.221
1467.0000	366.215
1467.5000	366.301
1468.0000	366.362
1468.5000	366.395
1469.0000	366.41
1469.5000	366.371
1470.0000	366.356
1470.5000	366.327
1471.0000	366.345
1471.5000	366.279
1472.0000	366.262
1472.5000	366.271
1473.0000	366.28
1473.5000	366.37
1474.0000	366.381
1474.5000	366.386
1475.0000	366.378
1475.5000	366.387
1476.0000	366.403
1476.5000	366.472
1477.0000	366.49
1477.5000	366.485
1478.0000	366.499
1478.5000	366.477
1479.0000	366.528
1479.5000	366.559
1480.0000	366.561
1480.5000	366.588
1481.0000	366.604
1481.5000	366.633
1482.0000	366.655
1482.5000	366.634
1483.0000	366.596
1483.5000	366.592
1484.0000	366.568
1484.5000	366.558
1485.0000	366.554
1485.5000	366.576
1486.0000	366.613
1486.5000	366.634
1487.0000	366.651
1487.5000	366.651
1488.0000	366.682
1488.5000	366.661
1489.0000	366.669
1489.5000	366.662
1490.0000	366.644
1490.5000	366.672
1491.0000	366.683
1491.5000	366.657
1492.0000	366.664
1492.5000	366.66
1493.0000	366.667
1493.5000	366.719
1494.0000	366.74
1494.5000	366.771
1495.0000	366.75
1495.5000	366.707
1496.0000	366.672
1496.5000	366.646
1497.0000	366.634
1497.5000	366.669
1498.0000	366.685
1498.5000	366.708
1499.0000	366.775
1499.5000	366.778
1500.0000	366.786
1500.5000	366.81
1501.0000	366.791
1501.5000	366.827
1502.0000	366.847
1502.5000	366.812
1503.0000	366.825
1503.5000	366.788
1504.0000	366.834
1504.5000	366.947
1505.0000	366.921
1505.5000	366.927
1506.0000	366.901
1506.5000	366.797
1507.0000	366.809
1507.5000	366.834
1508.0000	366.792
1508.5000	366.827
1509.0000	366.859
1509.5000	366.847
1510.0000	366.894
1510.5000	366.911
1511.0000	366.882
1511.5000	366.957
1512.0000	366.979
1512.5000	366.984
1513.0000	367.017
1513.5000	367.006
1514.0000	367.008
1514.5000	367.05
1515.0000	367.083
1515.5000	367.003
1516.0000	367.072
1516.5000	367.12
1517.0000	367.146
1517.5000	367.232
1518.0000	367.206
1518.5000	367.149
1519.0000	367.139
1519.5000	367.106
1520.0000	367.081
1520.5000	367.092
1521.0000	367.057
1521.5000	367.075
1522.0000	367.054
1522.5000	367.077
1523.0000	367.15
1523.5000	367.114
1524.0000	367.121
1524.5000	367.149
1525.0000	367.132
1525.5000	367.176
1526.0000	367.217
1526.5000	367.189
1527.0000	367.175
1527.5000	367.164
1528.0000	367.167
1528.5000	367.187
1529.0000	367.202
1529.5000	367.284
1530.0000	367.343
1530.5000	367.348
1531.0000	367.413
1531.5000	367.451
1532.0000	367.453
1532.5000	367.433
1533.0000	367.432
1533.5000	367.41
1534.0000	367.411
1534.5000	367.482
1535.0000	367.421
1535.5000	367.401
1536.0000	367.402
1536.5000	367.407
1537.0000	367.481
1537.5000	367.486
1538.0000	367.515
1538.5000	367.506
1539.0000	367.524
1539.5000	367.538
1540.0000	367.5
1540.5000	367.482
1541.0000	367.441
1541.5000	367.483
1542.0000	367.553
1542.5000	367.577
1543.0000	367.662
1543.5000	367.685
1544.0000	367.676
1544.5000	367.663
1545.0000	367.67
1545.5000	367.661
1546.0000	367.652
1546.5000	367.713
1547.0000	367.711
1547.5000	367.749
1548.0000	367.792
1548.5000	367.753
1549.0000	367.722
1549.5000	367.674
1550.0000	367.636
1550.5000	367.683
1551.0000	367.686
1551.5000	367.711
1552.0000	367.715
1552.5000	367.685
1553.0000	367.724
1553.5000	367.756
1554.0000	367.78
1554.5000	367.872
1555.0000	367.863
1555.5000	367.845
1556.0000	367.859
1556.5000	367.874
1557.0000	367.835
1557.5000	367.81
1558.0000	367.789
1558.5000	367.75
1559.0000	367.768
1559.5000	367.829
1560.0000	367.877
1560.5000	367.914
1561.0000	367.974
1561.5000	367.95
1562.0000	367.957
1562.5000	367.939
1563.0000	367.919
1563.5000	367.963
1564.0000	367.936
1564.5000	367.974
1565.0000	368.05
1565.5000	368.041
1566.0000	368.078
1566.5000	368.066
1567.0000	368.091
1567.5000	368.098
1568.0000	368.119
1568.5000	368.175
1569.0000	368.163
1569.5000	368.216
1570.0000	368.202
1570.5000	368.121
1571.0000	368.117
1571.5000	368.113
1572.0000	368.143
1572.5000	368.166
1573.0000	368.183
1573.5000	368.192
1574.0000	368.229
1574.5000	368.246
1575.0000	368.24
1575.5000	368.23
1576.0000	368.247
1576.5000	368.32
1577.0000	368.321
1577.5000	368.368
1578.0000	368.385
1578.5000	368.374
1579.0000	368.416
1579.5000	368.378
1580.0000	368.369
1580.5000	368.385
1581.0000	368.372
1581.5000	368.466
1582.0000	368.495
1582.5000	368.467
1583.0000	368.483
1583.5000	368.457
1584.0000	368.437
1584.5000	368.45
1585.0000	368.439
1585.5000	368.429
1586.0000	368.436
1586.5000	368.46
1587.0000	368.464
1587.5000	368.492
1588.0000	368.52
1588.5000	368.614
1589.0000	368.686
1589.5000	368.717
1590.0000	368.719
1590.5000	368.66
1591.0000	368.652
1591.5000	368.642
1592.0000	368.675
1592.5000	368.728
1593.0000	368.774
1593.5000	368.835
1594.0000	368.865
1594.5000	368.825
1595.0000	368.756
1595.5000	368.763
1596.0000	368.776
1596.5000	368.811
1597.0000	368.964
1597.5000	368.995
1598.0000	368.948
1598.5000	368.955
1599.0000	368.918
1599.5000	368.918
1600.0000	368.969
1600.5000	369.009
1601.0000	368.986
1601.5000	368.924
1602.0000	368.899
1602.5000	368.91
1603.0000	368.933
1603.5000	368.978
1604.0000	369.062
1604.5000	369.092
1605.0000	369.043
1605.5000	369.085
1606.0000	369.101
1606.5000	369.077
1607.0000	369.137
1607.5000	369.14
1608.0000	369.077
1608.5000	369.067
1609.0000	369.061
1609.5000	369.078
1610.0000	369.189
1610.5000	369.269
1611.0000	369.269
1611.5000	369.269
1612.0000	369.244
1612.5000	369.242
1613.0000	369.302
1613.5000	369.333
1614.0000	369.273
1614.5000	369.261
1615.0000	369.285
1615.5000	369.221
1616.0000	369.251
1616.5000	369.268
1617.0000	369.209
1617.5000	369.248
1618.0000	369.276
1618.5000	369.314
1619.0000	369.375
1619.5000	369.394
1620.0000	369.391
1620.5000	369.38
1621.0000	369.366
1621.5000	369.423
1622.0000	369.486
1622.5000	369.531
1623.0000	369.555
1623.5000	369.576
1624.0000	369.597
1624.5000	369.569
1625.0000	369.607
1625.5000	369.591
1626.0000	369.554
1626.5000	369.541
1627.0000	369.494
1627.5000	369.494
1628.0000	369.504
1628.5000	369.535
1629.0000	369.549
1629.5000	369.56
1630.0000	369.619
1630.5000	369.626
1631.0000	369.652
1631.5000	369.656
1632.0000	369.636
1632.5000	369.695
1633.0000	369.678
1633.5000	369.731
1634.0000	369.788
1634.5000	369.76
1635.0000	369.849
1635.5000	369.828
1636.0000	369.841
1636.5000	369.87
1637.0000	369.884
1637.5000	369.85
1638.0000	369.836
1638.5000	369.871
1639.0000	369.851
1639.5000	369.887
1640.0000	369.887
1640.5000	369.89
1641.0000	369.903
1641.5000	369.915
1642.0000	369.909
1642.5000	369.945
1643.0000	369.983
1643.5000	370.018
1644.0000	370.062
1644.5000	370.045
1645.0000	370.061
1645.5000	370.038
1646.0000	369.981
1646.5000	369.96
1647.0000	369.959
1647.5000	370.012
1648.0000	370.064
1648.5000	370.063
1649.0000	370.034
1649.5000	369.985
1650.0000	369.978
1650.5000	370.023
1651.0000	370.014
1651.5000	370.052
1652.0000	370.069
1652.5000	370.015
1653.0000	370.069
1653.5000	370.129
1654.0000	370.145
1654.5000	370.175
1655.0000	370.119
1655.5000	370.074
1656.0000	370.053
1656.5000	370.109
1657.0000	370.145
1657.5000	370.155
1658.0000	370.181
1658.5000	370.159
1659.0000	370.135
1659.5000	370.209
1660.0000	370.221
1660.5000	370.195
1661.0000	370.263
1661.5000	370.206
1662.0000	370.276
1662.5000	370.29
1663.0000	370.339
1663.5000	370.314
1664.0000	370.241
1664.5000	370.213
1665.0000	370.2
1665.5000	370.268
1666.0000	370.261
1666.5000	370.331
1667.0000	370.27
1667.5000	370.228
1668.0000	370.313
1668.5000	370.325
1669.0000	370.339
1669.5000	370.341
1670.0000	370.295
1670.5000	370.235
1671.0000	370.229
1671.5000	370.22
1672.0000	370.186
1672.5000	370.255
1673.0000	370.289
1673.5000	370.3
1674.0000	370.299
1674.5000	370.341
1675.0000	370.39
1675.5000	370.422
1676.0000	370.452
1676.5000	370.433
1677.0000	370.38
1677.5000	370.399
1678.0000	370.405
1678.5000	370.372
1679.0000	370.325
1679.5000	370.376
1680.0000	370.409
1680.5000	370.384
1681.0000	370.478
1681.5000	370.375
1682.0000	370.369
1682.5000	370.423
1683.0000	370.399
1683.5000	370.447
1684.0000	370.444
1684.5000	370.448
1685.0000	370.439
1685.5000	370.486
1686.0000	370.473
1686.5000	370.435
1687.0000	370.443
1687.5000	370.403
1688.0000	370.406
1688.5000	370.475
1689.0000	370.432
1689.5000	370.409
1690.0000	370.457
1690.5000	370.402
1691.0000	370.506
1691.5000	370.552
1692.0000	370.542
1692.5000	370.596
1693.0000	370.572
1693.5000	370.54
1694.0000	370.513
1694.5000	370.48
1695.0000	370.464
1695.5000	370.547
1696.0000	370.591
1696.5000	370.611
1697.0000	370.652
1697.5000	370.689
1698.0000	370.678
1698.5000	370.65
1699.0000	370.641
1699.5000	370.517
1700.0000	370.505
1700.5000	370.521
