TITLE	
DATA TYPE	
ORIGIN	JASCO
OWNER	
DATE	22/08/25
TIME	10:48:38
SPECTROMETER/DATA SYSTEM	
RESOLUTION	
DELTAX	0.5
XUNITS	SEC
YUNITS	INTENSITY
FIRSTX	0.0000
LASTX	1570.5000
NPOINTS	3142
FIRSTY	352.40616
MAXY	376.02350
MINY	-103.63776
XYDATA
0.0000	352.406
0.5000	352.354
1.0000	352.3
1.5000	352.2
2.0000	352.221
2.5000	352.22
3.0000	352.192
3.5000	352.211
4.0000	352.207
4.5000	352.125
5.0000	352.15
5.5000	352.073
6.0000	351.985
6.5000	351.988
7.0000	351.947
7.5000	351.982
8.0000	351.979
8.5000	351.934
9.0000	351.923
9.5000	351.89
10.0000	351.881
10.5000	351.888
11.0000	351.739
11.5000	351.705
12.0000	351.63
12.5000	351.534
13.0000	351.605
13.5000	351.558
14.0000	351.517
14.5000	351.513
15.0000	351.493
15.5000	351.44
16.0000	351.422
16.5000	351.354
17.0000	351.254
17.5000	351.21
18.0000	351.187
18.5000	351.169
19.0000	351.166
19.5000	351.16
20.0000	351.157
20.5000	351.068
21.0000	350.982
21.5000	350.94
22.0000	350.816
22.5000	350.868
23.0000	350.855
23.5000	350.836
24.0000	350.825
24.5000	350.742
25.0000	350.738
25.5000	346.929
26.0000	335.332
26.5000	315.612
27.0000	250.479
27.5000	-103.638
28.0000	-46.2121
28.5000	-35.2514
29.0000	-32.2171
29.5000	-30.773
30.0000	-29.8864
30.5000	-29.2055
31.0000	-28.9042
31.5000	-28.5175
32.0000	-28.2653
32.5000	-28.1481
33.0000	-27.7447
33.5000	-27.5176
34.0000	-27.3054
34.5000	-26.9593
35.0000	-26.8305
35.5000	226.204
36.0000	200.415
36.5000	194.548
37.0000	191.866
37.5000	175.188
38.0000	175.116
38.5000	175.125
39.0000	175.277
39.5000	175.495
40.0000	175.768
40.5000	176.117
41.0000	176.436
41.5000	176.76
42.0000	177.029
42.5000	177.323
43.0000	177.634
43.5000	177.922
44.0000	178.248
44.5000	178.543
45.0000	178.86
45.5000	179.224
46.0000	179.52
46.5000	179.806
47.0000	180.077
47.5000	180.332
48.0000	180.633
48.5000	180.947
49.0000	181.247
49.5000	181.543
50.0000	181.854
50.5000	182.111
51.0000	182.407
51.5000	182.686
52.0000	182.955
52.5000	183.267
53.0000	183.597
53.5000	183.898
54.0000	184.188
54.5000	184.474
55.0000	184.729
55.5000	185.019
56.0000	185.324
56.5000	185.594
57.0000	185.846
57.5000	186.131
58.0000	186.383
58.5000	186.651
59.0000	186.948
59.5000	187.209
60.0000	187.457
60.5000	187.783
61.0000	188.081
61.5000	188.39
62.0000	188.73
62.5000	188.995
63.0000	189.234
63.5000	189.49
64.0000	189.76
64.5000	190.011
65.0000	190.321
65.5000	190.59
66.0000	190.85
66.5000	191.148
67.0000	191.425
67.5000	191.713
68.0000	192.004
68.5000	192.26
69.0000	192.544
69.5000	192.85
70.0000	193.104
70.5000	193.404
71.0000	193.654
71.5000	193.868
72.0000	194.144
72.5000	194.396
73.0000	194.659
73.5000	194.955
74.0000	195.252
74.5000	195.513
75.0000	195.797
75.5000	196.077
76.0000	196.339
76.5000	196.612
77.0000	196.864
77.5000	197.096
78.0000	197.344
78.5000	197.634
79.0000	197.916
79.5000	198.164
80.0000	198.441
80.5000	198.658
81.0000	198.922
81.5000	199.195
82.0000	199.409
82.5000	199.676
83.0000	199.932
83.5000	200.201
84.0000	200.473
84.5000	200.768
85.0000	201.033
85.5000	201.296
86.0000	201.571
86.5000	201.787
87.0000	202.019
87.5000	202.286
88.0000	202.513
88.5000	202.782
89.0000	203.055
89.5000	203.294
90.0000	203.561
90.5000	203.836
91.0000	204.084
91.5000	204.335
92.0000	204.619
92.5000	204.879
93.0000	205.132
93.5000	205.413
94.0000	205.635
94.5000	205.874
95.0000	206.131
95.5000	206.36
96.0000	206.612
96.5000	206.845
97.0000	207.083
97.5000	207.34
98.0000	207.63
98.5000	207.908
99.0000	208.18
99.5000	208.44
100.0000	208.694
100.5000	208.946
101.0000	209.182
101.5000	209.429
102.0000	209.645
102.5000	209.872
103.0000	210.115
103.5000	210.351
104.0000	210.627
104.5000	210.884
105.0000	211.107
105.5000	211.375
106.0000	211.577
106.5000	211.829
107.0000	212.114
107.5000	212.328
108.0000	212.591
108.5000	212.829
109.0000	213.082
109.5000	213.316
110.0000	213.538
110.5000	213.782
111.0000	214.009
111.5000	214.273
112.0000	214.511
112.5000	214.698
113.0000	214.936
113.5000	215.162
114.0000	215.395
114.5000	215.657
115.0000	215.891
115.5000	216.141
116.0000	216.392
116.5000	216.654
117.0000	216.897
117.5000	217.14
118.0000	217.367
118.5000	217.581
119.0000	217.797
119.5000	218.023
120.0000	218.236
120.5000	218.462
121.0000	218.699
121.5000	218.917
122.0000	219.173
122.5000	219.389
123.0000	219.626
123.5000	219.875
124.0000	220.098
124.5000	220.334
125.0000	220.542
125.5000	220.717
126.0000	220.951
126.5000	221.2
127.0000	221.429
127.5000	221.676
128.0000	221.884
128.5000	222.106
129.0000	222.323
129.5000	222.558
130.0000	222.778
130.5000	222.993
131.0000	223.203
131.5000	223.423
132.0000	223.688
132.5000	223.911
133.0000	224.17
133.5000	224.374
134.0000	224.581
134.5000	224.835
135.0000	225.035
135.5000	225.248
136.0000	225.484
136.5000	225.67
137.0000	225.894
137.5000	226.115
138.0000	226.332
138.5000	226.548
139.0000	226.769
139.5000	227
140.0000	227.179
140.5000	227.406
141.0000	227.639
141.5000	227.861
142.0000	228.08
142.5000	228.296
143.0000	228.512
143.5000	228.75
144.0000	228.966
144.5000	229.162
145.0000	229.365
145.5000	229.512
146.0000	229.715
146.5000	229.929
147.0000	230.1
147.5000	230.33
148.0000	230.559
148.5000	230.786
149.0000	231.012
149.5000	231.225
150.0000	231.384
150.5000	231.565
151.0000	231.78
151.5000	231.985
152.0000	232.247
152.5000	232.468
153.0000	232.706
153.5000	232.962
154.0000	233.16
154.5000	233.384
155.0000	233.556
155.5000	233.725
156.0000	233.93
156.5000	234.092
157.0000	234.287
157.5000	234.462
158.0000	234.642
158.5000	234.875
159.0000	235.091
159.5000	235.32
160.0000	235.533
160.5000	235.735
161.0000	235.942
161.5000	236.147
162.0000	236.323
162.5000	236.553
163.0000	236.739
163.5000	236.932
164.0000	237.187
164.5000	237.319
165.0000	237.555
165.5000	237.782
166.0000	237.983
166.5000	238.211
167.0000	238.389
167.5000	238.564
168.0000	238.725
168.5000	238.892
169.0000	239.063
169.5000	239.217
170.0000	239.425
170.5000	239.658
171.0000	239.864
171.5000	240.109
172.0000	240.3
172.5000	240.49
173.0000	240.674
173.5000	240.85
174.0000	241.052
174.5000	241.226
175.0000	241.458
175.5000	241.61
176.0000	241.784
176.5000	241.999
177.0000	242.195
177.5000	242.427
178.0000	242.591
178.5000	242.728
179.0000	242.835
179.5000	243.025
180.0000	243.24
180.5000	243.465
181.0000	243.68
181.5000	243.826
182.0000	244.015
182.5000	244.214
183.0000	244.392
183.5000	244.607
184.0000	244.749
184.5000	244.881
185.0000	245.104
185.5000	245.302
186.0000	245.478
186.5000	245.65
187.0000	245.806
187.5000	245.979
188.0000	246.201
188.5000	246.44
189.0000	246.603
189.5000	246.77
190.0000	246.925
190.5000	247.081
191.0000	247.284
191.5000	247.431
192.0000	247.657
192.5000	247.819
193.0000	247.995
193.5000	248.225
194.0000	248.349
194.5000	248.513
195.0000	248.707
195.5000	248.89
196.0000	249.098
196.5000	249.296
197.0000	249.419
197.5000	249.548
198.0000	249.703
198.5000	249.889
199.0000	250.092
199.5000	250.281
200.0000	250.463
200.5000	250.629
201.0000	250.82
201.5000	250.962
202.0000	251.137
202.5000	251.322
203.0000	251.488
203.5000	251.703
204.0000	251.884
204.5000	252.037
205.0000	252.188
205.5000	252.329
206.0000	252.495
206.5000	252.685
207.0000	252.844
207.5000	253.061
208.0000	253.247
208.5000	253.46
209.0000	253.695
209.5000	253.831
210.0000	254.018
210.5000	254.195
211.0000	254.374
211.5000	254.562
212.0000	254.688
212.5000	254.813
213.0000	254.943
213.5000	255.122
214.0000	255.282
214.5000	255.476
215.0000	255.648
215.5000	255.818
216.0000	256.002
216.5000	256.193
217.0000	256.372
217.5000	256.563
218.0000	256.748
218.5000	256.894
219.0000	257.053
219.5000	257.152
220.0000	257.284
220.5000	257.437
221.0000	257.568
221.5000	257.811
222.0000	257.991
222.5000	258.107
223.0000	258.293
223.5000	258.44
224.0000	258.596
224.5000	258.795
225.0000	258.959
225.5000	259.105
226.0000	259.256
226.5000	259.381
227.0000	259.542
227.5000	259.697
228.0000	259.876
228.5000	260.073
229.0000	260.2
229.5000	260.384
230.0000	260.565
230.5000	260.72
231.0000	260.943
231.5000	261.096
232.0000	261.262
232.5000	261.372
233.0000	261.471
233.5000	261.626
234.0000	261.777
234.5000	261.974
235.0000	262.096
235.5000	262.223
236.0000	262.355
236.5000	262.514
237.0000	262.713
237.5000	262.888
238.0000	263.059
238.5000	263.199
239.0000	263.373
239.5000	263.5
240.0000	263.609
240.5000	263.773
241.0000	263.916
241.5000	264.052
242.0000	264.217
242.5000	264.379
243.0000	264.517
243.5000	264.689
244.0000	264.874
244.5000	265.021
245.0000	265.197
245.5000	265.316
246.0000	265.492
246.5000	265.654
247.0000	265.766
247.5000	265.949
248.0000	266.08
248.5000	266.207
249.0000	266.358
249.5000	266.507
250.0000	266.594
250.5000	266.733
251.0000	266.914
251.5000	267.09
252.0000	267.293
252.5000	267.449
253.0000	267.63
253.5000	267.718
254.0000	267.852
254.5000	268.023
255.0000	268.141
255.5000	268.305
256.0000	268.436
256.5000	268.553
257.0000	268.695
257.5000	268.854
258.0000	268.979
258.5000	269.136
259.0000	269.297
259.5000	269.478
260.0000	269.642
260.5000	269.79
261.0000	269.931
261.5000	270.03
262.0000	270.19
262.5000	270.361
263.0000	270.474
263.5000	270.627
264.0000	270.763
264.5000	270.913
265.0000	271.061
265.5000	271.213
266.0000	271.349
266.5000	271.461
267.0000	271.617
267.5000	271.69
268.0000	271.833
268.5000	271.927
269.0000	272.048
269.5000	272.256
270.0000	272.376
270.5000	272.509
271.0000	272.648
271.5000	272.748
272.0000	272.899
272.5000	273.112
273.0000	273.224
273.5000	273.346
274.0000	273.461
274.5000	273.558
275.0000	273.69
275.5000	273.867
276.0000	274.054
276.5000	274.185
277.0000	274.296
277.5000	274.445
278.0000	274.571
278.5000	274.672
279.0000	274.89
279.5000	274.966
280.0000	275.064
280.5000	275.192
281.0000	275.292
281.5000	275.465
282.0000	275.603
282.5000	275.774
283.0000	275.893
283.5000	276.072
284.0000	276.211
284.5000	276.36
285.0000	276.532
285.5000	276.611
286.0000	276.755
286.5000	276.884
287.0000	276.988
287.5000	277.133
288.0000	277.28
288.5000	277.373
289.0000	277.517
289.5000	277.603
290.0000	277.717
290.5000	277.882
291.0000	278.006
291.5000	278.137
292.0000	278.227
292.5000	278.327
293.0000	278.448
293.5000	278.606
294.0000	278.773
294.5000	278.894
295.0000	279.034
295.5000	279.131
296.0000	279.262
296.5000	279.411
297.0000	279.472
297.5000	279.607
298.0000	279.72
298.5000	279.82
299.0000	279.978
299.5000	280.124
300.0000	280.268
300.5000	280.402
301.0000	280.525
301.5000	280.588
302.0000	280.648
302.5000	280.754
303.0000	280.898
303.5000	281.081
304.0000	281.231
304.5000	281.361
305.0000	281.492
305.5000	281.591
306.0000	281.718
306.5000	281.87
307.0000	281.921
307.5000	282.003
308.0000	282.129
308.5000	282.231
309.0000	282.406
309.5000	282.581
310.0000	282.72
310.5000	282.838
311.0000	282.955
311.5000	283.053
312.0000	283.17
312.5000	283.288
313.0000	283.391
313.5000	283.531
314.0000	283.609
314.5000	283.708
315.0000	283.852
315.5000	283.944
316.0000	284.046
316.5000	284.158
317.0000	284.238
317.5000	284.353
318.0000	284.502
318.5000	284.646
319.0000	284.798
319.5000	284.92
320.0000	285.075
320.5000	285.169
321.0000	285.261
321.5000	285.304
322.0000	285.377
322.5000	285.5
323.0000	285.629
323.5000	285.846
324.0000	285.955
324.5000	286.111
325.0000	286.252
325.5000	286.323
326.0000	286.444
326.5000	286.541
327.0000	286.639
327.5000	286.755
328.0000	286.879
328.5000	286.985
329.0000	287.091
329.5000	287.235
330.0000	287.306
330.5000	287.38
331.0000	287.494
331.5000	287.635
332.0000	287.791
332.5000	287.93
333.0000	288.029
333.5000	288.12
334.0000	288.197
334.5000	288.311
335.0000	288.448
335.5000	288.574
336.0000	288.645
336.5000	288.744
337.0000	288.819
337.5000	288.913
338.0000	289.054
338.5000	289.182
339.0000	289.328
339.5000	289.432
340.0000	289.578
340.5000	289.658
341.0000	289.734
341.5000	289.827
342.0000	289.933
342.5000	290.071
343.0000	290.217
343.5000	290.323
344.0000	290.417
344.5000	290.512
345.0000	290.606
345.5000	290.695
346.0000	290.801
346.5000	290.914
347.0000	290.99
347.5000	291.113
348.0000	291.241
348.5000	291.327
349.0000	291.44
349.5000	291.54
350.0000	291.645
350.5000	291.725
351.0000	291.826
351.5000	291.931
352.0000	292.027
352.5000	292.171
353.0000	292.259
353.5000	292.361
354.0000	292.467
354.5000	292.572
355.0000	292.711
355.5000	292.798
356.0000	292.917
356.5000	292.939
357.0000	292.998
357.5000	293.142
358.0000	293.189
358.5000	293.351
359.0000	293.503
359.5000	293.585
360.0000	293.684
360.5000	293.809
361.0000	293.858
361.5000	293.929
362.0000	294.073
362.5000	294.144
363.0000	294.294
363.5000	294.419
364.0000	294.486
364.5000	294.638
365.0000	294.736
365.5000	294.819
366.0000	294.921
366.5000	294.989
367.0000	295.052
367.5000	295.172
368.0000	295.285
368.5000	295.383
369.0000	295.489
369.5000	295.586
370.0000	295.68
370.5000	295.738
371.0000	295.825
371.5000	295.936
372.0000	296.109
372.5000	296.237
373.0000	296.328
373.5000	296.413
374.0000	296.464
374.5000	296.589
375.0000	296.651
375.5000	296.721
376.0000	296.798
376.5000	296.856
377.0000	297.002
377.5000	297.163
378.0000	297.235
378.5000	297.331
379.0000	297.414
379.5000	297.451
380.0000	297.609
380.5000	297.737
381.0000	297.81
381.5000	297.905
382.0000	297.98
382.5000	298.069
383.0000	298.154
383.5000	298.233
384.0000	298.247
384.5000	298.318
385.0000	298.455
385.5000	298.571
386.0000	298.738
386.5000	298.825
387.0000	298.928
387.5000	299.013
388.0000	299.109
388.5000	299.24
389.0000	299.312
389.5000	299.378
390.0000	299.45
390.5000	299.495
391.0000	299.574
391.5000	299.746
392.0000	299.817
392.5000	299.866
393.0000	300.019
393.5000	300.046
394.0000	300.103
394.5000	300.219
395.0000	300.297
395.5000	300.386
396.0000	300.498
396.5000	300.673
397.0000	300.77
397.5000	300.852
398.0000	300.938
398.5000	300.996
399.0000	301.025
399.5000	301.128
400.0000	301.234
400.5000	301.295
401.0000	301.391
401.5000	301.475
402.0000	301.581
402.5000	301.701
403.0000	301.793
403.5000	301.866
404.0000	301.931
404.5000	301.987
405.0000	302.068
405.5000	302.143
406.0000	302.272
406.5000	302.35
407.0000	302.47
407.5000	302.609
408.0000	302.653
408.5000	302.744
409.0000	302.779
409.5000	302.843
410.0000	302.899
410.5000	302.961
411.0000	303.088
411.5000	303.176
412.0000	303.317
412.5000	303.395
413.0000	303.447
413.5000	303.526
414.0000	303.588
414.5000	303.722
415.0000	303.837
415.5000	303.953
416.0000	304.089
416.5000	304.13
417.0000	304.202
417.5000	304.257
418.0000	304.304
418.5000	304.441
419.0000	304.482
419.5000	304.579
420.0000	304.672
420.5000	304.717
421.0000	304.874
421.5000	304.889
422.0000	304.965
422.5000	305.029
423.0000	305.08
423.5000	305.199
424.0000	305.265
424.5000	305.36
425.0000	305.463
425.5000	305.567
426.0000	305.628
426.5000	305.733
427.0000	305.813
427.5000	305.878
428.0000	305.936
428.5000	306.031
429.0000	306.092
429.5000	306.208
430.0000	306.333
430.5000	306.354
431.0000	306.48
431.5000	306.495
432.0000	306.559
432.5000	306.617
433.0000	306.68
433.5000	306.785
434.0000	306.848
434.5000	306.984
435.0000	307.019
435.5000	307.083
436.0000	307.157
436.5000	307.228
437.0000	307.298
437.5000	307.407
438.0000	307.532
438.5000	307.57
439.0000	307.69
439.5000	307.753
440.0000	307.807
440.5000	307.937
441.0000	307.969
441.5000	308.048
442.0000	308.149
442.5000	308.224
443.0000	308.349
443.5000	308.412
444.0000	308.452
444.5000	308.526
445.0000	308.563
445.5000	308.654
446.0000	308.725
446.5000	308.826
447.0000	308.928
447.5000	308.96
448.0000	309.039
448.5000	309.064
449.0000	309.15
449.5000	309.274
450.0000	309.357
450.5000	309.444
451.0000	309.522
451.5000	309.621
452.0000	309.73
452.5000	309.862
453.0000	309.882
453.5000	309.957
454.0000	309.988
454.5000	310.018
455.0000	310.153
455.5000	310.217
456.0000	310.343
456.5000	310.444
457.0000	310.471
457.5000	310.523
458.0000	310.569
458.5000	310.62
459.0000	310.717
459.5000	310.821
460.0000	310.931
460.5000	311.02
461.0000	311.088
461.5000	311.133
462.0000	311.208
462.5000	311.278
463.0000	311.405
463.5000	311.477
464.0000	311.539
464.5000	311.642
465.0000	311.678
465.5000	311.778
466.0000	311.82
466.5000	311.901
467.0000	311.933
467.5000	312.001
468.0000	312.111
468.5000	312.151
469.0000	312.287
469.5000	312.345
470.0000	312.386
470.5000	312.442
471.0000	312.508
471.5000	312.577
472.0000	312.67
472.5000	312.785
473.0000	312.804
473.5000	312.913
474.0000	312.995
474.5000	313.033
475.0000	313.125
475.5000	313.16
476.0000	313.228
476.5000	313.298
477.0000	313.399
477.5000	313.482
478.0000	313.517
478.5000	313.608
479.0000	313.67
479.5000	313.746
480.0000	313.848
480.5000	313.931
481.0000	313.999
481.5000	314.059
482.0000	314.1
482.5000	314.153
483.0000	314.217
483.5000	314.318
484.0000	314.433
484.5000	314.492
485.0000	314.505
485.5000	314.55
486.0000	314.594
486.5000	314.663
487.0000	314.799
487.5000	314.877
488.0000	314.962
488.5000	315.017
489.0000	315.096
489.5000	315.171
490.0000	315.269
490.5000	315.342
491.0000	315.394
491.5000	315.444
492.0000	315.447
492.5000	315.501
493.0000	315.569
493.5000	315.622
494.0000	315.68
494.5000	315.74
495.0000	315.779
495.5000	315.918
496.0000	315.985
496.5000	316.089
497.0000	316.102
497.5000	316.109
498.0000	316.166
498.5000	316.169
499.0000	316.283
499.5000	316.331
500.0000	316.47
500.5000	316.515
501.0000	316.606
501.5000	316.674
502.0000	316.695
502.5000	316.806
503.0000	316.863
503.5000	316.934
504.0000	317.064
504.5000	317.176
505.0000	317.268
505.5000	317.324
506.0000	317.352
506.5000	317.43
507.0000	317.503
507.5000	317.544
508.0000	317.583
508.5000	317.589
509.0000	317.663
509.5000	317.779
510.0000	317.855
510.5000	317.912
511.0000	317.981
511.5000	318.045
512.0000	318.06
512.5000	318.133
513.0000	318.119
513.5000	318.185
514.0000	318.224
514.5000	318.307
515.0000	318.437
515.5000	318.471
516.0000	318.538
516.5000	318.601
517.0000	318.62
517.5000	318.716
518.0000	318.828
518.5000	318.826
519.0000	318.867
519.5000	318.916
520.0000	318.993
520.5000	319.12
521.0000	319.248
521.5000	319.26
522.0000	319.332
522.5000	319.398
523.0000	319.445
523.5000	319.564
524.0000	319.617
524.5000	319.658
525.0000	319.711
525.5000	319.788
526.0000	319.845
526.5000	319.946
527.0000	319.934
527.5000	319.937
528.0000	320.028
528.5000	320.08
529.0000	320.214
529.5000	320.276
530.0000	320.316
530.5000	320.395
531.0000	320.522
531.5000	320.663
532.0000	320.735
532.5000	320.729
533.0000	320.763
533.5000	320.819
534.0000	320.907
534.5000	321.053
535.0000	321.079
535.5000	321.09
536.0000	321.115
536.5000	321.152
537.0000	321.215
537.5000	321.318
538.0000	321.425
538.5000	321.455
539.0000	321.52
539.5000	321.612
540.0000	321.627
540.5000	321.699
541.0000	321.776
541.5000	321.743
542.0000	321.807
542.5000	321.833
543.0000	321.873
543.5000	322.031
544.0000	322.115
544.5000	322.246
545.0000	322.338
545.5000	322.386
546.0000	322.447
546.5000	322.528
547.0000	322.559
547.5000	322.602
548.0000	322.703
548.5000	322.735
549.0000	322.799
549.5000	322.878
550.0000	322.905
550.5000	323.022
551.0000	323.132
551.5000	323.183
552.0000	323.26
552.5000	323.293
553.0000	323.31
553.5000	323.356
554.0000	323.401
554.5000	323.466
555.0000	323.555
555.5000	323.613
556.0000	323.67
556.5000	323.746
557.0000	323.777
557.5000	323.869
558.0000	323.908
558.5000	323.919
559.0000	324.004
559.5000	324.09
560.0000	324.203
560.5000	324.311
561.0000	324.337
561.5000	324.356
562.0000	324.375
562.5000	324.408
563.0000	324.481
563.5000	324.574
564.0000	324.681
564.5000	324.725
565.0000	324.796
565.5000	324.846
566.0000	324.954
566.5000	325.013
567.0000	325.099
567.5000	325.15
568.0000	325.168
568.5000	325.268
569.0000	325.37
569.5000	325.42
570.0000	325.451
570.5000	325.527
571.0000	325.58
571.5000	325.64
572.0000	325.706
572.5000	325.79
573.0000	325.811
573.5000	325.881
574.0000	325.971
574.5000	326.011
575.0000	326.107
575.5000	326.283
576.0000	326.305
576.5000	326.365
577.0000	326.406
577.5000	326.408
578.0000	326.531
578.5000	326.55
579.0000	326.637
579.5000	326.638
580.0000	326.693
580.5000	326.754
581.0000	326.77
581.5000	326.886
582.0000	326.936
582.5000	327.061
583.0000	327.192
583.5000	327.249
584.0000	327.321
584.5000	327.373
585.0000	327.4
585.5000	327.445
586.0000	327.477
586.5000	327.544
587.0000	327.626
587.5000	327.728
588.0000	327.789
588.5000	327.899
589.0000	327.944
589.5000	327.996
590.0000	328.091
590.5000	328.082
591.0000	328.135
591.5000	328.192
592.0000	328.263
592.5000	328.349
593.0000	328.498
593.5000	328.601
594.0000	328.67
594.5000	328.706
595.0000	328.732
595.5000	328.768
596.0000	328.816
596.5000	329.005
597.0000	329.044
597.5000	329.129
598.0000	329.212
598.5000	329.23
599.0000	329.325
599.5000	329.354
600.0000	329.41
600.5000	329.409
601.0000	329.498
601.5000	329.589
602.0000	329.67
602.5000	329.749
603.0000	329.789
603.5000	329.881
604.0000	329.969
604.5000	330.109
605.0000	330.167
605.5000	330.212
606.0000	330.273
606.5000	330.295
607.0000	330.358
607.5000	330.438
608.0000	330.52
608.5000	330.616
609.0000	330.731
609.5000	330.804
610.0000	330.845
610.5000	330.929
611.0000	330.954
611.5000	331.008
612.0000	331.059
612.5000	331.131
613.0000	331.221
613.5000	331.318
614.0000	331.415
614.5000	331.448
615.0000	331.54
615.5000	331.645
616.0000	331.739
616.5000	331.833
617.0000	331.864
617.5000	331.887
618.0000	331.899
618.5000	331.966
619.0000	332.121
619.5000	332.233
620.0000	332.361
620.5000	332.432
621.0000	332.424
621.5000	332.483
622.0000	332.553
622.5000	332.695
623.0000	332.805
623.5000	332.855
624.0000	332.941
624.5000	332.951
625.0000	333.004
625.5000	333.116
626.0000	333.142
626.5000	333.259
627.0000	333.323
627.5000	333.339
628.0000	333.456
628.5000	333.447
629.0000	333.552
629.5000	333.676
630.0000	333.71
630.5000	333.818
631.0000	333.904
631.5000	333.973
632.0000	334.058
632.5000	334.163
633.0000	334.202
633.5000	334.27
634.0000	334.375
634.5000	334.429
635.0000	334.537
635.5000	334.649
636.0000	334.724
636.5000	334.817
637.0000	334.943
637.5000	334.989
638.0000	335.073
638.5000	335.121
639.0000	335.116
639.5000	335.184
640.0000	335.252
640.5000	335.321
641.0000	335.43
641.5000	335.503
642.0000	335.558
642.5000	335.692
643.0000	335.738
643.5000	335.857
644.0000	335.998
644.5000	336
645.0000	336.133
645.5000	336.178
646.0000	336.24
646.5000	336.375
647.0000	336.459
647.5000	336.559
648.0000	336.676
648.5000	336.779
649.0000	336.886
649.5000	337
650.0000	337.041
650.5000	337.07
651.0000	337.16
651.5000	337.212
652.0000	337.368
652.5000	337.466
653.0000	337.533
653.5000	337.652
654.0000	337.682
654.5000	337.754
655.0000	337.837
655.5000	337.894
656.0000	337.991
656.5000	338.113
657.0000	338.183
657.5000	338.214
658.0000	338.267
658.5000	338.397
659.0000	338.523
659.5000	338.68
660.0000	338.816
660.5000	338.841
661.0000	338.904
661.5000	338.977
662.0000	339.011
662.5000	339.176
663.0000	339.286
663.5000	339.356
664.0000	339.45
664.5000	339.456
665.0000	339.536
665.5000	339.665
666.0000	339.78
666.5000	339.888
667.0000	339.96
667.5000	340.021
668.0000	340.121
668.5000	340.19
669.0000	340.293
669.5000	340.416
670.0000	340.465
670.5000	340.615
671.0000	340.721
671.5000	340.81
672.0000	340.938
672.5000	340.994
673.0000	341.067
673.5000	341.189
674.0000	341.263
674.5000	341.374
675.0000	341.495
675.5000	341.622
676.0000	341.722
676.5000	341.851
677.0000	341.904
677.5000	341.859
678.0000	341.994
678.5000	342.042
679.0000	342.135
679.5000	342.344
680.0000	342.397
680.5000	342.532
681.0000	342.599
681.5000	342.67
682.0000	342.777
682.5000	342.828
683.0000	342.985
683.5000	343.046
684.0000	343.141
684.5000	343.25
685.0000	343.296
685.5000	343.442
686.0000	343.499
686.5000	343.633
687.0000	343.747
687.5000	343.831
688.0000	343.972
688.5000	344.035
689.0000	344.154
689.5000	344.222
690.0000	344.329
690.5000	344.412
691.0000	344.51
691.5000	344.663
692.0000	344.805
692.5000	344.942
693.0000	345.022
693.5000	345.054
694.0000	345.071
694.5000	345.104
695.0000	345.248
695.5000	345.33
696.0000	345.471
696.5000	345.622
697.0000	345.702
697.5000	345.901
698.0000	345.992
698.5000	346.087
699.0000	346.155
699.5000	346.189
700.0000	346.304
700.5000	346.419
701.0000	346.534
701.5000	346.585
702.0000	346.648
702.5000	346.725
703.0000	346.857
703.5000	347.016
704.0000	347.124
704.5000	347.265
705.0000	347.358
705.5000	347.499
706.0000	347.619
706.5000	347.633
707.0000	347.684
707.5000	347.727
708.0000	347.774
708.5000	347.981
709.0000	348.129
709.5000	348.268
710.0000	348.405
710.5000	348.477
711.0000	348.572
711.5000	348.622
712.0000	348.716
712.5000	348.799
713.0000	348.911
713.5000	348.991
714.0000	349.103
714.5000	349.196
715.0000	349.266
715.5000	349.424
716.0000	349.537
716.5000	349.637
717.0000	349.763
717.5000	349.817
718.0000	349.902
718.5000	350.024
719.0000	350.033
719.5000	350.198
720.0000	350.25
720.5000	350.276
721.0000	350.391
721.5000	350.418
722.0000	350.597
722.5000	350.745
723.0000	350.908
723.5000	351.014
724.0000	351.067
724.5000	351.211
725.0000	351.311
725.5000	351.417
726.0000	351.549
726.5000	351.634
727.0000	351.769
727.5000	351.883
728.0000	351.956
728.5000	352.009
729.0000	352.059
729.5000	352.144
730.0000	352.242
730.5000	352.359
731.0000	352.454
731.5000	352.544
732.0000	352.638
732.5000	352.71
733.0000	352.765
733.5000	352.895
734.0000	352.951
734.5000	353.063
735.0000	353.219
735.5000	353.298
736.0000	353.434
736.5000	353.52
737.0000	353.572
737.5000	353.636
738.0000	353.789
738.5000	353.888
739.0000	353.999
739.5000	354.121
740.0000	354.15
740.5000	354.213
741.0000	354.275
741.5000	354.317
742.0000	354.378
742.5000	354.48
743.0000	354.611
743.5000	354.749
744.0000	354.874
744.5000	354.991
745.0000	355.05
745.5000	355.085
746.0000	355.123
746.5000	355.169
747.0000	355.249
747.5000	355.388
748.0000	355.522
748.5000	355.621
749.0000	355.745
749.5000	355.79
750.0000	355.848
750.5000	355.932
751.0000	356.003
751.5000	356.134
752.0000	356.217
752.5000	356.237
753.0000	356.297
753.5000	356.335
754.0000	356.416
754.5000	356.501
755.0000	356.59
755.5000	356.701
756.0000	356.764
756.5000	356.931
757.0000	356.948
757.5000	357.01
758.0000	357.101
758.5000	357.149
759.0000	357.313
759.5000	357.353
760.0000	357.439
760.5000	357.538
761.0000	357.601
761.5000	357.693
762.0000	357.774
762.5000	357.811
763.0000	357.832
763.5000	357.935
764.0000	358.028
764.5000	358.086
765.0000	358.249
765.5000	358.273
766.0000	358.327
766.5000	358.401
767.0000	358.383
767.5000	358.466
768.0000	358.504
768.5000	358.545
769.0000	358.625
769.5000	358.685
770.0000	358.791
770.5000	358.855
771.0000	358.912
771.5000	358.973
772.0000	358.952
772.5000	359.069
773.0000	359.128
773.5000	359.197
774.0000	359.322
774.5000	359.408
775.0000	359.512
775.5000	359.614
776.0000	359.701
776.5000	359.693
777.0000	359.691
777.5000	359.67
778.0000	359.745
778.5000	359.868
779.0000	359.979
779.5000	360.117
780.0000	360.143
780.5000	360.198
781.0000	360.283
781.5000	360.321
782.0000	360.409
782.5000	360.454
783.0000	360.561
783.5000	360.657
784.0000	360.671
784.5000	360.706
785.0000	360.684
785.5000	360.695
786.0000	360.745
786.5000	360.81
787.0000	360.975
787.5000	361.038
788.0000	361.107
788.5000	361.118
789.0000	361.079
789.5000	361.16
790.0000	361.224
790.5000	361.355
791.0000	361.433
791.5000	361.494
792.0000	361.525
792.5000	361.562
793.0000	361.586
793.5000	361.597
794.0000	361.637
794.5000	361.673
795.0000	361.746
795.5000	361.82
796.0000	361.872
796.5000	361.926
797.0000	361.933
797.5000	361.952
798.0000	362.077
798.5000	362.118
799.0000	362.222
799.5000	362.345
800.0000	362.373
800.5000	362.467
801.0000	362.562
801.5000	362.568
802.0000	362.641
802.5000	362.704
803.0000	362.714
803.5000	362.721
804.0000	362.723
804.5000	362.799
805.0000	362.799
805.5000	362.896
806.0000	363.018
806.5000	363.004
807.0000	363.067
807.5000	363.189
808.0000	363.161
808.5000	363.195
809.0000	363.235
809.5000	363.238
810.0000	363.325
810.5000	363.357
811.0000	363.477
811.5000	363.56
812.0000	363.58
812.5000	363.696
813.0000	363.67
813.5000	363.672
814.0000	363.748
814.5000	363.788
815.0000	363.841
815.5000	363.902
816.0000	363.961
816.5000	364.013
817.0000	364.082
817.5000	364.05
818.0000	364.037
818.5000	364.108
819.0000	364.183
819.5000	364.325
820.0000	364.443
820.5000	364.432
821.0000	364.414
821.5000	364.402
822.0000	364.4
822.5000	364.449
823.0000	364.528
823.5000	364.664
824.0000	364.711
824.5000	364.767
825.0000	364.841
825.5000	364.809
826.0000	364.85
826.5000	364.88
827.0000	364.959
827.5000	365.036
828.0000	365.096
828.5000	365.129
829.0000	365.104
829.5000	365.138
830.0000	365.164
830.5000	365.232
831.0000	365.277
831.5000	365.342
832.0000	365.395
832.5000	365.505
833.0000	365.564
833.5000	365.608
834.0000	365.697
834.5000	365.685
835.0000	365.783
835.5000	365.859
836.0000	365.927
836.5000	365.971
837.0000	365.993
837.5000	365.966
838.0000	365.921
838.5000	365.946
839.0000	365.999
839.5000	366.076
840.0000	366.138
840.5000	366.178
841.0000	366.169
841.5000	366.21
842.0000	366.289
842.5000	366.323
843.0000	366.375
843.5000	366.395
844.0000	366.423
844.5000	366.535
845.0000	366.559
845.5000	366.557
846.0000	366.594
846.5000	366.612
847.0000	366.716
847.5000	366.808
848.0000	366.888
848.5000	366.905
849.0000	366.923
849.5000	366.955
850.0000	366.937
850.5000	366.965
851.0000	367.004
851.5000	367.077
852.0000	367.157
852.5000	367.137
853.0000	367.154
853.5000	367.191
854.0000	367.159
854.5000	367.258
855.0000	367.341
855.5000	367.332
856.0000	367.458
856.5000	367.519
857.0000	367.535
857.5000	367.535
858.0000	367.544
858.5000	367.581
859.0000	367.616
859.5000	367.709
860.0000	367.733
860.5000	367.755
861.0000	367.816
861.5000	367.876
862.0000	367.948
862.5000	368.006
863.0000	367.964
863.5000	367.955
864.0000	367.965
864.5000	368.006
865.0000	368.052
865.5000	368.058
866.0000	368.095
866.5000	368.071
867.0000	368.139
867.5000	368.233
868.0000	368.312
868.5000	368.41
869.0000	368.401
869.5000	368.441
870.0000	368.458
870.5000	368.442
871.0000	368.49
871.5000	368.54
872.0000	368.578
872.5000	368.646
873.0000	368.679
873.5000	368.659
874.0000	368.667
874.5000	368.693
875.0000	368.766
875.5000	368.814
876.0000	368.847
876.5000	368.871
877.0000	368.832
877.5000	368.909
878.0000	368.909
878.5000	368.971
879.0000	369.061
879.5000	369.087
880.0000	369.171
880.5000	369.195
881.0000	369.284
881.5000	369.276
882.0000	369.256
882.5000	369.274
883.0000	369.269
883.5000	369.384
884.0000	369.413
884.5000	369.424
885.0000	369.433
885.5000	369.392
886.0000	369.468
886.5000	369.536
887.0000	369.612
887.5000	369.681
888.0000	369.716
888.5000	369.696
889.0000	369.726
889.5000	369.71
890.0000	369.701
890.5000	369.757
891.0000	369.736
891.5000	369.822
892.0000	369.886
892.5000	369.953
893.0000	370.042
893.5000	370.108
894.0000	370.131
894.5000	370.136
895.0000	370.133
895.5000	370.014
896.0000	370.063
896.5000	370.075
897.0000	370.096
897.5000	370.194
898.0000	370.182
898.5000	370.273
899.0000	370.321
899.5000	370.371
900.0000	370.404
900.5000	370.382
901.0000	370.406
901.5000	370.496
902.0000	370.528
902.5000	370.542
903.0000	370.548
903.5000	370.54
904.0000	370.582
904.5000	370.659
905.0000	370.678
905.5000	370.71
906.0000	370.728
906.5000	370.759
907.0000	370.798
907.5000	370.847
908.0000	370.895
908.5000	370.86
909.0000	370.92
909.5000	370.896
910.0000	370.875
910.5000	370.959
911.0000	370.977
911.5000	370.984
912.0000	371.099
912.5000	371.091
913.0000	371.093
913.5000	371.153
914.0000	371.101
914.5000	371.148
915.0000	371.151
915.5000	371.11
916.0000	371.158
916.5000	371.202
917.0000	371.296
917.5000	371.414
918.0000	371.429
918.5000	371.412
919.0000	371.444
919.5000	371.45
920.0000	371.493
920.5000	371.527
921.0000	371.497
921.5000	371.563
922.0000	371.603
922.5000	371.652
923.0000	371.713
923.5000	371.705
924.0000	371.716
924.5000	371.794
925.0000	371.79
925.5000	371.844
926.0000	371.873
926.5000	371.879
927.0000	371.887
927.5000	371.859
928.0000	371.92
928.5000	371.865
929.0000	371.958
929.5000	371.951
930.0000	371.956
930.5000	372.084
931.0000	372.082
931.5000	372.162
932.0000	372.181
932.5000	372.168
933.0000	372.198
933.5000	372.266
934.0000	372.266
934.5000	372.263
935.0000	372.305
935.5000	372.265
936.0000	372.313
936.5000	372.346
937.0000	372.343
937.5000	372.414
938.0000	372.461
938.5000	372.492
939.0000	372.502
939.5000	372.545
940.0000	372.533
940.5000	372.521
941.0000	372.613
941.5000	372.62
942.0000	372.691
942.5000	372.72
943.0000	372.717
943.5000	372.729
944.0000	372.692
944.5000	372.73
945.0000	372.734
945.5000	372.753
946.0000	372.825
946.5000	372.83
947.0000	372.848
947.5000	372.831
948.0000	372.846
948.5000	372.921
949.0000	372.936
949.5000	373.03
950.0000	373.031
950.5000	373.017
951.0000	373.058
951.5000	373.023
952.0000	373.082
952.5000	373.103
953.0000	373.044
953.5000	373.11
954.0000	373.128
954.5000	373.185
955.0000	373.32
955.5000	373.326
956.0000	373.304
956.5000	373.311
957.0000	373.283
957.5000	373.258
958.0000	373.354
958.5000	373.383
959.0000	373.399
959.5000	373.447
960.0000	373.421
960.5000	373.466
961.0000	373.552
961.5000	373.565
962.0000	373.592
962.5000	373.576
963.0000	373.567
963.5000	373.614
964.0000	373.627
964.5000	373.655
965.0000	373.643
965.5000	373.604
966.0000	373.602
966.5000	373.64
967.0000	373.692
967.5000	373.754
968.0000	373.806
968.5000	373.788
969.0000	373.817
969.5000	373.847
970.0000	373.89
970.5000	373.944
971.0000	373.909
971.5000	373.926
972.0000	373.908
972.5000	373.886
973.0000	373.907
973.5000	373.945
974.0000	373.986
974.5000	374.008
975.0000	374.004
975.5000	373.975
976.0000	374
976.5000	374.006
977.0000	374.061
977.5000	374.09
978.0000	374.087
978.5000	374.073
979.0000	374.109
979.5000	374.152
980.0000	374.155
980.5000	374.231
981.0000	374.234
981.5000	374.192
982.0000	374.199
982.5000	374.218
983.0000	374.185
983.5000	374.229
984.0000	374.267
984.5000	374.228
985.0000	374.255
985.5000	374.23
986.0000	374.223
986.5000	374.306
987.0000	374.347
987.5000	374.405
988.0000	374.464
988.5000	374.479
989.0000	374.488
989.5000	374.548
990.0000	374.495
990.5000	374.502
991.0000	374.582
991.5000	374.554
992.0000	374.639
992.5000	374.673
993.0000	374.682
993.5000	374.711
994.0000	374.637
994.5000	374.685
995.0000	374.647
995.5000	374.652
996.0000	374.711
996.5000	374.67
997.0000	374.716
997.5000	374.7
998.0000	374.737
998.5000	374.751
999.0000	374.782
999.5000	374.811
1000.0000	374.768
1000.5000	374.804
1001.0000	374.792
1001.5000	374.781
1002.0000	374.848
1002.5000	374.873
1003.0000	374.849
1003.5000	374.942
1004.0000	374.984
1004.5000	374.914
1005.0000	374.951
1005.5000	374.906
1006.0000	374.896
1006.5000	374.933
1007.0000	374.916
1007.5000	374.903
1008.0000	374.889
1008.5000	374.924
1009.0000	374.928
1009.5000	375.006
1010.0000	375.02
1010.5000	374.988
1011.0000	375.031
1011.5000	375.03
1012.0000	375.042
1012.5000	375.092
1013.0000	375.052
1013.5000	375.061
1014.0000	375.118
1014.5000	375.136
1015.0000	375.156
1015.5000	375.095
1016.0000	375.055
1016.5000	375.01
1017.0000	375.071
1017.5000	375.104
1018.0000	375.128
1018.5000	375.181
1019.0000	375.164
1019.5000	375.229
1020.0000	375.221
1020.5000	375.258
1021.0000	375.236
1021.5000	375.231
1022.0000	375.241
1022.5000	375.277
1023.0000	375.37
1023.5000	375.412
1024.0000	375.478
1024.5000	375.461
1025.0000	375.442
1025.5000	375.419
1026.0000	375.38
1026.5000	375.417
1027.0000	375.438
1027.5000	375.451
1028.0000	375.471
1028.5000	375.437
1029.0000	375.387
1029.5000	375.421
1030.0000	375.409
1030.5000	375.44
1031.0000	375.513
1031.5000	375.466
1032.0000	375.463
1032.5000	375.437
1033.0000	375.436
1033.5000	375.456
1034.0000	375.547
1034.5000	375.597
1035.0000	375.608
1035.5000	375.62
1036.0000	375.608
1036.5000	375.58
1037.0000	375.586
1037.5000	375.68
1038.0000	375.677
1038.5000	375.657
1039.0000	375.647
1039.5000	375.602
1040.0000	375.654
1040.5000	375.693
1041.0000	375.707
1041.5000	375.695
1042.0000	375.63
1042.5000	375.623
1043.0000	375.66
1043.5000	375.716
1044.0000	375.675
1044.5000	375.683
1045.0000	375.655
1045.5000	375.626
1046.0000	375.686
1046.5000	375.742
1047.0000	375.759
1047.5000	375.736
1048.0000	375.734
1048.5000	375.68
1049.0000	375.657
1049.5000	375.721
1050.0000	375.768
1050.5000	375.796
1051.0000	375.789
1051.5000	375.779
1052.0000	375.683
1052.5000	375.64
1053.0000	375.717
1053.5000	375.701
1054.0000	375.732
1054.5000	375.823
1055.0000	375.807
1055.5000	375.765
1056.0000	375.788
1056.5000	375.783
1057.0000	375.772
1057.5000	375.808
1058.0000	375.775
1058.5000	375.772
1059.0000	375.774
1059.5000	375.737
1060.0000	375.812
1060.5000	375.836
1061.0000	375.825
1061.5000	375.878
1062.0000	375.916
1062.5000	375.898
1063.0000	375.948
1063.5000	375.928
1064.0000	375.878
1064.5000	375.851
1065.0000	375.883
1065.5000	375.906
1066.0000	375.884
1066.5000	375.916
1067.0000	375.871
1067.5000	375.918
1068.0000	375.911
1068.5000	375.914
1069.0000	375.957
1069.5000	375.915
1070.0000	375.947
1070.5000	375.939
1071.0000	375.886
1071.5000	375.899
1072.0000	375.924
1072.5000	375.923
1073.0000	375.918
1073.5000	375.884
1074.0000	375.908
1074.5000	375.861
1075.0000	375.911
1075.5000	375.965
1076.0000	375.905
1076.5000	375.967
1077.0000	375.965
1077.5000	375.926
1078.0000	375.927
1078.5000	375.933
1079.0000	375.882
1079.5000	375.895
1080.0000	375.894
1080.5000	375.862
1081.0000	375.866
1081.5000	375.872
1082.0000	375.916
1082.5000	375.841
1083.0000	375.865
1083.5000	375.85
1084.0000	375.887
1084.5000	375.929
1085.0000	375.967
1085.5000	376.013
1086.0000	375.936
1086.5000	376.023
1087.0000	375.992
1087.5000	375.943
1088.0000	375.933
1088.5000	375.885
1089.0000	375.83
1089.5000	375.87
1090.0000	375.888
1090.5000	375.9
1091.0000	375.987
1091.5000	375.942
1092.0000	375.929
1092.5000	375.946
1093.0000	375.868
1093.5000	375.919
1094.0000	375.979
1094.5000	375.935
1095.0000	375.908
1095.5000	375.9
1096.0000	375.871
1096.5000	375.863
1097.0000	375.948
1097.5000	375.943
1098.0000	375.898
1098.5000	375.869
1099.0000	375.825
1099.5000	375.761
1100.0000	375.859
1100.5000	375.899
1101.0000	375.913
1101.5000	375.931
1102.0000	375.876
1102.5000	375.832
1103.0000	375.845
1103.5000	375.868
1104.0000	375.919
1104.5000	375.93
1105.0000	375.94
1105.5000	375.904
1106.0000	375.865
1106.5000	375.879
1107.0000	375.863
1107.5000	375.873
1108.0000	375.852
1108.5000	375.859
1109.0000	375.862
1109.5000	375.889
1110.0000	375.891
1110.5000	375.906
1111.0000	375.855
1111.5000	375.819
1112.0000	375.802
1112.5000	375.829
1113.0000	375.912
1113.5000	375.902
1114.0000	375.891
1114.5000	375.866
1115.0000	375.822
1115.5000	375.855
1116.0000	375.894
1116.5000	375.831
1117.0000	375.834
1117.5000	375.814
1118.0000	375.797
1118.5000	375.893
1119.0000	375.868
1119.5000	375.911
1120.0000	375.907
1120.5000	375.892
1121.0000	375.893
1121.5000	375.849
1122.0000	375.837
1122.5000	375.78
1123.0000	375.833
1123.5000	375.821
1124.0000	375.844
1124.5000	375.821
1125.0000	375.788
1125.5000	375.838
1126.0000	375.788
1126.5000	375.877
1127.0000	375.86
1127.5000	375.789
1128.0000	375.825
1128.5000	375.789
1129.0000	375.784
1129.5000	375.805
1130.0000	375.809
1130.5000	375.784
1131.0000	375.729
1131.5000	375.714
1132.0000	375.705
1132.5000	375.736
1133.0000	375.809
1133.5000	375.801
1134.0000	375.801
1134.5000	375.768
1135.0000	375.761
1135.5000	375.745
1136.0000	375.696
1136.5000	375.688
1137.0000	375.596
1137.5000	375.671
1138.0000	375.641
1138.5000	375.646
1139.0000	375.656
1139.5000	375.639
1140.0000	375.685
1140.5000	375.654
1141.0000	375.664
1141.5000	375.614
1142.0000	375.588
1142.5000	375.565
1143.0000	375.563
1143.5000	375.582
1144.0000	375.629
1144.5000	375.65
1145.0000	375.64
1145.5000	375.626
1146.0000	375.562
1146.5000	375.513
1147.0000	375.523
1147.5000	375.557
1148.0000	375.552
1148.5000	375.564
1149.0000	375.567
1149.5000	375.471
1150.0000	375.514
1150.5000	375.504
1151.0000	375.516
1151.5000	375.53
1152.0000	375.498
1152.5000	375.535
1153.0000	375.415
1153.5000	375.418
1154.0000	375.37
1154.5000	375.332
1155.0000	375.435
1155.5000	375.45
1156.0000	375.527
1156.5000	375.521
1157.0000	375.452
1157.5000	375.447
1158.0000	375.459
1158.5000	375.436
1159.0000	375.456
1159.5000	375.416
1160.0000	375.4
1160.5000	375.436
1161.0000	375.404
1161.5000	375.429
1162.0000	375.346
1162.5000	375.331
1163.0000	375.344
1163.5000	375.343
1164.0000	375.335
1164.5000	375.309
1165.0000	375.298
1165.5000	375.284
1166.0000	375.298
1166.5000	375.233
1167.0000	375.188
1167.5000	375.126
1168.0000	375.099
1168.5000	375.118
1169.0000	375.171
1169.5000	375.17
1170.0000	375.204
1170.5000	375.199
1171.0000	375.116
1171.5000	375.132
1172.0000	375.105
1172.5000	375.106
1173.0000	375.12
1173.5000	375.113
1174.0000	375.147
1174.5000	375.128
1175.0000	375.12
1175.5000	375.199
1176.0000	375.147
1176.5000	375.122
1177.0000	375.159
1177.5000	375.062
1178.0000	375.015
1178.5000	375.022
1179.0000	374.983
1179.5000	374.952
1180.0000	374.925
1180.5000	374.91
1181.0000	374.926
1181.5000	374.941
1182.0000	374.95
1182.5000	374.945
1183.0000	374.897
1183.5000	374.912
1184.0000	374.953
1184.5000	374.969
1185.0000	375.02
1185.5000	374.946
1186.0000	374.853
1186.5000	374.862
1187.0000	374.838
1187.5000	374.863
1188.0000	374.885
1188.5000	374.821
1189.0000	374.789
1189.5000	374.777
1190.0000	374.795
1190.5000	374.808
1191.0000	374.85
1191.5000	374.878
1192.0000	374.862
1192.5000	374.834
1193.0000	374.759
1193.5000	374.696
1194.0000	374.677
1194.5000	374.649
1195.0000	374.653
1195.5000	374.64
1196.0000	374.635
1196.5000	374.654
1197.0000	374.602
1197.5000	374.618
1198.0000	374.565
1198.5000	374.557
1199.0000	374.586
1199.5000	374.587
1200.0000	374.58
1200.5000	374.544
1201.0000	374.564
1201.5000	374.506
1202.0000	374.536
1202.5000	374.535
1203.0000	374.511
1203.5000	374.577
1204.0000	374.541
1204.5000	374.56
1205.0000	374.528
1205.5000	374.451
1206.0000	374.51
1206.5000	374.524
1207.0000	374.522
1207.5000	374.516
1208.0000	374.491
1208.5000	374.471
1209.0000	374.48
1209.5000	374.485
1210.0000	374.444
1210.5000	374.424
1211.0000	374.404
1211.5000	374.389
1212.0000	374.368
1212.5000	374.354
1213.0000	374.35
1213.5000	374.383
1214.0000	374.408
1214.5000	374.43
1215.0000	374.437
1215.5000	374.377
1216.0000	374.358
1216.5000	374.298
1217.0000	374.274
1217.5000	374.332
1218.0000	374.308
1218.5000	374.316
1219.0000	374.292
1219.5000	374.195
1220.0000	374.143
1220.5000	374.118
1221.0000	374.125
1221.5000	374.202
1222.0000	374.227
1222.5000	374.23
1223.0000	374.145
1223.5000	374.121
1224.0000	374.1
1224.5000	374.052
1225.0000	374.125
1225.5000	374.105
1226.0000	374.121
1226.5000	374.121
1227.0000	374.087
1227.5000	374.022
1228.0000	373.993
1228.5000	373.971
1229.0000	373.923
1229.5000	373.924
1230.0000	373.922
1230.5000	373.988
1231.0000	374.042
1231.5000	374.057
1232.0000	374.042
1232.5000	373.985
1233.0000	373.992
1233.5000	374.021
1234.0000	374.045
1234.5000	374.122
1235.0000	374.03
1235.5000	373.94
1236.0000	373.897
1236.5000	373.796
1237.0000	373.843
1237.5000	373.833
1238.0000	373.869
1238.5000	373.908
1239.0000	373.943
1239.5000	374.007
1240.0000	374.02
1240.5000	374.076
1241.0000	374.014
1241.5000	373.95
1242.0000	373.951
1242.5000	373.923
1243.0000	373.95
1243.5000	373.931
1244.0000	373.873
1244.5000	373.834
1245.0000	373.83
1245.5000	373.88
1246.0000	373.859
1246.5000	373.863
1247.0000	373.838
1247.5000	373.805
1248.0000	373.789
1248.5000	373.752
1249.0000	373.714
1249.5000	373.739
1250.0000	373.792
1250.5000	373.771
1251.0000	373.743
1251.5000	373.72
1252.0000	373.696
1252.5000	373.685
1253.0000	373.669
1253.5000	373.63
1254.0000	373.569
1254.5000	373.577
1255.0000	373.622
1255.5000	373.641
1256.0000	373.654
1256.5000	373.631
1257.0000	373.616
1257.5000	373.587
1258.0000	373.621
1258.5000	373.576
1259.0000	373.578
1259.5000	373.596
1260.0000	373.553
1260.5000	373.543
1261.0000	373.454
1261.5000	373.421
1262.0000	373.42
1262.5000	373.456
1263.0000	373.524
1263.5000	373.569
1264.0000	373.576
1264.5000	373.577
1265.0000	373.603
1265.5000	373.548
1266.0000	373.492
1266.5000	373.567
1267.0000	373.512
1267.5000	373.557
1268.0000	373.56
1268.5000	373.46
1269.0000	373.505
1269.5000	373.457
1270.0000	373.478
1270.5000	373.502
1271.0000	373.475
1271.5000	373.502
1272.0000	373.511
1272.5000	373.477
1273.0000	373.446
1273.5000	373.429
1274.0000	373.41
1274.5000	373.417
1275.0000	373.442
1275.5000	373.397
1276.0000	373.365
1276.5000	373.337
1277.0000	373.342
1277.5000	373.412
1278.0000	373.386
1278.5000	373.433
1279.0000	373.398
1279.5000	373.306
1280.0000	373.35
1280.5000	373.342
1281.0000	373.355
1281.5000	373.431
1282.0000	373.387
1282.5000	373.346
1283.0000	373.28
1283.5000	373.228
1284.0000	373.265
1284.5000	373.255
1285.0000	373.309
1285.5000	373.309
1286.0000	373.274
1286.5000	373.293
1287.0000	373.31
1287.5000	373.293
1288.0000	373.294
1288.5000	373.321
1289.0000	373.256
1289.5000	373.263
1290.0000	373.3
1290.5000	373.284
1291.0000	373.312
1291.5000	373.326
1292.0000	373.264
1292.5000	373.225
1293.0000	373.174
1293.5000	373.19
1294.0000	373.225
1294.5000	373.242
1295.0000	373.307
1295.5000	373.279
1296.0000	373.278
1296.5000	373.255
1297.0000	373.262
1297.5000	373.289
1298.0000	373.277
1298.5000	373.271
1299.0000	373.221
1299.5000	373.205
1300.0000	373.216
1300.5000	373.228
1301.0000	373.231
1301.5000	373.218
1302.0000	373.175
1302.5000	373.159
1303.0000	373.155
1303.5000	373.154
1304.0000	373.218
1304.5000	373.241
1305.0000	373.208
1305.5000	373.199
1306.0000	373.148
1306.5000	373.156
1307.0000	373.193
1307.5000	373.201
1308.0000	373.229
1308.5000	373.177
1309.0000	373.152
1309.5000	373.134
1310.0000	373.145
1310.5000	373.158
1311.0000	373.155
1311.5000	373.16
1312.0000	373.14
1312.5000	373.201
1313.0000	373.198
1313.5000	373.16
1314.0000	373.129
1314.5000	373.154
1315.0000	373.14
1315.5000	373.194
1316.0000	373.232
1316.5000	373.138
1317.0000	373.161
1317.5000	373.109
1318.0000	373.109
1318.5000	373.104
1319.0000	373.123
1319.5000	373.108
1320.0000	373.043
1320.5000	373.054
1321.0000	373.032
1321.5000	373.03
1322.0000	373.061
1322.5000	373.103
1323.0000	373.119
1323.5000	373.148
1324.0000	373.138
1324.5000	373.085
1325.0000	373.091
1325.5000	373.087
1326.0000	373.084
1326.5000	373.105
1327.0000	373.063
1327.5000	373.073
1328.0000	373.058
1328.5000	373.031
1329.0000	373.07
1329.5000	373.053
1330.0000	373.095
1330.5000	373.135
1331.0000	373.061
1331.5000	373.087
1332.0000	373.111
1332.5000	373.127
1333.0000	373.153
1333.5000	373.123
1334.0000	373.093
1334.5000	373.02
1335.0000	373.029
1335.5000	373.022
1336.0000	373.006
1336.5000	372.993
1337.0000	372.998
1337.5000	373.06
1338.0000	373.035
1338.5000	373.102
1339.0000	373.119
1339.5000	373.084
1340.0000	373.118
1340.5000	373.139
1341.0000	373.117
1341.5000	373.116
1342.0000	373.086
1342.5000	373.089
1343.0000	373.076
1343.5000	373.075
1344.0000	373.146
1344.5000	373.112
1345.0000	373.138
1345.5000	373.136
1346.0000	373.109
1346.5000	373.084
1347.0000	373.111
1347.5000	373.107
1348.0000	373.095
1348.5000	373.059
1349.0000	373.025
1349.5000	373.055
1350.0000	373.05
1350.5000	373.097
1351.0000	373.129
1351.5000	373.141
1352.0000	373.149
1352.5000	373.091
1353.0000	373.077
1353.5000	373.095
1354.0000	373.104
1354.5000	373.157
1355.0000	373.188
1355.5000	373.162
1356.0000	373.169
1356.5000	373.158
1357.0000	373.124
1357.5000	373.114
1358.0000	373.077
1358.5000	373.061
1359.0000	373.121
1359.5000	373.121
1360.0000	373.125
1360.5000	373.111
1361.0000	373.06
1361.5000	373.021
1362.0000	373.051
1362.5000	373.14
1363.0000	373.126
1363.5000	373.135
1364.0000	373.146
1364.5000	373.1
1365.0000	373.118
1365.5000	373.146
1366.0000	373.105
1366.5000	373.142
1367.0000	373.136
1367.5000	373.092
1368.0000	373.117
1368.5000	373.077
1369.0000	373.099
1369.5000	373.146
1370.0000	373.106
1370.5000	373.099
1371.0000	373.06
1371.5000	373.023
1372.0000	373.053
1372.5000	373.077
1373.0000	373.064
1373.5000	373.104
1374.0000	373.093
1374.5000	373.056
1375.0000	373.073
1375.5000	373.079
1376.0000	373.07
1376.5000	373.087
1377.0000	373.136
1377.5000	373.191
1378.0000	373.239
1378.5000	373.249
1379.0000	373.208
1379.5000	373.135
1380.0000	373.066
1380.5000	373.09
1381.0000	373.174
1381.5000	373.161
1382.0000	373.201
1382.5000	373.175
1383.0000	373.17
1383.5000	373.194
1384.0000	373.213
1384.5000	373.216
1385.0000	373.166
1385.5000	373.145
1386.0000	373.12
1386.5000	373.166
1387.0000	373.152
1387.5000	373.196
1388.0000	373.2
1388.5000	373.178
1389.0000	373.27
1389.5000	373.268
1390.0000	373.282
1390.5000	373.295
1391.0000	373.26
1391.5000	373.28
1392.0000	373.347
1392.5000	373.363
1393.0000	373.281
1393.5000	373.283
1394.0000	373.264
1394.5000	373.226
1395.0000	373.291
1395.5000	373.267
1396.0000	373.231
1396.5000	373.252
1397.0000	373.291
1397.5000	373.331
1398.0000	373.357
1398.5000	373.395
1399.0000	373.368
1399.5000	373.343
1400.0000	373.284
1400.5000	373.241
1401.0000	373.2
1401.5000	373.206
1402.0000	373.222
1402.5000	373.287
1403.0000	373.328
1403.5000	373.311
1404.0000	373.345
1404.5000	373.307
1405.0000	373.27
1405.5000	373.211
1406.0000	373.253
1406.5000	373.265
1407.0000	373.33
1407.5000	373.362
1408.0000	373.312
1408.5000	373.33
1409.0000	373.33
1409.5000	373.278
1410.0000	373.342
1410.5000	373.391
1411.0000	373.356
1411.5000	373.434
1412.0000	373.391
1412.5000	373.319
1413.0000	373.325
1413.5000	373.353
1414.0000	373.377
1414.5000	373.361
1415.0000	373.368
1415.5000	373.352
1416.0000	373.322
1416.5000	373.39
1417.0000	373.436
1417.5000	373.444
1418.0000	373.472
1418.5000	373.493
1419.0000	373.453
1419.5000	373.508
1420.0000	373.506
1420.5000	373.474
1421.0000	373.481
1421.5000	373.462
1422.0000	373.449
1422.5000	373.426
1423.0000	373.424
1423.5000	373.367
1424.0000	373.386
1424.5000	373.384
1425.0000	373.4
1425.5000	373.417
1426.0000	373.468
1426.5000	373.476
1427.0000	373.453
1427.5000	373.465
1428.0000	373.407
1428.5000	373.394
1429.0000	373.369
1429.5000	373.419
1430.0000	373.434
1430.5000	373.414
1431.0000	373.471
1431.5000	373.447
1432.0000	373.433
1432.5000	373.487
1433.0000	373.535
1433.5000	373.523
1434.0000	373.517
1434.5000	373.56
1435.0000	373.511
1435.5000	373.528
1436.0000	373.513
1436.5000	373.488
1437.0000	373.522
1437.5000	373.522
1438.0000	373.628
1438.5000	373.638
1439.0000	373.673
1439.5000	373.678
1440.0000	373.63
1440.5000	373.536
1441.0000	373.458
1441.5000	373.432
1442.0000	373.468
1442.5000	373.519
1443.0000	373.533
1443.5000	373.576
1444.0000	373.569
1444.5000	373.61
1445.0000	373.677
1445.5000	373.676
1446.0000	373.695
1446.5000	373.673
1447.0000	373.652
1447.5000	373.692
1448.0000	373.663
1448.5000	373.642
1449.0000	373.632
1449.5000	373.578
1450.0000	373.635
1450.5000	373.652
1451.0000	373.607
1451.5000	373.585
1452.0000	373.544
1452.5000	373.586
1453.0000	373.656
1453.5000	373.702
1454.0000	373.699
1454.5000	373.649
1455.0000	373.628
1455.5000	373.632
1456.0000	373.599
1456.5000	373.67
1457.0000	373.682
1457.5000	373.686
1458.0000	373.72
1458.5000	373.673
1459.0000	373.663
1459.5000	373.669
1460.0000	373.624
1460.5000	373.645
1461.0000	373.593
1461.5000	373.616
1462.0000	373.615
1462.5000	373.649
1463.0000	373.755
1463.5000	373.712
1464.0000	373.725
1464.5000	373.654
1465.0000	373.627
1465.5000	373.687
1466.0000	373.722
1466.5000	373.783
1467.0000	373.796
1467.5000	373.801
1468.0000	373.834
1468.5000	373.838
1469.0000	373.848
1469.5000	373.867
1470.0000	373.893
1470.5000	373.917
1471.0000	373.901
1471.5000	373.887
1472.0000	373.827
1472.5000	373.827
1473.0000	373.816
1473.5000	373.826
1474.0000	373.841
1474.5000	373.871
1475.0000	373.904
1475.5000	373.859
1476.0000	373.928
1476.5000	373.906
1477.0000	373.929
1477.5000	373.926
1478.0000	373.886
1478.5000	373.952
1479.0000	373.921
1479.5000	373.967
1480.0000	373.965
1480.5000	373.965
1481.0000	373.995
1481.5000	374.069
1482.0000	374.12
1482.5000	374.101
1483.0000	374.098
1483.5000	374.048
1484.0000	374.034
1484.5000	374.078
1485.0000	374.019
1485.5000	374.027
1486.0000	374.042
1486.5000	373.997
1487.0000	374.043
1487.5000	374.081
1488.0000	374.047
1488.5000	374.044
1489.0000	374.155
1489.5000	374.153
1490.0000	374.189
1490.5000	374.17
1491.0000	374.125
1491.5000	374.142
1492.0000	374.173
1492.5000	374.181
1493.0000	374.133
1493.5000	374.088
1494.0000	374.093
1494.5000	374.119
1495.0000	374.134
1495.5000	374.13
1496.0000	374.106
1496.5000	374.149
1497.0000	374.18
1497.5000	374.156
1498.0000	374.175
1498.5000	374.138
1499.0000	374.202
1499.5000	374.239
1500.0000	374.27
1500.5000	374.234
1501.0000	374.13
1501.5000	374.143
1502.0000	374.095
1502.5000	374.129
1503.0000	374.131
1503.5000	374.134
1504.0000	374.156
1504.5000	374.173
1505.0000	374.171
1505.5000	374.203
1506.0000	374.226
1506.5000	374.22
1507.0000	374.257
1507.5000	374.204
1508.0000	374.197
1508.5000	374.185
1509.0000	374.159
1509.5000	374.199
1510.0000	374.248
1510.5000	374.228
1511.0000	374.307
1511.5000	374.247
1512.0000	374.223
1512.5000	374.259
1513.0000	374.282
1513.5000	374.308
1514.0000	374.302
1514.5000	374.278
1515.0000	374.222
1515.5000	374.305
1516.0000	374.237
1516.5000	374.244
1517.0000	374.365
1517.5000	374.325
1518.0000	374.336
1518.5000	374.39
1519.0000	374.338
1519.5000	374.329
1520.0000	374.35
1520.5000	374.335
1521.0000	374.237
1521.5000	374.243
1522.0000	374.24
1522.5000	374.264
1523.0000	374.281
1523.5000	374.249
1524.0000	374.284
1524.5000	374.262
1525.0000	374.356
1525.5000	374.432
1526.0000	374.409
1526.5000	374.439
1527.0000	374.419
1527.5000	374.365
1528.0000	374.425
1528.5000	374.455
1529.0000	374.418
1529.5000	374.492
1530.0000	374.48
1530.5000	374.443
1531.0000	374.482
1531.5000	374.448
1532.0000	374.449
1532.5000	374.413
1533.0000	374.429
1533.5000	374.401
1534.0000	374.414
1534.5000	374.451
1535.0000	374.391
1535.5000	374.399
1536.0000	374.373
1536.5000	374.428
1537.0000	374.486
1537.5000	374.502
1538.0000	374.503
1538.5000	374.482
1539.0000	374.47
1539.5000	374.487
1540.0000	374.483
1540.5000	374.509
1541.0000	374.5
1541.5000	374.533
1542.0000	374.559
1542.5000	374.519
1543.0000	374.559
1543.5000	374.583
1544.0000	374.614
1544.5000	374.613
1545.0000	374.58
1545.5000	374.55
1546.0000	374.533
1546.5000	374.53
1547.0000	374.544
1547.5000	374.516
1548.0000	374.476
1548.5000	374.46
1549.0000	374.446
1549.5000	374.453
1550.0000	374.449
1550.5000	374.434
1551.0000	374.472
1551.5000	374.464
1552.0000	374.488
1552.5000	374.51
1553.0000	374.512
1553.5000	374.525
1554.0000	374.592
1554.5000	374.594
1555.0000	374.56
1555.5000	374.571
1556.0000	374.573
1556.5000	374.632
1557.0000	374.618
1557.5000	374.628
1558.0000	374.572
1558.5000	374.585
1559.0000	374.64
1559.5000	374.655
1560.0000	374.668
1560.5000	374.643
1561.0000	374.608
1561.5000	374.612
1562.0000	374.651
1562.5000	374.589
1563.0000	374.578
1563.5000	374.483
1564.0000	374.449
1564.5000	374.466
1565.0000	374.429
1565.5000	374.512
1566.0000	374.58
1566.5000	374.577
1567.0000	374.639
1567.5000	374.63
1568.0000	374.545
1568.5000	374.549
1569.0000	374.555
1569.5000	374.557
1570.0000	374.576
1570.5000	374.635
