TITLE	
DATA TYPE	
ORIGIN	JASCO
OWNER	
DATE	22/08/24
TIME	16:21:40
SPECTROMETER/DATA SYSTEM	
RESOLUTION	
DELTAX	0.5
XUNITS	SEC
YUNITS	INTENSITY
FIRSTX	0.0000
LASTX	1733.5000
NPOINTS	3468
FIRSTY	364.38208
MAXY	531.36517
MINY	-47.63149
XYDATA
0.0000	364.382
0.5000	364.303
1.0000	364.198
1.5000	364.143
2.0000	364.071
2.5000	364.155
3.0000	364.201
3.5000	364.164
4.0000	364.181
4.5000	364.146
5.0000	364.055
5.5000	364.004
6.0000	363.94
6.5000	363.962
7.0000	363.957
7.5000	364.01
8.0000	364.083
8.5000	364.033
9.0000	364.047
9.5000	363.977
10.0000	363.893
10.5000	363.835
11.0000	363.765
11.5000	363.787
12.0000	363.815
12.5000	363.836
13.0000	363.806
13.5000	363.768
14.0000	363.727
14.5000	363.689
15.0000	363.676
15.5000	363.664
16.0000	363.663
16.5000	363.647
17.0000	363.653
17.5000	363.581
18.0000	363.503
18.5000	363.464
19.0000	363.421
19.5000	363.392
20.0000	363.406
20.5000	363.38
21.0000	363.409
21.5000	363.429
22.0000	363.428
22.5000	363.445
23.0000	363.395
23.5000	363.428
24.0000	363.425
24.5000	363.378
25.0000	363.416
25.5000	363.398
26.0000	363.405
26.5000	363.379
27.0000	363.28
27.5000	363.182
28.0000	363.139
28.5000	363.1
29.0000	363.13
29.5000	363.179
30.0000	363.097
30.5000	363.112
31.0000	363.093
31.5000	363.086
32.0000	363.102
32.5000	363.043
33.0000	363.006
33.5000	362.924
34.0000	362.937
34.5000	362.933
35.0000	362.937
35.5000	362.918
36.0000	362.871
36.5000	362.868
37.0000	362.844
37.5000	362.835
38.0000	362.788
38.5000	362.836
39.0000	355.063
39.5000	342.043
40.0000	308.768
40.5000	-21.1557
41.0000	-47.6315
41.5000	-35.0311
42.0000	-32.0923
42.5000	-30.8725
43.0000	-30.191
43.5000	-29.7186
44.0000	-29.3069
44.5000	-29.0236
45.0000	-29.0086
45.5000	-28.854
46.0000	-28.6548
46.5000	-26.8656
47.0000	297.989
47.5000	293.823
48.0000	292.895
48.5000	292.397
49.0000	276.332
49.5000	276.731
50.0000	276.927
50.5000	277.208
51.0000	277.547
51.5000	277.846
52.0000	278.192
52.5000	278.557
53.0000	278.893
53.5000	279.334
54.0000	279.741
54.5000	280.098
55.0000	280.557
55.5000	280.943
56.0000	281.357
56.5000	281.782
57.0000	282.152
57.5000	282.52
58.0000	282.918
58.5000	283.278
59.0000	283.655
59.5000	284.091
60.0000	284.462
60.5000	284.925
61.0000	285.35
61.5000	285.733
62.0000	286.139
62.5000	286.505
63.0000	286.904
63.5000	287.291
64.0000	287.72
64.5000	288.064
65.0000	288.401
65.5000	288.807
66.0000	289.184
66.5000	289.605
67.0000	290.028
67.5000	290.449
68.0000	290.84
68.5000	291.258
69.0000	291.668
69.5000	292.009
70.0000	292.374
70.5000	292.779
71.0000	293.189
71.5000	293.584
72.0000	293.972
72.5000	294.336
73.0000	294.702
73.5000	295.126
74.0000	295.551
74.5000	295.964
75.0000	296.317
75.5000	296.629
76.0000	297.004
76.5000	297.372
77.0000	297.765
77.5000	298.161
78.0000	298.518
78.5000	298.901
79.0000	299.305
79.5000	299.711
80.0000	300.153
80.5000	300.517
81.0000	300.868
81.5000	301.283
82.0000	301.662
82.5000	302.081
83.0000	302.506
83.5000	302.882
84.0000	303.266
84.5000	303.616
85.0000	303.973
85.5000	304.322
86.0000	304.661
86.5000	305.026
87.0000	305.4
87.5000	305.778
88.0000	306.132
88.5000	306.558
89.0000	306.926
89.5000	307.282
90.0000	307.675
90.5000	308.043
91.0000	308.433
91.5000	308.826
92.0000	309.209
92.5000	309.542
93.0000	309.898
93.5000	310.229
94.0000	310.562
94.5000	310.938
95.0000	311.257
95.5000	311.641
96.0000	312.006
96.5000	312.346
97.0000	312.774
97.5000	313.165
98.0000	313.495
98.5000	313.855
99.0000	314.185
99.5000	314.469
100.0000	314.842
100.5000	315.202
101.0000	315.596
101.5000	316.024
102.0000	316.404
102.5000	316.787
103.0000	317.111
103.5000	317.448
104.0000	317.775
104.5000	318.135
105.0000	318.481
105.5000	318.841
106.0000	319.194
106.5000	319.525
107.0000	319.884
107.5000	320.263
108.0000	320.64
108.5000	321.002
109.0000	321.359
109.5000	321.656
110.0000	322.013
110.5000	322.336
111.0000	322.636
111.5000	322.995
112.0000	323.334
112.5000	323.679
113.0000	324.066
113.5000	324.334
114.0000	324.659
114.5000	325.009
115.0000	325.293
115.5000	325.68
116.0000	326.008
116.5000	326.353
117.0000	326.724
117.5000	327.079
118.0000	327.407
118.5000	327.723
119.0000	328.081
119.5000	328.41
120.0000	328.776
120.5000	329.131
121.0000	329.438
121.5000	329.791
122.0000	330.102
122.5000	330.398
123.0000	330.759
123.5000	331.109
124.0000	331.473
124.5000	331.845
125.0000	332.156
125.5000	332.489
126.0000	332.826
126.5000	333.146
127.0000	333.524
127.5000	333.826
128.0000	334.167
128.5000	334.541
129.0000	334.856
129.5000	335.205
130.0000	335.614
130.5000	335.923
131.0000	336.253
131.5000	336.636
132.0000	336.925
132.5000	337.229
133.0000	337.567
133.5000	337.871
134.0000	338.153
134.5000	338.457
135.0000	338.779
135.5000	339.1
136.0000	339.421
136.5000	339.708
137.0000	340.036
137.5000	340.31
138.0000	340.605
138.5000	340.978
139.0000	341.245
139.5000	341.564
140.0000	341.925
140.5000	342.23
141.0000	342.556
141.5000	342.861
142.0000	343.142
142.5000	343.466
143.0000	343.797
143.5000	344.115
144.0000	344.442
144.5000	344.771
145.0000	345.068
145.5000	345.425
146.0000	345.739
146.5000	345.955
147.0000	346.303
147.5000	346.629
148.0000	346.912
148.5000	347.289
149.0000	347.573
149.5000	347.853
150.0000	348.155
150.5000	348.466
151.0000	348.735
151.5000	349.005
152.0000	349.347
152.5000	349.699
153.0000	349.999
153.5000	350.297
154.0000	350.555
154.5000	350.819
155.0000	351.137
155.5000	351.422
156.0000	351.752
156.5000	352.057
157.0000	352.384
157.5000	352.706
158.0000	352.963
158.5000	353.235
159.0000	353.537
159.5000	353.853
160.0000	354.164
160.5000	354.457
161.0000	354.691
161.5000	354.969
162.0000	355.316
162.5000	355.6
163.0000	355.978
163.5000	356.277
164.0000	356.494
164.5000	356.806
165.0000	357.04
165.5000	357.304
166.0000	357.614
166.5000	357.858
167.0000	358.151
167.5000	358.48
168.0000	358.759
168.5000	359.064
169.0000	359.342
169.5000	359.589
170.0000	359.856
170.5000	360.192
171.0000	360.468
171.5000	360.784
172.0000	361.067
172.5000	361.354
173.0000	361.606
173.5000	361.824
174.0000	362.135
174.5000	362.385
175.0000	362.677
175.5000	363
176.0000	363.305
176.5000	363.599
177.0000	363.908
177.5000	364.177
178.0000	364.392
178.5000	364.656
179.0000	364.91
179.5000	365.228
180.0000	365.499
180.5000	365.803
181.0000	366.113
181.5000	366.304
182.0000	366.603
182.5000	366.879
183.0000	367.118
183.5000	367.435
184.0000	367.699
184.5000	367.903
185.0000	368.197
185.5000	368.501
186.0000	368.772
186.5000	369.055
187.0000	369.316
187.5000	369.563
188.0000	369.864
188.5000	370.105
189.0000	370.346
189.5000	370.607
190.0000	370.849
190.5000	371.17
191.0000	371.433
191.5000	371.671
192.0000	371.931
192.5000	372.2
193.0000	372.466
193.5000	372.751
194.0000	372.975
194.5000	373.243
195.0000	373.513
195.5000	373.763
196.0000	374.007
196.5000	374.194
197.0000	374.493
197.5000	374.747
198.0000	375.033
198.5000	375.295
199.0000	375.521
199.5000	375.775
200.0000	376.025
200.5000	376.319
201.0000	376.588
201.5000	376.825
202.0000	377.124
202.5000	377.343
203.0000	377.596
203.5000	377.822
204.0000	378.046
204.5000	378.29
205.0000	378.491
205.5000	378.777
206.0000	379.046
206.5000	379.347
207.0000	379.583
207.5000	379.819
208.0000	380.052
208.5000	380.241
209.0000	380.545
209.5000	380.808
210.0000	381.035
210.5000	381.275
211.0000	381.508
211.5000	381.788
212.0000	382.025
212.5000	382.294
213.0000	382.505
213.5000	382.703
214.0000	382.938
214.5000	383.173
215.0000	383.436
215.5000	383.724
216.0000	384.001
216.5000	384.257
217.0000	384.457
217.5000	384.65
218.0000	384.923
218.5000	385.174
219.0000	385.514
219.5000	385.691
220.0000	385.884
220.5000	386.115
221.0000	386.305
221.5000	386.575
222.0000	386.892
222.5000	387.084
223.0000	387.333
223.5000	387.606
224.0000	387.749
224.5000	387.998
225.0000	388.259
225.5000	388.447
226.0000	388.76
226.5000	389.015
227.0000	389.177
227.5000	389.482
228.0000	389.684
228.5000	389.894
229.0000	390.177
229.5000	390.424
230.0000	390.61
230.5000	390.866
231.0000	391.07
231.5000	391.315
232.0000	391.492
232.5000	391.728
233.0000	391.916
233.5000	392.07
234.0000	392.311
234.5000	392.483
235.0000	392.757
235.5000	392.985
236.0000	393.208
236.5000	393.461
237.0000	393.632
237.5000	393.856
238.0000	394.136
238.5000	394.397
239.0000	394.691
239.5000	394.966
240.0000	395.182
240.5000	395.355
241.0000	395.559
241.5000	395.72
242.0000	395.933
242.5000	396.197
243.0000	396.336
243.5000	396.555
244.0000	396.81
244.5000	396.958
245.0000	397.216
245.5000	397.461
246.0000	397.672
246.5000	397.849
247.0000	398.119
247.5000	398.308
248.0000	398.483
248.5000	398.746
249.0000	398.887
249.5000	399.152
250.0000	399.338
250.5000	399.566
251.0000	399.77
251.5000	399.896
252.0000	400.156
252.5000	400.369
253.0000	400.587
253.5000	400.871
254.0000	401.058
254.5000	401.274
255.0000	401.531
255.5000	401.716
256.0000	401.961
256.5000	402.17
257.0000	402.4
257.5000	402.603
258.0000	402.783
258.5000	403.003
259.0000	403.176
259.5000	403.338
260.0000	403.578
260.5000	403.777
261.0000	403.973
261.5000	404.187
262.0000	404.398
262.5000	404.669
263.0000	404.864
263.5000	405.147
264.0000	405.299
264.5000	405.416
265.0000	405.643
265.5000	405.714
266.0000	405.886
266.5000	406.085
267.0000	406.297
267.5000	406.564
268.0000	406.762
268.5000	406.975
269.0000	407.142
269.5000	407.339
270.0000	407.616
270.5000	407.846
271.0000	408.028
271.5000	408.257
272.0000	408.445
272.5000	408.621
273.0000	408.847
273.5000	409.047
274.0000	409.206
274.5000	409.418
275.0000	409.608
275.5000	409.767
276.0000	409.941
276.5000	410.111
277.0000	410.318
277.5000	410.549
278.0000	410.772
278.5000	410.918
279.0000	411.066
279.5000	411.279
280.0000	411.4
280.5000	411.679
281.0000	411.856
281.5000	411.942
282.0000	412.163
282.5000	412.323
283.0000	412.557
283.5000	412.82
284.0000	412.991
284.5000	413.132
285.0000	413.245
285.5000	413.435
286.0000	413.665
286.5000	413.828
287.0000	414.111
287.5000	414.209
288.0000	414.423
288.5000	414.634
289.0000	414.786
289.5000	415.024
290.0000	415.218
290.5000	415.459
291.0000	415.598
291.5000	415.745
292.0000	415.858
292.5000	416.015
293.0000	416.241
293.5000	416.393
294.0000	416.574
294.5000	416.789
295.0000	417.031
295.5000	417.262
296.0000	417.456
296.5000	417.627
297.0000	417.728
297.5000	417.928
298.0000	418.118
298.5000	418.237
299.0000	418.413
299.5000	418.622
300.0000	418.836
300.5000	418.984
301.0000	419.187
301.5000	419.335
302.0000	419.463
302.5000	419.688
303.0000	419.837
303.5000	420.039
304.0000	420.189
304.5000	420.305
305.0000	420.522
305.5000	420.672
306.0000	420.881
306.5000	421.097
307.0000	421.22
307.5000	421.335
308.0000	421.512
308.5000	421.656
309.0000	421.788
309.5000	422.005
310.0000	422.167
310.5000	422.387
311.0000	422.593
311.5000	422.772
312.0000	422.917
312.5000	423.04
313.0000	423.204
313.5000	423.369
314.0000	423.595
314.5000	423.785
315.0000	423.955
315.5000	424.137
316.0000	424.288
316.5000	424.505
317.0000	424.688
317.5000	424.826
318.0000	424.947
318.5000	425.061
319.0000	425.256
319.5000	425.397
320.0000	425.597
320.5000	425.723
321.0000	425.818
321.5000	425.975
322.0000	426.107
322.5000	426.328
323.0000	426.517
323.5000	426.72
324.0000	426.87
324.5000	427.053
325.0000	427.254
325.5000	427.353
326.0000	427.561
326.5000	427.716
327.0000	427.848
327.5000	428.062
328.0000	428.24
328.5000	428.375
329.0000	428.523
329.5000	428.667
330.0000	428.812
330.5000	428.999
331.0000	429.121
331.5000	429.321
332.0000	429.474
332.5000	429.595
333.0000	429.816
333.5000	429.905
334.0000	430.035
334.5000	430.216
335.0000	430.379
335.5000	430.583
336.0000	430.743
336.5000	430.87
337.0000	430.921
337.5000	431.066
338.0000	431.178
338.5000	431.323
339.0000	431.525
339.5000	431.687
340.0000	431.87
340.5000	431.966
341.0000	432.181
341.5000	432.3
342.0000	432.419
342.5000	432.619
343.0000	432.688
343.5000	432.851
344.0000	433.041
344.5000	433.161
345.0000	433.357
345.5000	433.509
346.0000	433.687
346.5000	433.866
347.0000	433.919
347.5000	434.041
348.0000	434.164
348.5000	434.338
349.0000	434.563
349.5000	434.729
350.0000	434.848
350.5000	434.978
351.0000	435.198
351.5000	435.337
352.0000	435.467
352.5000	435.603
353.0000	435.658
353.5000	435.836
354.0000	436.027
354.5000	436.15
355.0000	436.253
355.5000	436.389
356.0000	436.536
356.5000	436.716
357.0000	436.933
357.5000	437.025
358.0000	437.135
358.5000	437.288
359.0000	437.507
359.5000	437.718
360.0000	437.852
360.5000	437.94
361.0000	438.043
361.5000	438.16
362.0000	438.366
362.5000	438.562
363.0000	438.768
363.5000	438.98
364.0000	439.064
364.5000	439.264
365.0000	439.352
365.5000	439.445
366.0000	439.601
366.5000	439.678
367.0000	439.755
367.5000	439.798
368.0000	439.903
368.5000	440.024
369.0000	440.188
369.5000	440.407
370.0000	440.573
370.5000	440.711
371.0000	440.842
371.5000	440.976
372.0000	441.138
372.5000	441.264
373.0000	441.393
373.5000	441.547
374.0000	441.641
374.5000	441.799
375.0000	441.887
375.5000	441.963
376.0000	442.106
376.5000	442.185
377.0000	442.395
377.5000	442.559
378.0000	442.699
378.5000	442.929
379.0000	443.055
379.5000	443.195
380.0000	443.364
380.5000	443.44
381.0000	443.514
381.5000	443.627
382.0000	443.735
382.5000	443.888
383.0000	444.064
383.5000	444.186
384.0000	444.287
384.5000	444.439
385.0000	444.552
385.5000	444.697
386.0000	444.863
386.5000	444.945
387.0000	445.074
387.5000	445.223
388.0000	445.33
388.5000	445.461
389.0000	445.606
389.5000	445.731
390.0000	445.9
390.5000	446.001
391.0000	446.136
391.5000	446.274
392.0000	446.371
392.5000	446.587
393.0000	446.712
393.5000	446.81
394.0000	446.896
394.5000	446.942
395.0000	447.072
395.5000	447.237
396.0000	447.376
396.5000	447.537
397.0000	447.715
397.5000	447.813
398.0000	447.964
398.5000	448.145
399.0000	448.193
399.5000	448.297
400.0000	448.434
400.5000	448.497
401.0000	448.651
401.5000	448.805
402.0000	448.969
402.5000	449.111
403.0000	449.231
403.5000	449.409
404.0000	449.507
404.5000	449.622
405.0000	449.707
405.5000	449.742
406.0000	449.859
406.5000	449.923
407.0000	450.029
407.5000	450.163
408.0000	450.266
408.5000	450.441
409.0000	450.59
409.5000	450.657
410.0000	450.789
410.5000	450.924
411.0000	451.004
411.5000	451.147
412.0000	451.27
412.5000	451.376
413.0000	451.568
413.5000	451.736
414.0000	451.804
414.5000	451.877
415.0000	451.921
415.5000	452.033
416.0000	452.2
416.5000	452.325
417.0000	452.495
417.5000	452.586
418.0000	452.658
418.5000	452.803
419.0000	452.891
419.5000	452.984
420.0000	453.089
420.5000	453.207
421.0000	453.342
421.5000	453.462
422.0000	453.613
422.5000	453.634
423.0000	453.74
423.5000	453.888
424.0000	454.008
424.5000	454.206
425.0000	454.301
425.5000	454.348
426.0000	454.514
426.5000	454.668
427.0000	454.785
427.5000	454.936
428.0000	455.01
428.5000	455.071
429.0000	455.235
429.5000	455.407
430.0000	455.516
430.5000	455.63
431.0000	455.709
431.5000	455.776
432.0000	455.873
432.5000	455.977
433.0000	456.133
433.5000	456.3
434.0000	456.458
434.5000	456.535
435.0000	456.553
435.5000	456.626
436.0000	456.715
436.5000	456.854
437.0000	457.019
437.5000	457.13
438.0000	457.256
438.5000	457.403
439.0000	457.55
439.5000	457.599
440.0000	457.638
440.5000	457.715
441.0000	457.776
441.5000	457.894
442.0000	458.01
442.5000	458.154
443.0000	458.212
443.5000	458.338
444.0000	458.446
444.5000	458.544
445.0000	458.695
445.5000	458.739
446.0000	458.87
446.5000	458.956
447.0000	459.03
447.5000	459.208
448.0000	459.243
448.5000	459.289
449.0000	459.429
449.5000	459.558
450.0000	459.715
450.5000	459.887
451.0000	460.009
451.5000	460.029
452.0000	460.095
452.5000	460.266
453.0000	460.348
453.5000	460.484
454.0000	460.621
454.5000	460.628
455.0000	460.643
455.5000	460.73
456.0000	460.798
456.5000	460.883
457.0000	461.039
457.5000	461.091
458.0000	461.155
458.5000	461.339
459.0000	461.458
459.5000	461.595
460.0000	461.714
460.5000	461.76
461.0000	461.821
461.5000	461.949
462.0000	462.075
462.5000	462.147
463.0000	462.284
463.5000	462.403
464.0000	462.521
464.5000	462.685
465.0000	462.818
465.5000	462.836
466.0000	462.891
466.5000	462.907
467.0000	462.95
467.5000	463.128
468.0000	463.243
468.5000	463.366
469.0000	463.439
469.5000	463.467
470.0000	463.589
470.5000	463.674
471.0000	463.796
471.5000	463.834
472.0000	463.911
472.5000	463.973
473.0000	464.059
473.5000	464.203
474.0000	464.319
474.5000	464.44
475.0000	464.531
475.5000	464.675
476.0000	464.81
476.5000	464.92
477.0000	465.032
477.5000	465.116
478.0000	465.152
478.5000	465.232
479.0000	465.326
479.5000	465.394
480.0000	465.447
480.5000	465.535
481.0000	465.591
481.5000	465.669
482.0000	465.821
482.5000	465.925
483.0000	466.031
483.5000	466.185
484.0000	466.276
484.5000	466.333
485.0000	466.409
485.5000	466.493
486.0000	466.583
486.5000	466.699
487.0000	466.836
487.5000	466.889
488.0000	466.973
488.5000	467.03
489.0000	467.111
489.5000	467.179
490.0000	467.221
490.5000	467.323
491.0000	467.382
491.5000	467.638
492.0000	467.737
492.5000	467.806
493.0000	467.948
493.5000	467.927
494.0000	468.054
494.5000	468.157
495.0000	468.142
495.5000	468.266
496.0000	468.333
496.5000	468.406
497.0000	468.55
497.5000	468.525
498.0000	468.559
498.5000	468.597
499.0000	468.654
499.5000	468.742
500.0000	468.834
500.5000	468.931
501.0000	469.055
501.5000	469.176
502.0000	469.258
502.5000	469.391
503.0000	469.417
503.5000	469.512
504.0000	469.569
504.5000	469.657
505.0000	469.709
505.5000	469.808
506.0000	469.947
506.5000	470.02
507.0000	470.151
507.5000	470.188
508.0000	470.255
508.5000	470.477
509.0000	470.61
509.5000	470.701
510.0000	470.801
510.5000	470.771
511.0000	470.79
511.5000	470.904
512.0000	471.017
512.5000	471.026
513.0000	471.11
513.5000	471.097
514.0000	471.122
514.5000	471.25
515.0000	471.323
515.5000	471.541
516.0000	471.584
516.5000	471.646
517.0000	471.788
517.5000	471.799
518.0000	471.889
518.5000	471.984
519.0000	472.048
519.5000	472.13
520.0000	472.218
520.5000	472.338
521.0000	472.457
521.5000	472.53
522.0000	472.636
522.5000	472.76
523.0000	472.77
523.5000	472.913
524.0000	472.973
524.5000	472.964
525.0000	473.016
525.5000	473.004
526.0000	473.141
526.5000	473.229
527.0000	473.344
527.5000	473.414
528.0000	473.426
528.5000	473.476
529.0000	473.577
529.5000	473.691
530.0000	473.825
530.5000	473.95
531.0000	474
531.5000	474.043
532.0000	474.095
532.5000	474.201
533.0000	474.273
533.5000	474.37
534.0000	474.465
534.5000	474.5
535.0000	474.585
535.5000	474.655
536.0000	474.693
536.5000	474.734
537.0000	474.748
537.5000	474.798
538.0000	474.902
538.5000	475.009
539.0000	475.126
539.5000	475.266
540.0000	475.309
540.5000	475.364
541.0000	475.45
541.5000	475.484
542.0000	475.561
542.5000	475.604
543.0000	475.648
543.5000	475.661
544.0000	475.74
544.5000	475.82
545.0000	475.847
545.5000	476.016
546.0000	476.112
546.5000	476.182
547.0000	476.337
547.5000	476.376
548.0000	476.353
548.5000	476.432
549.0000	476.414
549.5000	476.473
550.0000	476.622
550.5000	476.747
551.0000	476.889
551.5000	476.946
552.0000	476.961
552.5000	477.013
553.0000	477.12
553.5000	477.154
554.0000	477.237
554.5000	477.359
555.0000	477.441
555.5000	477.564
556.0000	477.699
556.5000	477.724
557.0000	477.762
557.5000	477.86
558.0000	477.941
558.5000	477.992
559.0000	477.987
559.5000	478.095
560.0000	478.11
560.5000	478.134
561.0000	478.275
561.5000	478.272
562.0000	478.327
562.5000	478.443
563.0000	478.476
563.5000	478.565
564.0000	478.633
564.5000	478.671
565.0000	478.802
565.5000	478.848
566.0000	478.989
566.5000	479.111
567.0000	479.137
567.5000	479.165
568.0000	479.167
568.5000	479.166
569.0000	479.24
569.5000	479.307
570.0000	479.392
570.5000	479.509
571.0000	479.584
571.5000	479.607
572.0000	479.623
572.5000	479.644
573.0000	479.704
573.5000	479.87
574.0000	480.041
574.5000	480.096
575.0000	480.184
575.5000	480.201
576.0000	480.144
576.5000	480.268
577.0000	480.289
577.5000	480.415
578.0000	480.514
578.5000	480.56
579.0000	480.655
579.5000	480.689
580.0000	480.771
580.5000	480.838
581.0000	480.77
581.5000	480.823
582.0000	480.931
582.5000	480.956
583.0000	481.153
583.5000	481.223
584.0000	481.302
584.5000	481.351
585.0000	481.409
585.5000	481.506
586.0000	481.505
586.5000	481.611
587.0000	481.657
587.5000	481.725
588.0000	481.807
588.5000	481.882
589.0000	481.952
589.5000	481.991
590.0000	482.089
590.5000	482.128
591.0000	482.147
591.5000	482.258
592.0000	482.262
592.5000	482.311
593.0000	482.424
593.5000	482.452
594.0000	482.53
594.5000	482.626
595.0000	482.629
595.5000	482.626
596.0000	482.659
596.5000	482.712
597.0000	482.85
597.5000	482.986
598.0000	483.068
598.5000	483.042
599.0000	483.08
599.5000	483.102
600.0000	483.145
600.5000	483.244
601.0000	483.223
601.5000	483.279
602.0000	483.393
602.5000	483.521
603.0000	483.628
603.5000	483.696
604.0000	483.71
604.5000	483.719
605.0000	483.822
605.5000	483.894
606.0000	483.919
606.5000	484.001
607.0000	484.011
607.5000	484.107
608.0000	484.254
608.5000	484.295
609.0000	484.424
609.5000	484.455
610.0000	484.442
610.5000	484.586
611.0000	484.646
611.5000	484.692
612.0000	484.804
612.5000	484.857
613.0000	484.883
613.5000	484.98
614.0000	485.019
614.5000	485.019
615.0000	485.076
615.5000	485.144
616.0000	485.229
616.5000	485.253
617.0000	485.332
617.5000	485.373
618.0000	485.459
618.5000	485.581
619.0000	485.663
619.5000	485.744
620.0000	485.791
620.5000	485.805
621.0000	485.814
621.5000	485.859
622.0000	485.872
622.5000	485.905
623.0000	485.999
623.5000	486.043
624.0000	486.18
624.5000	486.274
625.0000	486.32
625.5000	486.396
626.0000	486.44
626.5000	486.495
627.0000	486.511
627.5000	486.556
628.0000	486.533
628.5000	486.577
629.0000	486.674
629.5000	486.708
630.0000	486.774
630.5000	486.901
631.0000	486.93
631.5000	486.976
632.0000	487.02
632.5000	487.025
633.0000	487.145
633.5000	487.229
634.0000	487.314
634.5000	487.453
635.0000	487.48
635.5000	487.513
636.0000	487.58
636.5000	487.573
637.0000	487.536
637.5000	487.583
638.0000	487.626
638.5000	487.684
639.0000	487.813
639.5000	487.869
640.0000	487.882
640.5000	487.876
641.0000	487.906
641.5000	487.926
642.0000	488.056
642.5000	488.152
643.0000	488.218
643.5000	488.316
644.0000	488.31
644.5000	488.368
645.0000	488.401
645.5000	488.386
646.0000	488.438
646.5000	488.53
647.0000	488.598
647.5000	488.726
648.0000	488.822
648.5000	488.758
649.0000	488.764
649.5000	488.807
650.0000	488.817
650.5000	488.88
651.0000	489.019
651.5000	489.072
652.0000	489.108
652.5000	489.179
653.0000	489.239
653.5000	489.193
654.0000	489.234
654.5000	489.258
655.0000	489.252
655.5000	489.428
656.0000	489.354
656.5000	489.481
657.0000	489.538
657.5000	489.513
658.0000	489.712
658.5000	489.703
659.0000	489.685
659.5000	489.742
660.0000	489.826
660.5000	489.949
661.0000	490.046
661.5000	490.124
662.0000	490.094
662.5000	490.088
663.0000	490.072
663.5000	490.085
664.0000	490.1
664.5000	490.144
665.0000	490.193
665.5000	490.215
666.0000	490.306
666.5000	490.408
667.0000	490.509
667.5000	490.593
668.0000	490.629
668.5000	490.588
669.0000	490.634
669.5000	490.636
670.0000	490.681
670.5000	490.848
671.0000	490.954
671.5000	491.044
672.0000	491.143
672.5000	491.1
673.0000	491.162
673.5000	491.271
674.0000	491.281
674.5000	491.331
675.0000	491.292
675.5000	491.242
676.0000	491.308
676.5000	491.324
677.0000	491.373
677.5000	491.472
678.0000	491.567
678.5000	491.571
679.0000	491.683
679.5000	491.783
680.0000	491.817
680.5000	491.977
681.0000	491.996
681.5000	491.983
682.0000	492.046
682.5000	492.036
683.0000	492.02
683.5000	492.092
684.0000	492.099
684.5000	492.223
685.0000	492.329
685.5000	492.32
686.0000	492.37
686.5000	492.398
687.0000	492.438
687.5000	492.481
688.0000	492.508
688.5000	492.529
689.0000	492.583
689.5000	492.693
690.0000	492.723
690.5000	492.812
691.0000	492.899
691.5000	492.883
692.0000	492.949
692.5000	492.85
693.0000	492.877
693.5000	492.912
694.0000	493.033
694.5000	493.142
695.0000	493.109
695.5000	493.245
696.0000	493.228
696.5000	493.347
697.0000	493.474
697.5000	493.514
698.0000	493.578
698.5000	493.57
699.0000	493.581
699.5000	493.523
700.0000	493.544
700.5000	493.5
701.0000	493.588
701.5000	493.688
702.0000	493.701
702.5000	493.842
703.0000	493.847
703.5000	493.873
704.0000	493.962
704.5000	494.016
705.0000	494.022
705.5000	494.066
706.0000	494.112
706.5000	494.221
707.0000	494.242
707.5000	494.255
708.0000	494.303
708.5000	494.251
709.0000	494.315
709.5000	494.397
710.0000	494.369
710.5000	494.428
711.0000	494.447
711.5000	494.475
712.0000	494.527
712.5000	494.532
713.0000	494.605
713.5000	494.624
714.0000	494.649
714.5000	494.744
715.0000	494.789
715.5000	494.849
716.0000	494.937
716.5000	494.923
717.0000	494.934
717.5000	494.914
718.0000	494.925
718.5000	494.971
719.0000	494.999
719.5000	495.097
720.0000	495.106
720.5000	495.138
721.0000	495.162
721.5000	495.263
722.0000	495.364
722.5000	495.376
723.0000	495.496
723.5000	495.449
724.0000	495.453
724.5000	495.486
725.0000	495.485
725.5000	495.549
726.0000	495.609
726.5000	495.678
727.0000	495.709
727.5000	495.7
728.0000	495.686
728.5000	495.771
729.0000	495.763
729.5000	495.921
730.0000	495.986
730.5000	495.939
731.0000	496.093
731.5000	496.07
732.0000	496.065
732.5000	496.127
733.0000	496.093
733.5000	496.118
734.0000	496.151
734.5000	496.206
735.0000	496.217
735.5000	496.207
736.0000	496.218
736.5000	496.192
737.0000	496.171
737.5000	496.201
738.0000	496.289
738.5000	496.317
739.0000	496.431
739.5000	496.456
740.0000	496.488
740.5000	496.58
741.0000	496.559
741.5000	496.573
742.0000	496.673
742.5000	496.769
743.0000	496.872
743.5000	496.988
744.0000	496.927
744.5000	496.837
745.0000	496.833
745.5000	496.84
746.0000	496.927
746.5000	497.075
747.0000	497.076
747.5000	497.145
748.0000	497.185
748.5000	497.158
749.0000	497.212
749.5000	497.138
750.0000	497.155
750.5000	497.24
751.0000	497.315
751.5000	497.391
752.0000	497.364
752.5000	497.433
753.0000	497.487
753.5000	497.556
754.0000	497.643
754.5000	497.627
755.0000	497.676
755.5000	497.757
756.0000	497.829
756.5000	497.906
757.0000	497.891
757.5000	497.905
758.0000	497.919
758.5000	497.911
759.0000	497.973
759.5000	498.03
760.0000	498.125
760.5000	498.118
761.0000	498.205
761.5000	498.263
762.0000	498.232
762.5000	498.31
763.0000	498.283
763.5000	498.274
764.0000	498.347
764.5000	498.403
765.0000	498.427
765.5000	498.466
766.0000	498.503
766.5000	498.526
767.0000	498.585
767.5000	498.585
768.0000	498.578
768.5000	498.545
769.0000	498.588
769.5000	498.664
770.0000	498.701
770.5000	498.827
771.0000	498.837
771.5000	498.914
772.0000	499.012
772.5000	498.99
773.0000	499.054
773.5000	499.072
774.0000	499.024
774.5000	499.08
775.0000	499.076
775.5000	499.031
776.0000	499.099
776.5000	499.189
777.0000	499.142
777.5000	499.242
778.0000	499.26
778.5000	499.199
779.0000	499.406
779.5000	499.331
780.0000	499.359
780.5000	499.541
781.0000	499.466
781.5000	499.544
782.0000	499.581
782.5000	499.507
783.0000	499.617
783.5000	499.707
784.0000	499.724
784.5000	499.785
785.0000	499.802
785.5000	499.714
786.0000	499.806
786.5000	499.849
787.0000	499.826
787.5000	499.903
788.0000	499.941
788.5000	499.973
789.0000	500.032
789.5000	500.141
790.0000	500.117
790.5000	500.111
791.0000	500.113
791.5000	500.068
792.0000	500.146
792.5000	500.16
793.0000	500.215
793.5000	500.304
794.0000	500.295
794.5000	500.334
795.0000	500.341
795.5000	500.391
796.0000	500.455
796.5000	500.523
797.0000	500.497
797.5000	500.479
798.0000	500.529
798.5000	500.568
799.0000	500.658
799.5000	500.715
800.0000	500.716
800.5000	500.71
801.0000	500.773
801.5000	500.843
802.0000	500.863
802.5000	500.911
803.0000	500.977
803.5000	500.933
804.0000	501.009
804.5000	500.997
805.0000	500.991
805.5000	501.071
806.0000	501.09
806.5000	501.095
807.0000	501.148
807.5000	501.159
808.0000	501.175
808.5000	501.215
809.0000	501.254
809.5000	501.225
810.0000	501.24
810.5000	501.29
811.0000	501.318
811.5000	501.408
812.0000	501.384
812.5000	501.428
813.0000	501.41
813.5000	501.444
814.0000	501.505
814.5000	501.55
815.0000	501.573
815.5000	501.578
816.0000	501.65
816.5000	501.6
817.0000	501.62
817.5000	501.737
818.0000	501.798
818.5000	501.9
819.0000	501.964
819.5000	501.9
820.0000	501.907
820.5000	501.99
821.0000	502.032
821.5000	502.097
822.0000	502.081
822.5000	502.018
823.0000	502.019
823.5000	502.068
824.0000	502.129
824.5000	502.195
825.0000	502.177
825.5000	502.201
826.0000	502.205
826.5000	502.214
827.0000	502.361
827.5000	502.318
828.0000	502.292
828.5000	502.37
829.0000	502.356
829.5000	502.383
830.0000	502.491
830.5000	502.462
831.0000	502.424
831.5000	502.422
832.0000	502.433
832.5000	502.414
833.0000	502.482
833.5000	502.549
834.0000	502.516
834.5000	502.582
835.0000	502.61
835.5000	502.692
836.0000	502.782
836.5000	502.843
837.0000	502.861
837.5000	502.774
838.0000	502.804
838.5000	502.758
839.0000	502.799
839.5000	502.888
840.0000	502.926
840.5000	503.002
841.0000	502.97
841.5000	502.989
842.0000	502.957
842.5000	502.978
843.0000	503.031
843.5000	503.067
844.0000	503.149
844.5000	503.206
845.0000	503.368
845.5000	503.48
846.0000	503.459
846.5000	503.504
847.0000	503.45
847.5000	503.416
848.0000	503.459
848.5000	503.358
849.0000	503.368
849.5000	503.345
850.0000	503.408
850.5000	503.502
851.0000	503.499
851.5000	503.518
852.0000	503.478
852.5000	503.498
853.0000	503.547
853.5000	503.625
854.0000	503.729
854.5000	503.779
855.0000	503.817
855.5000	503.77
856.0000	503.709
856.5000	503.768
857.0000	503.746
857.5000	503.761
858.0000	503.789
858.5000	503.765
859.0000	503.839
859.5000	503.935
860.0000	503.939
860.5000	504.062
861.0000	504.104
861.5000	504.123
862.0000	504.193
862.5000	504.069
863.0000	503.976
863.5000	504.021
864.0000	504.06
864.5000	504.136
865.0000	504.19
865.5000	504.133
866.0000	504.119
866.5000	504.167
867.0000	504.196
867.5000	504.22
868.0000	504.28
868.5000	504.319
869.0000	504.388
869.5000	504.465
870.0000	504.453
870.5000	504.429
871.0000	504.412
871.5000	504.36
872.0000	504.4
872.5000	504.468
873.0000	504.448
873.5000	504.531
874.0000	504.562
874.5000	504.563
875.0000	504.688
875.5000	504.709
876.0000	504.762
876.5000	504.753
877.0000	504.771
877.5000	504.823
878.0000	504.838
878.5000	504.855
879.0000	504.842
879.5000	504.896
880.0000	504.873
880.5000	504.886
881.0000	504.95
881.5000	504.926
882.0000	504.98
882.5000	505.068
883.0000	505.023
883.5000	505.102
884.0000	505.056
884.5000	505.035
885.0000	505.13
885.5000	505.125
886.0000	505.21
886.5000	505.281
887.0000	505.27
887.5000	505.287
888.0000	505.34
888.5000	505.294
889.0000	505.306
889.5000	505.321
890.0000	505.353
890.5000	505.472
891.0000	505.443
891.5000	505.482
892.0000	505.449
892.5000	505.408
893.0000	505.66
893.5000	505.722
894.0000	505.748
894.5000	505.785
895.0000	505.647
895.5000	505.652
896.0000	505.704
896.5000	505.75
897.0000	505.746
897.5000	505.725
898.0000	505.707
898.5000	505.686
899.0000	505.717
899.5000	505.697
900.0000	505.702
900.5000	505.732
901.0000	505.734
901.5000	505.788
902.0000	505.836
902.5000	505.872
903.0000	505.916
903.5000	505.973
904.0000	506.037
904.5000	506.054
905.0000	506.088
905.5000	506.003
906.0000	505.996
906.5000	506.047
907.0000	506.045
907.5000	506.1
908.0000	506.13
908.5000	506.144
909.0000	506.127
909.5000	506.257
910.0000	506.247
910.5000	506.306
911.0000	506.356
911.5000	506.289
912.0000	506.326
912.5000	506.307
913.0000	506.329
913.5000	506.337
914.0000	506.415
914.5000	506.467
915.0000	506.502
915.5000	506.565
916.0000	506.524
916.5000	506.505
917.0000	506.472
917.5000	506.437
918.0000	506.548
918.5000	506.518
919.0000	506.594
919.5000	506.655
920.0000	506.565
920.5000	506.654
921.0000	506.716
921.5000	506.742
922.0000	506.775
922.5000	506.771
923.0000	506.703
923.5000	506.691
924.0000	506.723
924.5000	506.65
925.0000	506.719
925.5000	506.755
926.0000	506.753
926.5000	506.863
927.0000	506.918
927.5000	506.939
928.0000	507.002
928.5000	507.009
929.0000	507.001
929.5000	507.051
930.0000	507.127
930.5000	507.174
931.0000	507.191
931.5000	507.201
932.0000	507.216
932.5000	507.21
933.0000	507.227
933.5000	507.29
934.0000	507.223
934.5000	507.231
935.0000	507.265
935.5000	507.264
936.0000	507.263
936.5000	507.335
937.0000	507.328
937.5000	507.307
938.0000	507.375
938.5000	507.313
939.0000	507.408
939.5000	507.454
940.0000	507.406
940.5000	507.453
941.0000	507.413
941.5000	507.47
942.0000	507.553
942.5000	507.591
943.0000	507.659
943.5000	507.647
944.0000	507.737
944.5000	507.818
945.0000	507.842
945.5000	507.906
946.0000	507.95
946.5000	507.965
947.0000	508.021
947.5000	508.018
948.0000	508.051
948.5000	508.082
949.0000	508.063
949.5000	508.113
950.0000	508.058
950.5000	508.057
951.0000	508.056
951.5000	508.093
952.0000	508.188
952.5000	508.223
953.0000	508.288
953.5000	508.248
954.0000	508.223
954.5000	508.217
955.0000	508.235
955.5000	508.338
956.0000	508.376
956.5000	508.412
957.0000	508.41
957.5000	508.427
958.0000	508.479
958.5000	508.552
959.0000	508.576
959.5000	508.588
960.0000	508.625
960.5000	508.605
961.0000	508.729
961.5000	508.764
962.0000	508.742
962.5000	508.77
963.0000	508.642
963.5000	508.648
964.0000	508.705
964.5000	508.774
965.0000	508.887
965.5000	508.918
966.0000	508.965
966.5000	509.041
967.0000	509.111
967.5000	509.167
968.0000	509.161
968.5000	509.063
969.0000	509.042
969.5000	509.041
970.0000	509.11
970.5000	509.225
971.0000	509.324
971.5000	509.362
972.0000	509.285
972.5000	509.335
973.0000	509.243
973.5000	509.266
974.0000	509.363
974.5000	509.304
975.0000	509.324
975.5000	509.304
976.0000	509.247
976.5000	509.319
977.0000	509.35
977.5000	509.357
978.0000	509.464
978.5000	509.405
979.0000	509.464
979.5000	509.547
980.0000	509.531
980.5000	509.566
981.0000	509.595
981.5000	509.642
982.0000	509.632
982.5000	509.693
983.0000	509.741
983.5000	509.704
984.0000	509.827
984.5000	509.825
985.0000	509.798
985.5000	509.855
986.0000	509.779
986.5000	509.848
987.0000	509.836
987.5000	509.786
988.0000	509.819
988.5000	509.861
989.0000	509.981
989.5000	510.047
990.0000	510.113
990.5000	510.095
991.0000	510.048
991.5000	510.105
992.0000	510.114
992.5000	510.067
993.0000	510.174
993.5000	510.168
994.0000	510.196
994.5000	510.249
995.0000	510.189
995.5000	510.252
996.0000	510.249
996.5000	510.311
997.0000	510.419
997.5000	510.414
998.0000	510.474
998.5000	510.505
999.0000	510.454
999.5000	510.466
1000.0000	510.479
1000.5000	510.472
1001.0000	510.477
1001.5000	510.502
1002.0000	510.48
1002.5000	510.502
1003.0000	510.569
1003.5000	510.609
1004.0000	510.707
1004.5000	510.799
1005.0000	510.825
1005.5000	510.807
1006.0000	510.761
1006.5000	510.714
1007.0000	510.755
1007.5000	510.81
1008.0000	510.905
1008.5000	510.912
1009.0000	510.894
1009.5000	510.976
1010.0000	511.018
1010.5000	511.076
1011.0000	511.136
1011.5000	511.093
1012.0000	511.016
1012.5000	510.95
1013.0000	510.988
1013.5000	511.062
1014.0000	511.075
1014.5000	511.184
1015.0000	511.15
1015.5000	511.061
1016.0000	511.123
1016.5000	511.098
1017.0000	511.075
1017.5000	511.179
1018.0000	511.223
1018.5000	511.259
1019.0000	511.292
1019.5000	511.314
1020.0000	511.354
1020.5000	511.412
1021.0000	511.489
1021.5000	511.505
1022.0000	511.567
1022.5000	511.489
1023.0000	511.525
1023.5000	511.582
1024.0000	511.495
1024.5000	511.653
1025.0000	511.755
1025.5000	511.766
1026.0000	511.847
1026.5000	511.849
1027.0000	511.806
1027.5000	511.804
1028.0000	511.829
1028.5000	511.859
1029.0000	511.823
1029.5000	511.874
1030.0000	511.951
1030.5000	511.962
1031.0000	511.978
1031.5000	511.91
1032.0000	511.914
1032.5000	511.927
1033.0000	512.007
1033.5000	512.095
1034.0000	512.072
1034.5000	512.135
1035.0000	512.202
1035.5000	512.201
1036.0000	512.243
1036.5000	512.261
1037.0000	512.292
1037.5000	512.255
1038.0000	512.292
1038.5000	512.336
1039.0000	512.193
1039.5000	512.27
1040.0000	512.318
1040.5000	512.284
1041.0000	512.413
1041.5000	512.473
1042.0000	512.421
1042.5000	512.432
1043.0000	512.403
1043.5000	512.3
1044.0000	512.319
1044.5000	512.379
1045.0000	512.386
1045.5000	512.485
1046.0000	512.518
1046.5000	512.473
1047.0000	512.507
1047.5000	512.518
1048.0000	512.556
1048.5000	512.615
1049.0000	512.629
1049.5000	512.711
1050.0000	512.691
1050.5000	512.676
1051.0000	512.722
1051.5000	512.711
1052.0000	512.748
1052.5000	512.802
1053.0000	512.894
1053.5000	512.962
1054.0000	513.037
1054.5000	513.098
1055.0000	513.049
1055.5000	513.049
1056.0000	513.079
1056.5000	513.107
1057.0000	513.145
1057.5000	513.182
1058.0000	513.166
1058.5000	513.148
1059.0000	513.192
1059.5000	513.185
1060.0000	513.194
1060.5000	513.166
1061.0000	513.203
1061.5000	513.237
1062.0000	513.25
1062.5000	513.254
1063.0000	513.294
1063.5000	513.269
1064.0000	513.26
1064.5000	513.348
1065.0000	513.323
1065.5000	513.383
1066.0000	513.395
1066.5000	513.409
1067.0000	513.423
1067.5000	513.411
1068.0000	513.435
1068.5000	513.391
1069.0000	513.423
1069.5000	513.397
1070.0000	513.365
1070.5000	513.447
1071.0000	513.41
1071.5000	513.485
1072.0000	513.574
1072.5000	513.555
1073.0000	513.597
1073.5000	513.636
1074.0000	513.67
1074.5000	513.688
1075.0000	513.673
1075.5000	513.686
1076.0000	513.733
1076.5000	513.764
1077.0000	513.773
1077.5000	513.782
1078.0000	513.78
1078.5000	513.713
1079.0000	513.703
1079.5000	513.676
1080.0000	513.635
1080.5000	513.709
1081.0000	513.766
1081.5000	513.755
1082.0000	513.771
1082.5000	513.829
1083.0000	513.866
1083.5000	513.942
1084.0000	513.977
1084.5000	513.975
1085.0000	513.957
1085.5000	513.849
1086.0000	513.861
1086.5000	513.835
1087.0000	513.859
1087.5000	513.992
1088.0000	514.019
1088.5000	514.051
1089.0000	514.042
1089.5000	514.025
1090.0000	514.042
1090.5000	514.12
1091.0000	514.16
1091.5000	514.241
1092.0000	514.211
1092.5000	514.161
1093.0000	514.177
1093.5000	514.146
1094.0000	514.131
1094.5000	514.198
1095.0000	514.225
1095.5000	514.252
1096.0000	514.297
1096.5000	514.288
1097.0000	514.319
1097.5000	514.27
1098.0000	514.322
1098.5000	514.338
1099.0000	514.312
1099.5000	514.354
1100.0000	514.363
1100.5000	514.376
1101.0000	514.401
1101.5000	514.435
1102.0000	514.476
1102.5000	514.427
1103.0000	514.378
1103.5000	514.422
1104.0000	514.467
1104.5000	514.539
1105.0000	514.681
1105.5000	514.662
1106.0000	514.649
1106.5000	514.679
1107.0000	514.615
1107.5000	514.698
1108.0000	514.705
1108.5000	514.691
1109.0000	514.696
1109.5000	514.703
1110.0000	514.794
1110.5000	514.812
1111.0000	514.835
1111.5000	514.805
1112.0000	514.739
1112.5000	514.731
1113.0000	514.739
1113.5000	514.745
1114.0000	514.746
1114.5000	514.783
1115.0000	514.866
1115.5000	514.855
1116.0000	514.814
1116.5000	514.909
1117.0000	514.836
1117.5000	514.847
1118.0000	514.93
1118.5000	514.851
1119.0000	514.866
1119.5000	514.883
1120.0000	514.939
1120.5000	514.949
1121.0000	515.032
1121.5000	514.982
1122.0000	514.924
1122.5000	514.929
1123.0000	514.867
1123.5000	515.041
1124.0000	515.116
1124.5000	515.172
1125.0000	515.233
1125.5000	515.189
1126.0000	515.143
1126.5000	515.205
1127.0000	515.252
1127.5000	515.3
1128.0000	515.348
1128.5000	515.319
1129.0000	515.367
1129.5000	515.385
1130.0000	515.443
1130.5000	515.507
1131.0000	515.469
1131.5000	515.455
1132.0000	515.43
1132.5000	515.442
1133.0000	515.446
1133.5000	515.463
1134.0000	515.445
1134.5000	515.513
1135.0000	515.503
1135.5000	515.501
1136.0000	515.52
1136.5000	515.439
1137.0000	515.518
1137.5000	515.527
1138.0000	515.488
1138.5000	515.525
1139.0000	515.51
1139.5000	515.498
1140.0000	515.632
1140.5000	515.623
1141.0000	515.65
1141.5000	515.68
1142.0000	515.589
1142.5000	515.631
1143.0000	515.656
1143.5000	515.75
1144.0000	515.818
1144.5000	515.8
1145.0000	515.776
1145.5000	515.784
1146.0000	515.776
1146.5000	515.747
1147.0000	515.744
1147.5000	515.685
1148.0000	515.689
1148.5000	515.753
1149.0000	515.8
1149.5000	515.742
1150.0000	515.751
1150.5000	515.746
1151.0000	515.725
1151.5000	515.811
1152.0000	515.765
1152.5000	515.768
1153.0000	515.761
1153.5000	515.734
1154.0000	515.828
1154.5000	515.84
1155.0000	515.925
1155.5000	516.042
1156.0000	516.145
1156.5000	516.165
1157.0000	516.109
1157.5000	516.038
1158.0000	515.946
1158.5000	515.947
1159.0000	515.965
1159.5000	515.902
1160.0000	515.907
1160.5000	515.908
1161.0000	515.938
1161.5000	516.064
1162.0000	516.091
1162.5000	516.066
1163.0000	516.036
1163.5000	516.042
1164.0000	516.043
1164.5000	516.097
1165.0000	516.133
1165.5000	516.135
1166.0000	516.151
1166.5000	516.167
1167.0000	516.166
1167.5000	516.18
1168.0000	516.227
1168.5000	516.242
1169.0000	516.308
1169.5000	516.244
1170.0000	516.237
1170.5000	516.248
1171.0000	516.21
1171.5000	516.291
1172.0000	516.369
1172.5000	516.364
1173.0000	516.436
1173.5000	516.439
1174.0000	516.402
1174.5000	516.517
1175.0000	516.475
1175.5000	516.498
1176.0000	516.539
1176.5000	516.495
1177.0000	516.529
1177.5000	516.56
1178.0000	516.572
1178.5000	516.621
1179.0000	516.62
1179.5000	516.711
1180.0000	516.694
1180.5000	516.686
1181.0000	516.777
1181.5000	516.694
1182.0000	516.687
1182.5000	516.674
1183.0000	516.643
1183.5000	516.698
1184.0000	516.733
1184.5000	516.756
1185.0000	516.754
1185.5000	516.754
1186.0000	516.811
1186.5000	516.817
1187.0000	516.871
1187.5000	516.916
1188.0000	516.92
1188.5000	517.01
1189.0000	517.014
1189.5000	516.982
1190.0000	516.936
1190.5000	516.902
1191.0000	516.872
1191.5000	516.879
1192.0000	516.953
1192.5000	516.975
1193.0000	517.093
1193.5000	517.187
1194.0000	517.104
1194.5000	517.131
1195.0000	517.051
1195.5000	516.996
1196.0000	517.064
1196.5000	517.038
1197.0000	517.117
1197.5000	517.121
1198.0000	517.178
1198.5000	517.182
1199.0000	517.208
1199.5000	517.267
1200.0000	517.299
1200.5000	517.267
1201.0000	517.25
1201.5000	517.122
1202.0000	517.089
1202.5000	517.185
1203.0000	517.148
1203.5000	517.333
1204.0000	517.342
1204.5000	517.377
1205.0000	517.539
1205.5000	517.564
1206.0000	517.682
1206.5000	517.711
1207.0000	517.676
1207.5000	517.648
1208.0000	517.561
1208.5000	517.553
1209.0000	517.553
1209.5000	517.655
1210.0000	517.746
1210.5000	517.776
1211.0000	517.741
1211.5000	517.677
1212.0000	517.666
1212.5000	517.703
1213.0000	517.817
1213.5000	517.803
1214.0000	517.795
1214.5000	517.814
1215.0000	517.77
1215.5000	517.898
1216.0000	517.989
1216.5000	518.01
1217.0000	518.071
1217.5000	518.104
1218.0000	518.077
1218.5000	518.098
1219.0000	518.082
1219.5000	518.047
1220.0000	518.012
1220.5000	518.073
1221.0000	518.082
1221.5000	518.055
1222.0000	518.142
1222.5000	518.143
1223.0000	518.221
1223.5000	518.292
1224.0000	518.308
1224.5000	518.24
1225.0000	518.284
1225.5000	518.321
1226.0000	518.294
1226.5000	518.441
1227.0000	518.41
1227.5000	518.424
1228.0000	518.472
1228.5000	518.428
1229.0000	518.502
1229.5000	518.556
1230.0000	518.622
1230.5000	518.693
1231.0000	518.717
1231.5000	518.699
1232.0000	518.669
1232.5000	518.69
1233.0000	518.683
1233.5000	518.757
1234.0000	518.826
1234.5000	518.833
1235.0000	518.836
1235.5000	518.776
1236.0000	518.761
1236.5000	518.766
1237.0000	518.722
1237.5000	518.817
1238.0000	518.907
1238.5000	518.93
1239.0000	519.051
1239.5000	519.039
1240.0000	518.977
1240.5000	518.99
1241.0000	519.062
1241.5000	519.045
1242.0000	519.03
1242.5000	519.036
1243.0000	518.964
1243.5000	519.023
1244.0000	519.158
1244.5000	519.239
1245.0000	519.297
1245.5000	519.287
1246.0000	519.265
1246.5000	519.219
1247.0000	519.248
1247.5000	519.238
1248.0000	519.322
1248.5000	519.309
1249.0000	519.292
1249.5000	519.387
1250.0000	519.332
1250.5000	519.337
1251.0000	519.318
1251.5000	519.323
1252.0000	519.292
1252.5000	519.378
1253.0000	519.447
1253.5000	519.449
1254.0000	519.497
1254.5000	519.461
1255.0000	519.424
1255.5000	519.523
1256.0000	519.552
1256.5000	519.599
1257.0000	519.614
1257.5000	519.528
1258.0000	519.533
1258.5000	519.543
1259.0000	519.589
1259.5000	519.56
1260.0000	519.589
1260.5000	519.529
1261.0000	519.545
1261.5000	519.587
1262.0000	519.569
1262.5000	519.657
1263.0000	519.687
1263.5000	519.691
1264.0000	519.664
1264.5000	519.614
1265.0000	519.572
1265.5000	519.542
1266.0000	519.562
1266.5000	519.602
1267.0000	519.635
1267.5000	519.683
1268.0000	519.696
1268.5000	519.742
1269.0000	519.659
1269.5000	519.667
1270.0000	519.709
1270.5000	519.72
1271.0000	519.817
1271.5000	519.81
1272.0000	519.788
1272.5000	519.776
1273.0000	519.821
1273.5000	519.789
1274.0000	519.854
1274.5000	519.753
1275.0000	519.727
1275.5000	519.719
1276.0000	519.612
1276.5000	519.695
1277.0000	519.674
1277.5000	519.693
1278.0000	519.81
1278.5000	519.76
1279.0000	519.75
1279.5000	519.789
1280.0000	519.764
1280.5000	519.807
1281.0000	519.835
1281.5000	519.889
1282.0000	519.891
1282.5000	519.935
1283.0000	519.937
1283.5000	519.967
1284.0000	519.96
1284.5000	519.992
1285.0000	519.989
1285.5000	520.009
1286.0000	520.06
1286.5000	520.084
1287.0000	520.156
1287.5000	520.079
1288.0000	520.078
1288.5000	520.028
1289.0000	519.988
1289.5000	520.049
1290.0000	520.049
1290.5000	520.042
1291.0000	520.156
1291.5000	520.201
1292.0000	520.2
1292.5000	520.251
1293.0000	520.159
1293.5000	520.12
1294.0000	520.049
1294.5000	520.061
1295.0000	520.069
1295.5000	520.098
1296.0000	520.155
1296.5000	520.221
1297.0000	520.264
1297.5000	520.281
1298.0000	520.322
1298.5000	520.288
1299.0000	520.239
1299.5000	520.192
1300.0000	520.203
1300.5000	520.216
1301.0000	520.221
1301.5000	520.238
1302.0000	520.293
1302.5000	520.231
1303.0000	520.232
1303.5000	520.34
1304.0000	520.324
1304.5000	520.39
1305.0000	520.459
1305.5000	520.323
1306.0000	520.255
1306.5000	520.327
1307.0000	520.346
1307.5000	520.35
1308.0000	520.423
1308.5000	520.429
1309.0000	520.45
1309.5000	520.508
1310.0000	520.467
1310.5000	520.43
1311.0000	520.396
1311.5000	520.447
1312.0000	520.468
1312.5000	520.441
1313.0000	520.478
1313.5000	520.392
1314.0000	520.491
1314.5000	520.58
1315.0000	520.529
1315.5000	520.622
1316.0000	520.569
1316.5000	520.552
1317.0000	520.615
1317.5000	520.635
1318.0000	520.682
1318.5000	520.661
1319.0000	520.756
1319.5000	520.793
1320.0000	520.814
1320.5000	520.949
1321.0000	520.921
1321.5000	520.913
1322.0000	520.894
1322.5000	520.787
1323.0000	520.748
1323.5000	520.74
1324.0000	520.857
1324.5000	520.957
1325.0000	520.924
1325.5000	521.033
1326.0000	520.98
1326.5000	520.993
1327.0000	521.095
1327.5000	521.051
1328.0000	521.06
1328.5000	521.01
1329.0000	521.02
1329.5000	520.973
1330.0000	520.976
1330.5000	521.088
1331.0000	521.087
1331.5000	521.119
1332.0000	521.18
1332.5000	521.154
1333.0000	521.189
1333.5000	521.303
1334.0000	521.317
1334.5000	521.289
1335.0000	521.305
1335.5000	521.248
1336.0000	521.283
1336.5000	521.388
1337.0000	521.39
1337.5000	521.496
1338.0000	521.485
1338.5000	521.419
1339.0000	521.416
1339.5000	521.469
1340.0000	521.393
1340.5000	521.422
1341.0000	521.504
1341.5000	521.448
1342.0000	521.58
1342.5000	521.647
1343.0000	521.69
1343.5000	521.632
1344.0000	521.595
1344.5000	521.614
1345.0000	521.56
1345.5000	521.626
1346.0000	521.728
1346.5000	521.717
1347.0000	521.75
1347.5000	521.735
1348.0000	521.773
1348.5000	521.818
1349.0000	521.865
1349.5000	521.904
1350.0000	521.8
1350.5000	521.771
1351.0000	521.777
1351.5000	521.781
1352.0000	521.863
1352.5000	521.906
1353.0000	521.972
1353.5000	522.027
1354.0000	522.06
1354.5000	522.031
1355.0000	522.053
1355.5000	522.111
1356.0000	522.094
1356.5000	522.169
1357.0000	522.159
1357.5000	522.12
1358.0000	522.254
1358.5000	522.329
1359.0000	522.397
1359.5000	522.343
1360.0000	522.25
1360.5000	522.198
1361.0000	522.156
1361.5000	522.286
1362.0000	522.32
1362.5000	522.384
1363.0000	522.415
1363.5000	522.471
1364.0000	522.511
1364.5000	522.516
1365.0000	522.564
1365.5000	522.439
1366.0000	522.409
1366.5000	522.388
1367.0000	522.348
1367.5000	522.461
1368.0000	522.466
1368.5000	522.456
1369.0000	522.508
1369.5000	522.54
1370.0000	522.559
1370.5000	522.579
1371.0000	522.543
1371.5000	522.544
1372.0000	522.673
1372.5000	522.765
1373.0000	522.816
1373.5000	522.861
1374.0000	522.87
1374.5000	522.841
1375.0000	522.902
1375.5000	522.882
1376.0000	522.78
1376.5000	522.868
1377.0000	522.824
1377.5000	522.882
1378.0000	523.027
1378.5000	523.008
1379.0000	523.01
1379.5000	523.011
1380.0000	522.99
1380.5000	522.994
1381.0000	523.078
1381.5000	523.118
1382.0000	523.093
1382.5000	523.076
1383.0000	523.089
1383.5000	523.084
1384.0000	523.056
1384.5000	523.127
1385.0000	523.052
1385.5000	523.141
1386.0000	523.226
1386.5000	523.202
1387.0000	523.309
1387.5000	523.199
1388.0000	523.184
1388.5000	523.268
1389.0000	523.266
1389.5000	523.344
1390.0000	523.402
1390.5000	523.356
1391.0000	523.32
1391.5000	523.318
1392.0000	523.279
1392.5000	523.392
1393.0000	523.53
1393.5000	523.525
1394.0000	523.569
1394.5000	523.448
1395.0000	523.445
1395.5000	523.546
1396.0000	523.572
1396.5000	523.612
1397.0000	523.519
1397.5000	523.509
1398.0000	523.57
1398.5000	523.57
1399.0000	523.621
1399.5000	523.551
1400.0000	523.55
1400.5000	523.515
1401.0000	523.554
1401.5000	523.56
1402.0000	523.539
1402.5000	523.667
1403.0000	523.679
1403.5000	523.718
1404.0000	523.659
1404.5000	523.601
1405.0000	523.624
1405.5000	523.675
1406.0000	523.815
1406.5000	523.867
1407.0000	523.809
1407.5000	523.798
1408.0000	523.731
1408.5000	523.754
1409.0000	523.789
1409.5000	523.792
1410.0000	523.836
1410.5000	523.762
1411.0000	523.766
1411.5000	523.824
1412.0000	523.782
1412.5000	523.917
1413.0000	523.949
1413.5000	523.946
1414.0000	523.927
1414.5000	523.855
1415.0000	523.898
1415.5000	523.907
1416.0000	524.047
1416.5000	524.021
1417.0000	523.925
1417.5000	523.971
1418.0000	523.911
1418.5000	523.931
1419.0000	524.059
1419.5000	523.997
1420.0000	524.044
1420.5000	523.974
1421.0000	523.929
1421.5000	523.979
1422.0000	523.985
1422.5000	524.121
1423.0000	524.224
1423.5000	524.269
1424.0000	524.262
1424.5000	524.217
1425.0000	524.192
1425.5000	524.128
1426.0000	524.151
1426.5000	524.225
1427.0000	524.211
1427.5000	524.24
1428.0000	524.295
1428.5000	524.248
1429.0000	524.253
1429.5000	524.288
1430.0000	524.253
1430.5000	524.303
1431.0000	524.319
1431.5000	524.295
1432.0000	524.308
1432.5000	524.306
1433.0000	524.238
1433.5000	524.258
1434.0000	524.28
1434.5000	524.268
1435.0000	524.352
1435.5000	524.42
1436.0000	524.374
1436.5000	524.459
1437.0000	524.539
1437.5000	524.524
1438.0000	524.562
1438.5000	524.593
1439.0000	524.515
1439.5000	524.468
1440.0000	524.512
1440.5000	524.466
1441.0000	524.535
1441.5000	524.692
1442.0000	524.671
1442.5000	524.653
1443.0000	524.629
1443.5000	524.465
1444.0000	524.449
1444.5000	524.468
1445.0000	524.49
1445.5000	524.557
1446.0000	524.64
1446.5000	524.643
1447.0000	524.619
1447.5000	524.612
1448.0000	524.631
1448.5000	524.628
1449.0000	524.653
1449.5000	524.728
1450.0000	524.649
1450.5000	524.671
1451.0000	524.763
1451.5000	524.744
1452.0000	524.817
1452.5000	524.82
1453.0000	524.763
1453.5000	524.79
1454.0000	524.752
1454.5000	524.796
1455.0000	524.789
1455.5000	524.731
1456.0000	524.721
1456.5000	524.798
1457.0000	524.878
1457.5000	524.899
1458.0000	524.997
1458.5000	524.95
1459.0000	524.837
1459.5000	524.93
1460.0000	524.939
1460.5000	524.903
1461.0000	524.956
1461.5000	524.96
1462.0000	524.928
1462.5000	524.995
1463.0000	525.035
1463.5000	525.001
1464.0000	525.047
1464.5000	525.109
1465.0000	525.081
1465.5000	525.103
1466.0000	525.084
1466.5000	525.091
1467.0000	525.117
1467.5000	525.095
1468.0000	525.177
1468.5000	525.207
1469.0000	525.288
1469.5000	525.277
1470.0000	525.233
1470.5000	525.183
1471.0000	525.175
1471.5000	525.221
1472.0000	525.245
1472.5000	525.204
1473.0000	525.218
1473.5000	525.25
1474.0000	525.255
1474.5000	525.287
1475.0000	525.245
1475.5000	525.276
1476.0000	525.269
1476.5000	525.389
1477.0000	525.421
1477.5000	525.413
1478.0000	525.401
1478.5000	525.328
1479.0000	525.329
1479.5000	525.353
1480.0000	525.427
1480.5000	525.498
1481.0000	525.621
1481.5000	525.612
1482.0000	525.63
1482.5000	525.576
1483.0000	525.436
1483.5000	525.451
1484.0000	525.455
1484.5000	525.479
1485.0000	525.53
1485.5000	525.576
1486.0000	525.547
1486.5000	525.548
1487.0000	525.633
1487.5000	525.555
1488.0000	525.557
1488.5000	525.64
1489.0000	525.63
1489.5000	525.742
1490.0000	525.735
1490.5000	525.623
1491.0000	525.645
1491.5000	525.579
1492.0000	525.621
1492.5000	525.666
1493.0000	525.634
1493.5000	525.696
1494.0000	525.768
1494.5000	525.778
1495.0000	525.685
1495.5000	525.734
1496.0000	525.724
1496.5000	525.781
1497.0000	525.924
1497.5000	525.918
1498.0000	525.928
1498.5000	525.924
1499.0000	525.879
1499.5000	525.85
1500.0000	525.796
1500.5000	525.809
1501.0000	525.898
1501.5000	525.96
1502.0000	526.021
1502.5000	526.063
1503.0000	526.034
1503.5000	526.031
1504.0000	526.07
1504.5000	526.116
1505.0000	526.142
1505.5000	526.14
1506.0000	526.108
1506.5000	526.075
1507.0000	526.034
1507.5000	526.019
1508.0000	526.033
1508.5000	526.014
1509.0000	526.066
1509.5000	526.065
1510.0000	526.074
1510.5000	526.048
1511.0000	526.033
1511.5000	526.069
1512.0000	526.045
1512.5000	526.077
1513.0000	526.07
1513.5000	526.053
1514.0000	526.009
1514.5000	526.048
1515.0000	526.087
1515.5000	526.106
1516.0000	526.186
1516.5000	526.225
1517.0000	526.228
1517.5000	526.275
1518.0000	526.309
1518.5000	526.206
1519.0000	526.279
1519.5000	526.269
1520.0000	526.288
1520.5000	526.355
1521.0000	526.314
1521.5000	526.307
1522.0000	526.281
1522.5000	526.305
1523.0000	526.355
1523.5000	526.342
1524.0000	526.401
1524.5000	526.486
1525.0000	526.45
1525.5000	526.497
1526.0000	526.483
1526.5000	526.466
1527.0000	526.535
1527.5000	526.571
1528.0000	526.553
1528.5000	526.532
1529.0000	526.455
1529.5000	526.492
1530.0000	526.562
1530.5000	526.585
1531.0000	526.565
1531.5000	526.539
1532.0000	526.494
1532.5000	526.495
1533.0000	526.553
1533.5000	526.593
1534.0000	526.597
1534.5000	526.615
1535.0000	526.654
1535.5000	526.57
1536.0000	526.638
1536.5000	526.603
1537.0000	526.557
1537.5000	526.643
1538.0000	526.57
1538.5000	526.571
1539.0000	526.592
1539.5000	526.573
1540.0000	526.612
1540.5000	526.622
1541.0000	526.638
1541.5000	526.615
1542.0000	526.643
1542.5000	526.714
1543.0000	526.699
1543.5000	526.734
1544.0000	526.722
1544.5000	526.701
1545.0000	526.758
1545.5000	526.762
1546.0000	526.764
1546.5000	526.817
1547.0000	526.827
1547.5000	526.761
1548.0000	526.743
1548.5000	526.676
1549.0000	526.695
1549.5000	526.784
1550.0000	526.781
1550.5000	526.772
1551.0000	526.837
1551.5000	526.877
1552.0000	526.943
1552.5000	527.011
1553.0000	526.904
1553.5000	526.915
1554.0000	526.894
1554.5000	526.894
1555.0000	526.922
1555.5000	526.911
1556.0000	527.002
1556.5000	527.021
1557.0000	527.104
1557.5000	527.102
1558.0000	527.063
1558.5000	527.082
1559.0000	527.076
1559.5000	527.068
1560.0000	527.147
1560.5000	527.116
1561.0000	527.088
1561.5000	527.199
1562.0000	527.13
1562.5000	527.108
1563.0000	527.136
1563.5000	527.058
1564.0000	527.074
1564.5000	527.143
1565.0000	527.137
1565.5000	527.113
1566.0000	527.183
1566.5000	527.133
1567.0000	527.134
1567.5000	527.135
1568.0000	527.17
1568.5000	527.245
1569.0000	527.213
1569.5000	527.33
1570.0000	527.312
1570.5000	527.315
1571.0000	527.362
1571.5000	527.316
1572.0000	527.32
1572.5000	527.351
1573.0000	527.447
1573.5000	527.489
1574.0000	527.541
1574.5000	527.665
1575.0000	527.644
1575.5000	527.689
1576.0000	527.634
1576.5000	527.558
1577.0000	527.565
1577.5000	527.548
1578.0000	527.607
1578.5000	527.608
1579.0000	527.601
1579.5000	527.629
1580.0000	527.652
1580.5000	527.639
1581.0000	527.601
1581.5000	527.593
1582.0000	527.573
1582.5000	527.563
1583.0000	527.63
1583.5000	527.67
1584.0000	527.728
1584.5000	527.731
1585.0000	527.737
1585.5000	527.723
1586.0000	527.608
1586.5000	527.568
1587.0000	527.582
1587.5000	527.623
1588.0000	527.747
1588.5000	527.857
1589.0000	527.894
1589.5000	527.88
1590.0000	527.899
1590.5000	527.911
1591.0000	527.913
1591.5000	527.864
1592.0000	527.815
1592.5000	527.753
1593.0000	527.761
1593.5000	527.851
1594.0000	527.868
1594.5000	527.926
1595.0000	527.991
1595.5000	528.022
1596.0000	528.003
1596.5000	528.067
1597.0000	528.048
1597.5000	528.006
1598.0000	528.046
1598.5000	528.022
1599.0000	528.012
1599.5000	528.09
1600.0000	528.114
1600.5000	528.177
1601.0000	528.225
1601.5000	528.155
1602.0000	528.178
1602.5000	528.113
1603.0000	528.101
1603.5000	528.188
1604.0000	528.246
1604.5000	528.239
1605.0000	528.283
1605.5000	528.196
1606.0000	528.174
1606.5000	528.283
1607.0000	528.342
1607.5000	528.36
1608.0000	528.384
1608.5000	528.296
1609.0000	528.194
1609.5000	528.245
1610.0000	528.241
1610.5000	528.255
1611.0000	528.265
1611.5000	528.3
1612.0000	528.188
1612.5000	528.213
1613.0000	528.322
1613.5000	528.286
1614.0000	528.368
1614.5000	528.388
1615.0000	528.278
1615.5000	528.332
1616.0000	528.422
1616.5000	528.554
1617.0000	528.647
1617.5000	528.595
1618.0000	528.576
1618.5000	528.483
1619.0000	528.469
1619.5000	528.531
1620.0000	528.466
1620.5000	528.449
1621.0000	528.431
1621.5000	528.455
1622.0000	528.49
1622.5000	528.582
1623.0000	528.592
1623.5000	528.611
1624.0000	528.603
1624.5000	528.575
1625.0000	528.56
1625.5000	528.545
1626.0000	528.612
1626.5000	528.633
1627.0000	528.612
1627.5000	528.548
1628.0000	528.515
1628.5000	528.431
1629.0000	528.475
1629.5000	528.61
1630.0000	528.652
1630.5000	528.699
1631.0000	528.669
1631.5000	528.659
1632.0000	528.651
1632.5000	528.634
1633.0000	528.689
1633.5000	528.552
1634.0000	528.516
1634.5000	528.564
1635.0000	528.54
1635.5000	528.677
1636.0000	528.76
1636.5000	528.746
1637.0000	528.806
1637.5000	528.776
1638.0000	528.747
1638.5000	528.796
1639.0000	528.763
1639.5000	528.773
1640.0000	528.816
1640.5000	528.789
1641.0000	528.861
1641.5000	528.871
1642.0000	528.887
1642.5000	528.96
1643.0000	528.923
1643.5000	528.939
1644.0000	528.915
1644.5000	528.867
1645.0000	528.924
1645.5000	528.939
1646.0000	528.965
1646.5000	529.018
1647.0000	529.019
1647.5000	528.966
1648.0000	528.95
1648.5000	528.872
1649.0000	528.927
1649.5000	528.937
1650.0000	529.014
1650.5000	529.108
1651.0000	529.003
1651.5000	529.067
1652.0000	529.067
1652.5000	529.097
1653.0000	529.128
1653.5000	529.177
1654.0000	529.177
1654.5000	529.156
1655.0000	529.187
1655.5000	529.122
1656.0000	529.098
1656.5000	529.11
1657.0000	529.154
1657.5000	529.231
1658.0000	529.225
1658.5000	529.224
1659.0000	529.19
1659.5000	529.186
1660.0000	529.181
1660.5000	529.235
1661.0000	529.225
1661.5000	529.219
1662.0000	529.257
1662.5000	529.244
1663.0000	529.327
1663.5000	529.367
1664.0000	529.462
1664.5000	529.44
1665.0000	529.458
1665.5000	529.45
1666.0000	529.395
1666.5000	529.375
1667.0000	529.37
1667.5000	529.398
1668.0000	529.347
1668.5000	529.491
1669.0000	529.514
1669.5000	529.568
1670.0000	529.673
1670.5000	529.591
1671.0000	529.632
1671.5000	529.674
1672.0000	529.634
1672.5000	529.734
1673.0000	529.793
1673.5000	529.746
1674.0000	529.881
1674.5000	529.822
1675.0000	529.822
1675.5000	529.867
1676.0000	529.795
1676.5000	529.893
1677.0000	529.792
1677.5000	529.806
1678.0000	529.852
1678.5000	529.868
1679.0000	529.932
1679.5000	529.875
1680.0000	529.907
1680.5000	529.886
1681.0000	529.925
1681.5000	530.032
1682.0000	530.021
1682.5000	530.084
1683.0000	530.095
1683.5000	530.139
1684.0000	530.146
1684.5000	530.052
1685.0000	530.097
1685.5000	530.096
1686.0000	530.054
1686.5000	530.203
1687.0000	530.256
1687.5000	530.242
1688.0000	530.348
1688.5000	530.29
1689.0000	530.269
1689.5000	530.223
1690.0000	530.21
1690.5000	530.179
1691.0000	530.174
1691.5000	530.237
1692.0000	530.275
1692.5000	530.339
1693.0000	530.392
1693.5000	530.4
1694.0000	530.371
1694.5000	530.365
1695.0000	530.339
1695.5000	530.301
1696.0000	530.347
1696.5000	530.408
1697.0000	530.434
1697.5000	530.52
1698.0000	530.461
1698.5000	530.405
1699.0000	530.401
1699.5000	530.378
1700.0000	530.405
1700.5000	530.472
1701.0000	530.53
1701.5000	530.535
1702.0000	530.585
1702.5000	530.567
1703.0000	530.558
1703.5000	530.568
1704.0000	530.533
1704.5000	530.466
1705.0000	530.452
1705.5000	530.48
1706.0000	530.536
1706.5000	530.607
1707.0000	530.559
1707.5000	530.557
1708.0000	530.581
1708.5000	530.682
1709.0000	530.743
1709.5000	530.741
1710.0000	530.723
1710.5000	530.643
1711.0000	530.633
1711.5000	530.659
1712.0000	530.74
1712.5000	530.792
1713.0000	530.781
1713.5000	530.788
1714.0000	530.697
1714.5000	530.724
1715.0000	530.716
1715.5000	530.741
1716.0000	530.735
1716.5000	530.733
1717.0000	530.796
1717.5000	530.862
1718.0000	530.983
1718.5000	531.042
1719.0000	531.026
1719.5000	530.982
1720.0000	530.929
1720.5000	530.87
1721.0000	530.97
1721.5000	530.956
1722.0000	531.03
1722.5000	531.081
1723.0000	531.096
1723.5000	531.125
1724.0000	531.075
1724.5000	531.084
1725.0000	531.043
1725.5000	531.048
1726.0000	531.082
1726.5000	531.046
1727.0000	531.079
1727.5000	531.099
1728.0000	531.136
1728.5000	531.181
1729.0000	531.216
1729.5000	531.222
1730.0000	531.242
1730.5000	531.222
1731.0000	531.182
1731.5000	531.174
1732.0000	531.25
1732.5000	531.294
1733.0000	531.329
1733.5000	531.365
