TITLE	
DATA TYPE	
ORIGIN	JASCO
OWNER	
DATE	22/04/19
TIME	18:16:06
SPECTROMETER/DATA SYSTEM	
RESOLUTION	
DELTAX	0.5
XUNITS	SEC
YUNITS	INTENSITY
FIRSTX	0.0000
LASTX	2347.0000
NPOINTS	4695
FIRSTY	480.86624
MAXY	481.63043
MINY	-74.65693
XYDATA
0.0000	480.866
0.5000	480.834
1.0000	480.777
1.5000	480.865
2.0000	480.809
2.5000	480.875
3.0000	480.937
3.5000	480.824
4.0000	480.873
4.5000	480.869
5.0000	480.848
5.5000	480.86
6.0000	480.964
6.5000	480.911
7.0000	480.795
7.5000	480.856
8.0000	480.779
8.5000	480.76
9.0000	480.921
9.5000	480.896
10.0000	480.846
10.5000	480.919
11.0000	480.868
11.5000	480.887
12.0000	480.912
12.5000	480.847
13.0000	480.849
13.5000	480.837
14.0000	480.877
14.5000	480.845
15.0000	480.827
15.5000	480.896
16.0000	480.878
16.5000	481.003
17.0000	481.045
17.5000	480.971
18.0000	481.056
18.5000	480.97
19.0000	481.032
19.5000	481.092
20.0000	481.023
20.5000	481.114
21.0000	481.039
21.5000	481.079
22.0000	481.227
22.5000	481.199
23.0000	481.399
23.5000	481.38
24.0000	481.391
24.5000	481.536
25.0000	481.459
25.5000	481.537
26.0000	481.556
26.5000	481.519
27.0000	481.482
27.5000	481.391
28.0000	481.368
28.5000	481.351
29.0000	481.375
29.5000	481.46
30.0000	481.495
30.5000	481.43
31.0000	481.418
31.5000	481.439
32.0000	481.296
32.5000	481.296
33.0000	481.361
33.5000	481.385
34.0000	481.478
34.5000	481.539
35.0000	481.596
35.5000	481.563
36.0000	481.581
36.5000	481.63
37.0000	481.493
37.5000	481.572
38.0000	481.553
38.5000	481.442
39.0000	481.442
39.5000	481.321
40.0000	481.369
40.5000	481.455
41.0000	481.456
41.5000	481.475
42.0000	481.513
42.5000	481.521
43.0000	481.615
43.5000	481.63
44.0000	481.596
44.5000	481.607
45.0000	469.081
45.5000	449.09
46.0000	407.261
46.5000	214.14
47.0000	-74.6569
47.5000	-39.1675
48.0000	-32.1569
48.5000	-29.9374
49.0000	-28.7791
49.5000	-27.9065
50.0000	-27.2212
50.5000	-26.8078
51.0000	-26.2586
51.5000	-26.1204
52.0000	-25.9557
52.5000	-25.7308
53.0000	-25.6466
53.5000	292.943
54.0000	278.306
54.5000	275.146
55.0000	273.586
55.5000	251.316
56.0000	252.208
56.5000	252.134
57.0000	252.07
57.5000	251.975
58.0000	251.951
58.5000	251.972
59.0000	251.984
59.5000	252.082
60.0000	252.102
60.5000	252.154
61.0000	252.228
61.5000	252.308
62.0000	252.41
62.5000	252.494
63.0000	252.59
63.5000	252.639
64.0000	252.648
64.5000	252.689
65.0000	252.679
65.5000	252.732
66.0000	252.759
66.5000	252.717
67.0000	252.739
67.5000	252.702
68.0000	252.735
68.5000	252.791
69.0000	252.841
69.5000	252.915
70.0000	252.969
70.5000	252.991
71.0000	253.075
71.5000	253.098
72.0000	253.195
72.5000	253.293
73.0000	253.388
73.5000	253.48
74.0000	253.507
74.5000	253.59
75.0000	253.576
75.5000	253.652
76.0000	253.729
76.5000	253.773
77.0000	253.845
77.5000	253.895
78.0000	253.901
78.5000	253.943
79.0000	253.993
79.5000	254.054
80.0000	254.109
80.5000	254.15
81.0000	254.111
81.5000	254.197
82.0000	254.307
82.5000	254.342
83.0000	254.447
83.5000	254.435
84.0000	254.478
84.5000	254.508
85.0000	254.561
85.5000	254.665
86.0000	254.635
86.5000	254.722
87.0000	254.752
87.5000	254.741
88.0000	254.822
88.5000	254.854
89.0000	254.939
89.5000	254.993
90.0000	255.098
90.5000	255.137
91.0000	255.168
91.5000	255.202
92.0000	255.145
92.5000	255.195
93.0000	255.267
93.5000	255.329
94.0000	255.454
94.5000	255.542
95.0000	255.571
95.5000	255.664
96.0000	255.734
96.5000	255.738
97.0000	255.804
97.5000	255.84
98.0000	255.83
98.5000	255.896
99.0000	255.987
99.5000	256.017
100.0000	256.095
100.5000	256.207
101.0000	256.212
101.5000	256.232
102.0000	256.286
102.5000	256.283
103.0000	256.338
103.5000	256.397
104.0000	256.408
104.5000	256.418
105.0000	256.494
105.5000	256.565
106.0000	256.594
106.5000	256.71
107.0000	256.734
107.5000	256.785
108.0000	256.86
108.5000	256.901
109.0000	256.97
109.5000	256.939
110.0000	256.971
110.5000	256.969
111.0000	256.929
111.5000	257.029
112.0000	257.137
112.5000	257.2
113.0000	257.304
113.5000	257.366
114.0000	257.329
114.5000	257.391
115.0000	257.422
115.5000	257.451
116.0000	257.546
116.5000	257.608
117.0000	257.667
117.5000	257.755
118.0000	257.886
118.5000	257.943
119.0000	257.996
119.5000	257.998
120.0000	257.991
120.5000	258.007
121.0000	258.099
121.5000	258.174
122.0000	258.158
122.5000	258.271
123.0000	258.298
123.5000	258.368
124.0000	258.4
124.5000	258.389
125.0000	258.368
125.5000	258.335
126.0000	258.446
126.5000	258.453
127.0000	258.486
127.5000	258.536
128.0000	258.563
128.5000	258.664
129.0000	258.773
129.5000	258.87
130.0000	258.934
130.5000	258.954
131.0000	258.994
131.5000	259.057
132.0000	259.12
132.5000	259.184
133.0000	259.236
133.5000	259.2
134.0000	259.238
134.5000	259.277
135.0000	259.274
135.5000	259.376
136.0000	259.409
136.5000	259.435
137.0000	259.524
137.5000	259.587
138.0000	259.633
138.5000	259.669
139.0000	259.699
139.5000	259.731
140.0000	259.737
140.5000	259.821
141.0000	259.895
141.5000	259.899
142.0000	259.955
142.5000	260.044
143.0000	260.076
143.5000	260.159
144.0000	260.222
144.5000	260.176
145.0000	260.236
145.5000	260.333
146.0000	260.353
146.5000	260.452
147.0000	260.486
147.5000	260.495
148.0000	260.537
148.5000	260.54
149.0000	260.567
149.5000	260.593
150.0000	260.676
150.5000	260.752
151.0000	260.802
151.5000	260.903
152.0000	260.908
152.5000	260.934
153.0000	260.951
153.5000	260.875
154.0000	260.985
154.5000	260.99
155.0000	261.065
155.5000	261.171
156.0000	261.121
156.5000	261.138
157.0000	261.189
157.5000	261.185
158.0000	261.287
158.5000	261.374
159.0000	261.446
159.5000	261.513
160.0000	261.559
160.5000	261.57
161.0000	261.534
161.5000	261.627
162.0000	261.68
162.5000	261.692
163.0000	261.743
163.5000	261.767
164.0000	261.805
164.5000	261.976
165.0000	262.029
165.5000	262.058
166.0000	262.045
166.5000	262.057
167.0000	262.134
167.5000	262.167
168.0000	262.196
168.5000	262.228
169.0000	262.254
169.5000	262.308
170.0000	262.433
170.5000	262.445
171.0000	262.474
171.5000	262.491
172.0000	262.509
172.5000	262.592
173.0000	262.628
173.5000	262.627
174.0000	262.639
174.5000	262.675
175.0000	262.73
175.5000	262.796
176.0000	262.87
176.5000	262.875
177.0000	262.93
177.5000	262.981
178.0000	263.019
178.5000	263.03
179.0000	263.055
179.5000	263.116
180.0000	263.135
180.5000	263.226
181.0000	263.251
181.5000	263.334
182.0000	263.397
182.5000	263.487
183.0000	263.527
183.5000	263.517
184.0000	263.569
184.5000	263.553
185.0000	263.636
185.5000	263.687
186.0000	263.708
186.5000	263.727
187.0000	263.735
187.5000	263.782
188.0000	263.793
188.5000	263.831
189.0000	263.887
189.5000	263.954
190.0000	264.032
190.5000	264.097
191.0000	264.116
191.5000	264.119
192.0000	264.139
192.5000	264.211
193.0000	264.242
193.5000	264.276
194.0000	264.339
194.5000	264.333
195.0000	264.417
195.5000	264.449
196.0000	264.449
196.5000	264.468
197.0000	264.473
197.5000	264.572
198.0000	264.666
198.5000	264.711
199.0000	264.755
199.5000	264.746
200.0000	264.727
200.5000	264.814
201.0000	264.837
201.5000	264.913
202.0000	264.997
202.5000	265.024
203.0000	265.041
203.5000	265.061
204.0000	265.061
204.5000	265.095
205.0000	265.19
205.5000	265.199
206.0000	265.269
206.5000	265.322
207.0000	265.336
207.5000	265.345
208.0000	265.363
208.5000	265.433
209.0000	265.471
209.5000	265.538
210.0000	265.607
210.5000	265.579
211.0000	265.627
211.5000	265.683
212.0000	265.705
212.5000	265.761
213.0000	265.803
213.5000	265.866
214.0000	265.896
214.5000	265.94
215.0000	265.957
215.5000	265.963
216.0000	266.018
216.5000	266.076
217.0000	266.1
217.5000	266.144
218.0000	266.178
218.5000	266.264
219.0000	266.359
219.5000	266.368
220.0000	266.4
220.5000	266.371
221.0000	266.377
221.5000	266.45
222.0000	266.528
222.5000	266.574
223.0000	266.637
223.5000	266.708
224.0000	266.698
224.5000	266.724
225.0000	266.722
225.5000	266.78
226.0000	266.818
226.5000	266.855
227.0000	266.963
227.5000	266.938
228.0000	266.969
228.5000	266.952
229.0000	266.969
229.5000	267.027
230.0000	267.066
230.5000	267.171
231.0000	267.172
231.5000	267.165
232.0000	267.208
232.5000	267.253
233.0000	267.326
233.5000	267.458
234.0000	267.467
234.5000	267.474
235.0000	267.46
235.5000	267.431
236.0000	267.485
236.5000	267.549
237.0000	267.67
237.5000	267.705
238.0000	267.805
238.5000	267.817
239.0000	267.797
239.5000	267.839
240.0000	267.816
240.5000	267.881
241.0000	267.903
241.5000	267.978
242.0000	268.036
242.5000	268.079
243.0000	268.15
243.5000	268.199
244.0000	268.265
244.5000	268.272
245.0000	268.323
245.5000	268.349
246.0000	268.368
246.5000	268.45
247.0000	268.453
247.5000	268.475
248.0000	268.495
248.5000	268.483
249.0000	268.538
249.5000	268.645
250.0000	268.695
250.5000	268.78
251.0000	268.825
251.5000	268.781
252.0000	268.814
252.5000	268.876
253.0000	268.914
253.5000	268.997
254.0000	269.031
254.5000	268.981
255.0000	268.995
255.5000	269.011
256.0000	269.058
256.5000	269.137
257.0000	269.234
257.5000	269.247
258.0000	269.278
258.5000	269.316
259.0000	269.301
259.5000	269.326
260.0000	269.372
260.5000	269.428
261.0000	269.471
261.5000	269.573
262.0000	269.587
262.5000	269.594
263.0000	269.643
263.5000	269.614
264.0000	269.691
264.5000	269.732
265.0000	269.745
265.5000	269.805
266.0000	269.854
266.5000	269.921
267.0000	269.95
267.5000	269.994
268.0000	270.024
268.5000	270.035
269.0000	270.126
269.5000	270.152
270.0000	270.172
270.5000	270.185
271.0000	270.168
271.5000	270.239
272.0000	270.305
272.5000	270.377
273.0000	270.467
273.5000	270.501
274.0000	270.458
274.5000	270.502
275.0000	270.547
275.5000	270.561
276.0000	270.678
276.5000	270.735
277.0000	270.727
277.5000	270.825
278.0000	270.843
278.5000	270.862
279.0000	270.933
279.5000	270.904
280.0000	270.98
280.5000	270.981
281.0000	271
281.5000	271.063
282.0000	271.07
282.5000	271.111
283.0000	271.143
283.5000	271.125
284.0000	271.191
284.5000	271.268
285.0000	271.331
285.5000	271.338
286.0000	271.315
286.5000	271.375
287.0000	271.426
287.5000	271.46
288.0000	271.518
288.5000	271.524
289.0000	271.484
289.5000	271.623
290.0000	271.655
290.5000	271.679
291.0000	271.78
291.5000	271.753
292.0000	271.802
292.5000	271.876
293.0000	271.886
293.5000	271.977
294.0000	272.028
294.5000	272.026
295.0000	272.085
295.5000	272.09
296.0000	272.103
296.5000	272.132
297.0000	272.096
297.5000	272.142
298.0000	272.193
298.5000	272.211
299.0000	272.316
299.5000	272.417
300.0000	272.468
300.5000	272.5
301.0000	272.48
301.5000	272.499
302.0000	272.484
302.5000	272.566
303.0000	272.674
303.5000	272.695
304.0000	272.772
304.5000	272.844
305.0000	272.865
305.5000	272.848
306.0000	272.842
306.5000	272.835
307.0000	272.861
307.5000	272.89
308.0000	272.972
308.5000	272.986
309.0000	273.02
309.5000	273.091
310.0000	273.108
310.5000	273.175
311.0000	273.224
311.5000	273.285
312.0000	273.334
312.5000	273.375
313.0000	273.414
313.5000	273.442
314.0000	273.427
314.5000	273.473
315.0000	273.51
315.5000	273.537
316.0000	273.566
316.5000	273.565
317.0000	273.569
317.5000	273.555
318.0000	273.588
318.5000	273.611
319.0000	273.696
319.5000	273.733
320.0000	273.824
320.5000	273.886
321.0000	273.874
321.5000	273.934
322.0000	273.962
322.5000	274.045
323.0000	274.086
323.5000	274.125
324.0000	274.177
324.5000	274.172
325.0000	274.202
325.5000	274.244
326.0000	274.271
326.5000	274.323
327.0000	274.3
327.5000	274.387
328.0000	274.41
328.5000	274.438
329.0000	274.574
329.5000	274.583
330.0000	274.595
330.5000	274.634
331.0000	274.654
331.5000	274.688
332.0000	274.779
332.5000	274.815
333.0000	274.864
333.5000	274.89
334.0000	274.914
334.5000	274.975
335.0000	274.991
335.5000	275.029
336.0000	275.072
336.5000	275.053
337.0000	275.063
337.5000	275.061
338.0000	275.094
338.5000	275.173
339.0000	275.234
339.5000	275.295
340.0000	275.337
340.5000	275.408
341.0000	275.431
341.5000	275.449
342.0000	275.513
342.5000	275.532
343.0000	275.574
343.5000	275.598
344.0000	275.584
344.5000	275.562
345.0000	275.608
345.5000	275.707
346.0000	275.784
346.5000	275.848
347.0000	275.854
347.5000	275.876
348.0000	275.885
348.5000	275.868
349.0000	275.915
349.5000	275.962
350.0000	275.966
350.5000	276.047
351.0000	276.091
351.5000	276.087
352.0000	276.127
352.5000	276.134
353.0000	276.214
353.5000	276.258
354.0000	276.322
354.5000	276.421
355.0000	276.418
355.5000	276.46
356.0000	276.451
356.5000	276.413
357.0000	276.491
357.5000	276.56
358.0000	276.638
358.5000	276.718
359.0000	276.707
359.5000	276.734
360.0000	276.742
360.5000	276.747
361.0000	276.811
361.5000	276.851
362.0000	276.892
362.5000	276.943
363.0000	276.957
363.5000	276.937
364.0000	277.002
364.5000	277.023
365.0000	277.057
365.5000	277.121
366.0000	277.124
366.5000	277.188
367.0000	277.2
367.5000	277.166
368.0000	277.202
368.5000	277.218
369.0000	277.338
369.5000	277.431
370.0000	277.484
370.5000	277.55
371.0000	277.547
371.5000	277.614
372.0000	277.639
372.5000	277.612
373.0000	277.618
373.5000	277.6
374.0000	277.672
374.5000	277.738
375.0000	277.768
375.5000	277.83
376.0000	277.869
376.5000	277.904
377.0000	277.968
377.5000	278.008
378.0000	278
378.5000	278.04
379.0000	278.026
379.5000	278.096
380.0000	278.126
380.5000	278.195
381.0000	278.266
381.5000	278.272
382.0000	278.302
382.5000	278.315
383.0000	278.393
383.5000	278.432
384.0000	278.449
384.5000	278.507
385.0000	278.474
385.5000	278.482
386.0000	278.582
386.5000	278.57
387.0000	278.64
387.5000	278.725
388.0000	278.715
388.5000	278.733
389.0000	278.806
389.5000	278.789
390.0000	278.805
390.5000	278.913
391.0000	278.837
391.5000	278.856
392.0000	278.892
392.5000	278.875
393.0000	278.953
393.5000	279.001
394.0000	279.123
394.5000	279.174
395.0000	279.217
395.5000	279.251
396.0000	279.248
396.5000	279.217
397.0000	279.234
397.5000	279.309
398.0000	279.37
398.5000	279.508
399.0000	279.534
399.5000	279.546
400.0000	279.562
400.5000	279.567
401.0000	279.67
401.5000	279.758
402.0000	279.823
402.5000	279.848
403.0000	279.857
403.5000	279.861
404.0000	279.853
404.5000	279.909
405.0000	279.959
405.5000	279.951
406.0000	279.988
406.5000	280.034
407.0000	280.013
407.5000	280.048
408.0000	280.04
408.5000	280.062
409.0000	280.094
409.5000	280.177
410.0000	280.266
410.5000	280.272
411.0000	280.339
411.5000	280.388
412.0000	280.408
412.5000	280.449
413.0000	280.532
413.5000	280.523
414.0000	280.587
414.5000	280.62
415.0000	280.575
415.5000	280.628
416.0000	280.573
416.5000	280.627
417.0000	280.653
417.5000	280.69
418.0000	280.825
418.5000	280.863
419.0000	280.942
419.5000	280.999
420.0000	280.964
420.5000	280.935
421.0000	280.997
421.5000	280.957
422.0000	281
422.5000	281.08
423.0000	281.055
423.5000	281.054
424.0000	281.116
424.5000	281.161
425.0000	281.186
425.5000	281.251
426.0000	281.204
426.5000	281.252
427.0000	281.295
427.5000	281.373
428.0000	281.464
428.5000	281.505
429.0000	281.549
429.5000	281.615
430.0000	281.705
430.5000	281.698
431.0000	281.734
431.5000	281.695
432.0000	281.699
432.5000	281.757
433.0000	281.756
433.5000	281.825
434.0000	281.83
434.5000	281.813
435.0000	281.863
435.5000	281.904
436.0000	281.992
436.5000	282.059
437.0000	282.104
437.5000	282.123
438.0000	282.142
438.5000	282.161
439.0000	282.175
439.5000	282.224
440.0000	282.207
440.5000	282.252
441.0000	282.298
441.5000	282.329
442.0000	282.374
442.5000	282.375
443.0000	282.41
443.5000	282.467
444.0000	282.531
444.5000	282.622
445.0000	282.652
445.5000	282.66
446.0000	282.648
446.5000	282.615
447.0000	282.615
447.5000	282.601
448.0000	282.697
448.5000	282.736
449.0000	282.857
449.5000	282.934
450.0000	282.893
450.5000	282.956
451.0000	282.916
451.5000	282.919
452.0000	282.969
452.5000	282.953
453.0000	283.062
453.5000	283.092
454.0000	283.126
454.5000	283.204
455.0000	283.177
455.5000	283.206
456.0000	283.246
456.5000	283.279
457.0000	283.362
457.5000	283.377
458.0000	283.397
458.5000	283.393
459.0000	283.353
459.5000	283.486
460.0000	283.546
460.5000	283.623
461.0000	283.713
461.5000	283.653
462.0000	283.648
462.5000	283.655
463.0000	283.653
463.5000	283.696
464.0000	283.742
464.5000	283.799
465.0000	283.817
465.5000	283.842
466.0000	283.883
466.5000	283.897
467.0000	283.951
467.5000	283.953
468.0000	283.983
468.5000	284.002
469.0000	284.037
469.5000	284.079
470.0000	284.065
470.5000	284.16
471.0000	284.19
471.5000	284.215
472.0000	284.314
472.5000	284.233
473.0000	284.249
473.5000	284.337
474.0000	284.347
474.5000	284.466
475.0000	284.519
475.5000	284.599
476.0000	284.634
476.5000	284.645
477.0000	284.633
477.5000	284.643
478.0000	284.682
478.5000	284.692
479.0000	284.757
479.5000	284.757
480.0000	284.753
480.5000	284.803
481.0000	284.802
481.5000	284.817
482.0000	284.82
482.5000	284.869
483.0000	284.928
483.5000	284.971
484.0000	285.082
484.5000	285.096
485.0000	285.163
485.5000	285.189
486.0000	285.228
486.5000	285.291
487.0000	285.282
487.5000	285.336
488.0000	285.316
488.5000	285.292
489.0000	285.419
489.5000	285.445
490.0000	285.431
490.5000	285.495
491.0000	285.406
491.5000	285.43
492.0000	285.525
492.5000	285.537
493.0000	285.631
493.5000	285.661
494.0000	285.655
494.5000	285.7
495.0000	285.663
495.5000	285.712
496.0000	285.807
496.5000	285.889
497.0000	286.004
497.5000	286.06
498.0000	286.042
498.5000	286.045
499.0000	286.05
499.5000	286.033
500.0000	286.09
500.5000	286.146
501.0000	286.186
501.5000	286.254
502.0000	286.299
502.5000	286.347
503.0000	286.328
503.5000	286.354
504.0000	286.373
504.5000	286.346
505.0000	286.394
505.5000	286.412
506.0000	286.452
506.5000	286.472
507.0000	286.492
507.5000	286.485
508.0000	286.51
508.5000	286.596
509.0000	286.641
509.5000	286.686
510.0000	286.746
510.5000	286.735
511.0000	286.796
511.5000	286.894
512.0000	286.886
512.5000	286.952
513.0000	287.009
513.5000	287.022
514.0000	287.056
514.5000	287.115
515.0000	287.109
515.5000	287.127
516.0000	287.096
516.5000	287.074
517.0000	287.085
517.5000	287.081
518.0000	287.19
518.5000	287.218
519.0000	287.246
519.5000	287.314
520.0000	287.32
520.5000	287.354
521.0000	287.398
521.5000	287.448
522.0000	287.539
522.5000	287.603
523.0000	287.673
523.5000	287.643
524.0000	287.643
524.5000	287.602
525.0000	287.617
525.5000	287.672
526.0000	287.697
526.5000	287.768
527.0000	287.759
527.5000	287.743
528.0000	287.709
528.5000	287.777
529.0000	287.848
529.5000	287.932
530.0000	288.028
530.5000	288.031
531.0000	288.047
531.5000	288.043
532.0000	288.016
532.5000	288.012
533.0000	288.072
533.5000	288.095
534.0000	288.143
534.5000	288.219
535.0000	288.223
535.5000	288.27
536.0000	288.349
536.5000	288.367
537.0000	288.412
537.5000	288.537
538.0000	288.578
538.5000	288.651
539.0000	288.678
539.5000	288.656
540.0000	288.675
540.5000	288.698
541.0000	288.755
541.5000	288.803
542.0000	288.821
542.5000	288.765
543.0000	288.796
543.5000	288.805
544.0000	288.788
544.5000	288.865
545.0000	288.897
545.5000	288.92
546.0000	288.98
546.5000	288.979
547.0000	289.027
547.5000	289.063
548.0000	289.131
548.5000	289.219
549.0000	289.233
549.5000	289.31
550.0000	289.338
550.5000	289.376
551.0000	289.382
551.5000	289.391
552.0000	289.379
552.5000	289.39
553.0000	289.4
553.5000	289.407
554.0000	289.516
554.5000	289.555
555.0000	289.611
555.5000	289.622
556.0000	289.611
556.5000	289.658
557.0000	289.702
557.5000	289.694
558.0000	289.719
558.5000	289.786
559.0000	289.785
559.5000	289.846
560.0000	289.876
560.5000	289.837
561.0000	289.897
561.5000	289.948
562.0000	290.002
562.5000	290.003
563.0000	289.996
563.5000	290.016
564.0000	290.044
564.5000	290.076
565.0000	290.087
565.5000	290.076
566.0000	290.088
566.5000	290.183
567.0000	290.199
567.5000	290.296
568.0000	290.356
568.5000	290.344
569.0000	290.458
569.5000	290.473
570.0000	290.459
570.5000	290.501
571.0000	290.433
571.5000	290.423
572.0000	290.45
572.5000	290.528
573.0000	290.629
573.5000	290.733
574.0000	290.744
574.5000	290.741
575.0000	290.739
575.5000	290.702
576.0000	290.747
576.5000	290.715
577.0000	290.763
577.5000	290.848
578.0000	290.869
578.5000	290.907
579.0000	290.925
579.5000	290.914
580.0000	290.958
580.5000	290.986
581.0000	291.034
581.5000	291.056
582.0000	291.089
582.5000	291.167
583.0000	291.217
583.5000	291.307
584.0000	291.287
584.5000	291.288
585.0000	291.268
585.5000	291.31
586.0000	291.448
586.5000	291.489
587.0000	291.557
587.5000	291.53
588.0000	291.514
588.5000	291.516
589.0000	291.557
589.5000	291.598
590.0000	291.621
590.5000	291.687
591.0000	291.715
591.5000	291.715
592.0000	291.734
592.5000	291.797
593.0000	291.741
593.5000	291.784
594.0000	291.811
594.5000	291.785
595.0000	291.895
595.5000	291.927
596.0000	291.96
596.5000	291.999
597.0000	292.051
597.5000	292.094
598.0000	292.111
598.5000	292.126
599.0000	292.122
599.5000	292.12
600.0000	292.16
600.5000	292.26
601.0000	292.236
601.5000	292.297
602.0000	292.362
602.5000	292.289
603.0000	292.382
603.5000	292.387
604.0000	292.383
604.5000	292.471
605.0000	292.505
605.5000	292.562
606.0000	292.591
606.5000	292.584
607.0000	292.599
607.5000	292.592
608.0000	292.621
608.5000	292.65
609.0000	292.692
609.5000	292.792
610.0000	292.779
610.5000	292.815
611.0000	292.826
611.5000	292.839
612.0000	292.901
612.5000	292.974
613.0000	292.992
613.5000	292.974
614.0000	293.028
614.5000	293.009
615.0000	293.095
615.5000	293.174
616.0000	293.177
616.5000	293.232
617.0000	293.225
617.5000	293.199
618.0000	293.245
618.5000	293.292
619.0000	293.309
619.5000	293.359
620.0000	293.399
620.5000	293.422
621.0000	293.483
621.5000	293.491
622.0000	293.491
622.5000	293.51
623.0000	293.522
623.5000	293.561
624.0000	293.638
624.5000	293.649
625.0000	293.693
625.5000	293.768
626.0000	293.8
626.5000	293.81
627.0000	293.878
627.5000	293.873
628.0000	293.862
628.5000	293.925
629.0000	293.9
629.5000	293.929
630.0000	294.007
630.5000	294.012
631.0000	293.99
631.5000	294.067
632.0000	294.077
632.5000	294.132
633.0000	294.227
633.5000	294.164
634.0000	294.171
634.5000	294.231
635.0000	294.247
635.5000	294.301
636.0000	294.328
636.5000	294.312
637.0000	294.38
637.5000	294.419
638.0000	294.46
638.5000	294.532
639.0000	294.553
639.5000	294.556
640.0000	294.608
640.5000	294.617
641.0000	294.596
641.5000	294.738
642.0000	294.738
642.5000	294.756
643.0000	294.793
643.5000	294.715
644.0000	294.742
644.5000	294.774
645.0000	294.8
645.5000	294.871
646.0000	294.891
646.5000	294.881
647.0000	294.923
647.5000	294.908
648.0000	294.953
648.5000	295.027
649.0000	295.057
649.5000	295.139
650.0000	295.192
650.5000	295.201
651.0000	295.257
651.5000	295.348
652.0000	295.341
652.5000	295.375
653.0000	295.392
653.5000	295.306
654.0000	295.332
654.5000	295.402
655.0000	295.423
655.5000	295.53
656.0000	295.625
656.5000	295.71
657.0000	295.759
657.5000	295.752
658.0000	295.739
658.5000	295.662
659.0000	295.672
659.5000	295.662
660.0000	295.71
660.5000	295.746
661.0000	295.814
661.5000	295.892
662.0000	295.876
662.5000	295.963
663.0000	295.93
663.5000	295.939
664.0000	295.946
664.5000	295.966
665.0000	295.94
665.5000	296.01
666.0000	296.124
666.5000	296.081
667.0000	296.144
667.5000	296.16
668.0000	296.134
668.5000	296.213
669.0000	296.298
669.5000	296.294
670.0000	296.291
670.5000	296.314
671.0000	296.352
671.5000	296.396
672.0000	296.515
672.5000	296.528
673.0000	296.512
673.5000	296.537
674.0000	296.539
674.5000	296.581
675.0000	296.622
675.5000	296.682
676.0000	296.693
676.5000	296.714
677.0000	296.755
677.5000	296.792
678.0000	296.805
678.5000	296.889
679.0000	296.927
679.5000	296.952
680.0000	296.995
680.5000	296.989
681.0000	297.033
681.5000	297.009
682.0000	297.08
682.5000	297.136
683.0000	297.195
683.5000	297.237
684.0000	297.204
684.5000	297.186
685.0000	297.183
685.5000	297.268
686.0000	297.287
686.5000	297.38
687.0000	297.416
687.5000	297.411
688.0000	297.488
688.5000	297.527
689.0000	297.548
689.5000	297.596
690.0000	297.649
690.5000	297.596
691.0000	297.603
691.5000	297.597
692.0000	297.617
692.5000	297.662
693.0000	297.714
693.5000	297.745
694.0000	297.776
694.5000	297.828
695.0000	297.881
695.5000	297.876
696.0000	297.861
696.5000	297.917
697.0000	297.886
697.5000	297.912
698.0000	297.992
698.5000	297.972
699.0000	298.049
699.5000	298.13
700.0000	298.154
700.5000	298.234
701.0000	298.22
701.5000	298.213
702.0000	298.247
702.5000	298.256
703.0000	298.294
703.5000	298.344
704.0000	298.408
704.5000	298.434
705.0000	298.472
705.5000	298.515
706.0000	298.428
706.5000	298.521
707.0000	298.578
707.5000	298.577
708.0000	298.702
708.5000	298.674
709.0000	298.671
709.5000	298.809
710.0000	298.817
710.5000	298.885
711.0000	298.933
711.5000	298.935
712.0000	298.982
712.5000	298.971
713.0000	299.024
713.5000	299.016
714.0000	299.038
714.5000	299.03
715.0000	299.039
715.5000	299.089
716.0000	299.104
716.5000	299.153
717.0000	299.221
717.5000	299.219
718.0000	299.287
718.5000	299.35
719.0000	299.328
719.5000	299.381
720.0000	299.388
720.5000	299.421
721.0000	299.52
721.5000	299.537
722.0000	299.566
722.5000	299.572
723.0000	299.527
723.5000	299.555
724.0000	299.561
724.5000	299.639
725.0000	299.682
725.5000	299.768
726.0000	299.895
726.5000	299.907
727.0000	299.974
727.5000	299.902
728.0000	299.858
728.5000	299.911
729.0000	299.934
729.5000	300.035
730.0000	300.096
730.5000	300.091
731.0000	300.092
731.5000	300.183
732.0000	300.174
732.5000	300.242
733.0000	300.313
733.5000	300.287
734.0000	300.37
734.5000	300.368
735.0000	300.398
735.5000	300.397
736.0000	300.398
736.5000	300.422
737.0000	300.449
737.5000	300.547
738.0000	300.581
738.5000	300.645
739.0000	300.713
739.5000	300.718
740.0000	300.737
740.5000	300.774
741.0000	300.743
741.5000	300.736
742.0000	300.783
742.5000	300.755
743.0000	300.784
743.5000	300.85
744.0000	300.897
744.5000	300.935
745.0000	300.987
745.5000	301.02
746.0000	301.035
746.5000	301.055
747.0000	301.084
747.5000	301.137
748.0000	301.182
748.5000	301.198
749.0000	301.201
749.5000	301.171
750.0000	301.163
750.5000	301.235
751.0000	301.294
751.5000	301.327
752.0000	301.331
752.5000	301.387
753.0000	301.37
753.5000	301.416
754.0000	301.485
754.5000	301.456
755.0000	301.517
755.5000	301.546
756.0000	301.529
756.5000	301.565
757.0000	301.656
757.5000	301.68
758.0000	301.746
758.5000	301.773
759.0000	301.767
759.5000	301.78
760.0000	301.758
760.5000	301.775
761.0000	301.755
761.5000	301.792
762.0000	301.861
762.5000	301.885
763.0000	301.878
763.5000	301.884
764.0000	301.904
764.5000	301.868
765.0000	301.954
765.5000	302.013
766.0000	301.99
766.5000	302.099
767.0000	302.065
767.5000	302.018
768.0000	302.06
768.5000	302.113
769.0000	302.176
769.5000	302.262
770.0000	302.321
770.5000	302.342
771.0000	302.305
771.5000	302.284
772.0000	302.296
772.5000	302.324
773.0000	302.413
773.5000	302.461
774.0000	302.438
774.5000	302.397
775.0000	302.42
775.5000	302.425
776.0000	302.501
776.5000	302.475
777.0000	302.424
777.5000	302.458
778.0000	302.474
778.5000	302.568
779.0000	302.574
779.5000	302.572
780.0000	302.631
780.5000	302.609
781.0000	302.661
781.5000	302.691
782.0000	302.627
782.5000	302.677
783.0000	302.7
783.5000	302.714
784.0000	302.761
784.5000	302.789
785.0000	302.842
785.5000	302.837
786.0000	302.78
786.5000	302.816
787.0000	302.786
787.5000	302.758
788.0000	302.782
788.5000	302.687
789.0000	302.709
789.5000	302.761
790.0000	302.813
790.5000	302.869
791.0000	302.855
791.5000	302.93
792.0000	302.907
792.5000	302.965
793.0000	303.003
793.5000	302.948
794.0000	303.003
794.5000	302.925
795.0000	302.927
795.5000	302.966
796.0000	302.871
796.5000	302.948
797.0000	302.93
797.5000	302.911
798.0000	303.047
798.5000	303.017
799.0000	303.011
799.5000	303.004
800.0000	302.945
800.5000	302.942
801.0000	302.952
801.5000	302.953
802.0000	302.936
802.5000	302.934
803.0000	302.977
803.5000	303.011
804.0000	303.009
804.5000	303.06
805.0000	303.044
805.5000	302.986
806.0000	302.988
806.5000	303.046
807.0000	303.032
807.5000	303.109
808.0000	303.122
808.5000	303.053
809.0000	303.099
809.5000	303.069
810.0000	303.092
810.5000	303.084
811.0000	303.052
811.5000	303.094
812.0000	303.124
812.5000	303.121
813.0000	303.166
813.5000	303.14
814.0000	303.105
814.5000	303.091
815.0000	303.047
815.5000	303.054
816.0000	303.091
816.5000	303.097
817.0000	303.053
817.5000	303.01
818.0000	302.953
818.5000	302.959
819.0000	303.034
819.5000	303.054
820.0000	303.038
820.5000	303.003
821.0000	302.951
821.5000	302.96
822.0000	302.954
822.5000	302.976
823.0000	302.93
823.5000	302.897
824.0000	302.97
824.5000	302.946
825.0000	302.989
825.5000	303.007
826.0000	302.99
826.5000	302.999
827.0000	302.973
827.5000	302.918
828.0000	302.832
828.5000	302.845
829.0000	302.818
829.5000	302.828
830.0000	302.847
830.5000	302.823
831.0000	302.797
831.5000	302.782
832.0000	302.724
832.5000	302.727
833.0000	302.741
833.5000	302.799
834.0000	302.817
834.5000	302.745
835.0000	302.787
835.5000	302.659
836.0000	302.699
836.5000	302.717
837.0000	302.677
837.5000	302.672
838.0000	302.613
838.5000	302.57
839.0000	302.491
839.5000	302.499
840.0000	302.487
840.5000	302.465
841.0000	302.485
841.5000	302.476
842.0000	302.504
842.5000	302.476
843.0000	302.526
843.5000	302.466
844.0000	302.4
844.5000	302.403
845.0000	302.349
845.5000	302.354
846.0000	302.297
846.5000	302.298
847.0000	302.241
847.5000	302.247
848.0000	302.179
848.5000	302.203
849.0000	302.162
849.5000	302.103
850.0000	302.239
850.5000	302.128
851.0000	302.121
851.5000	302.121
852.0000	302.038
852.5000	302.038
853.0000	302.022
853.5000	301.999
854.0000	301.978
854.5000	301.92
855.0000	301.898
855.5000	301.88
856.0000	301.814
856.5000	301.864
857.0000	301.801
857.5000	301.742
858.0000	301.813
858.5000	301.754
859.0000	301.719
859.5000	301.688
860.0000	301.553
860.5000	301.555
861.0000	301.573
861.5000	301.596
862.0000	301.639
862.5000	301.579
863.0000	301.583
863.5000	301.616
864.0000	301.616
864.5000	301.567
865.0000	301.537
865.5000	301.452
866.0000	301.416
866.5000	301.421
867.0000	301.439
867.5000	301.408
868.0000	301.392
868.5000	301.373
869.0000	301.327
869.5000	301.333
870.0000	301.28
870.5000	301.209
871.0000	301.128
871.5000	301.106
872.0000	301.02
872.5000	301.087
873.0000	301.103
873.5000	301.057
874.0000	301.165
874.5000	301.15
875.0000	301.113
875.5000	301.105
876.0000	300.991
876.5000	300.944
877.0000	300.892
877.5000	300.876
878.0000	300.878
878.5000	300.845
879.0000	300.865
879.5000	300.814
880.0000	300.773
880.5000	300.737
881.0000	300.749
881.5000	300.761
882.0000	300.785
882.5000	300.758
883.0000	300.735
883.5000	300.679
884.0000	300.621
884.5000	300.595
885.0000	300.584
885.5000	300.612
886.0000	300.653
886.5000	300.719
887.0000	300.64
887.5000	300.613
888.0000	300.563
888.5000	300.527
889.0000	300.505
889.5000	300.471
890.0000	300.449
890.5000	300.413
891.0000	300.396
891.5000	300.396
892.0000	300.447
892.5000	300.428
893.0000	300.526
893.5000	300.495
894.0000	300.438
894.5000	300.419
895.0000	300.319
895.5000	300.377
896.0000	300.423
896.5000	300.445
897.0000	300.496
897.5000	300.454
898.0000	300.385
898.5000	300.355
899.0000	300.32
899.5000	300.288
900.0000	300.311
900.5000	300.291
901.0000	300.307
901.5000	300.392
902.0000	300.317
902.5000	300.369
903.0000	300.35
903.5000	300.267
904.0000	300.329
904.5000	300.314
905.0000	300.283
905.5000	300.295
906.0000	300.253
906.5000	300.198
907.0000	300.242
907.5000	300.234
908.0000	300.229
908.5000	300.223
909.0000	300.211
909.5000	300.176
910.0000	300.211
910.5000	300.274
911.0000	300.244
911.5000	300.23
912.0000	300.179
912.5000	300.197
913.0000	300.262
913.5000	300.285
914.0000	300.296
914.5000	300.248
915.0000	300.193
915.5000	300.192
916.0000	300.196
916.5000	300.194
917.0000	300.195
917.5000	300.216
918.0000	300.229
918.5000	300.239
919.0000	300.246
919.5000	300.246
920.0000	300.187
920.5000	300.139
921.0000	300.115
921.5000	300.105
922.0000	300.156
922.5000	300.2
923.0000	300.227
923.5000	300.22
924.0000	300.236
924.5000	300.223
925.0000	300.216
925.5000	300.23
926.0000	300.181
926.5000	300.222
927.0000	300.221
927.5000	300.242
928.0000	300.292
928.5000	300.237
929.0000	300.274
929.5000	300.265
930.0000	300.244
930.5000	300.289
931.0000	300.3
931.5000	300.339
932.0000	300.386
932.5000	300.393
933.0000	300.357
933.5000	300.315
934.0000	300.321
934.5000	300.369
935.0000	300.414
935.5000	300.464
936.0000	300.509
936.5000	300.542
937.0000	300.587
937.5000	300.61
938.0000	300.616
938.5000	300.621
939.0000	300.565
939.5000	300.606
940.0000	300.576
940.5000	300.492
941.0000	300.536
941.5000	300.487
942.0000	300.518
942.5000	300.586
943.0000	300.584
943.5000	300.645
944.0000	300.681
944.5000	300.688
945.0000	300.665
945.5000	300.629
946.0000	300.584
946.5000	300.601
947.0000	300.641
947.5000	300.629
948.0000	300.666
948.5000	300.635
949.0000	300.67
949.5000	300.75
950.0000	300.76
950.5000	300.749
951.0000	300.746
951.5000	300.734
952.0000	300.726
952.5000	300.766
953.0000	300.79
953.5000	300.717
954.0000	300.721
954.5000	300.738
955.0000	300.728
955.5000	300.824
956.0000	300.868
956.5000	300.945
957.0000	301.017
957.5000	300.989
958.0000	300.991
958.5000	300.961
959.0000	300.919
959.5000	300.975
960.0000	300.969
960.5000	301.033
961.0000	301.021
961.5000	300.999
962.0000	301.01
962.5000	301.028
963.0000	301.076
963.5000	301.059
964.0000	301.138
964.5000	301.142
965.0000	301.123
965.5000	301.26
966.0000	301.241
966.5000	301.233
967.0000	301.303
967.5000	301.264
968.0000	301.342
968.5000	301.428
969.0000	301.352
969.5000	301.336
970.0000	301.305
970.5000	301.215
971.0000	301.308
971.5000	301.375
972.0000	301.397
972.5000	301.446
973.0000	301.511
973.5000	301.528
974.0000	301.505
974.5000	301.528
975.0000	301.459
975.5000	301.462
976.0000	301.522
976.5000	301.562
977.0000	301.633
977.5000	301.63
978.0000	301.613
978.5000	301.601
979.0000	301.644
979.5000	301.678
980.0000	301.736
980.5000	301.744
981.0000	301.757
981.5000	301.804
982.0000	301.785
982.5000	301.782
983.0000	301.808
983.5000	301.82
984.0000	301.902
984.5000	301.982
985.0000	301.987
985.5000	301.96
986.0000	301.975
986.5000	302.005
987.0000	301.988
987.5000	301.988
988.0000	302.017
988.5000	302.014
989.0000	302.066
989.5000	302.167
990.0000	302.181
990.5000	302.186
991.0000	302.214
991.5000	302.226
992.0000	302.227
992.5000	302.335
993.0000	302.382
993.5000	302.354
994.0000	302.409
994.5000	302.38
995.0000	302.388
995.5000	302.468
996.0000	302.478
996.5000	302.475
997.0000	302.507
997.5000	302.472
998.0000	302.483
998.5000	302.557
999.0000	302.53
999.5000	302.596
1000.0000	302.668
1000.5000	302.649
1001.0000	302.733
1001.5000	302.717
1002.0000	302.677
1002.5000	302.678
1003.0000	302.639
1003.5000	302.726
1004.0000	302.769
1004.5000	302.811
1005.0000	302.825
1005.5000	302.815
1006.0000	302.845
1006.5000	302.893
1007.0000	302.932
1007.5000	302.983
1008.0000	302.944
1008.5000	302.899
1009.0000	302.937
1009.5000	302.949
1010.0000	303.065
1010.5000	303.1
1011.0000	303.11
1011.5000	303.124
1012.0000	303.095
1012.5000	303.126
1013.0000	303.167
1013.5000	303.234
1014.0000	303.285
1014.5000	303.349
1015.0000	303.368
1015.5000	303.361
1016.0000	303.353
1016.5000	303.436
1017.0000	303.471
1017.5000	303.497
1018.0000	303.518
1018.5000	303.474
1019.0000	303.49
1019.5000	303.506
1020.0000	303.531
1020.5000	303.526
1021.0000	303.549
1021.5000	303.563
1022.0000	303.555
1022.5000	303.621
1023.0000	303.64
1023.5000	303.63
1024.0000	303.736
1024.5000	303.786
1025.0000	303.799
1025.5000	303.914
1026.0000	303.874
1026.5000	303.903
1027.0000	303.937
1027.5000	303.904
1028.0000	303.983
1028.5000	303.991
1029.0000	304.035
1029.5000	304.022
1030.0000	303.967
1030.5000	303.835
1031.0000	303.678
1031.5000	303.598
1032.0000	303.494
1032.5000	303.508
1033.0000	303.619
1033.5000	303.734
1034.0000	303.913
1034.5000	303.966
1035.0000	304.04
1035.5000	304.088
1036.0000	304.046
1036.5000	304.127
1037.0000	304.167
1037.5000	304.228
1038.0000	304.305
1038.5000	304.351
1039.0000	304.361
1039.5000	304.376
1040.0000	304.393
1040.5000	304.377
1041.0000	304.374
1041.5000	304.337
1042.0000	304.394
1042.5000	304.444
1043.0000	304.521
1043.5000	304.649
1044.0000	304.688
1044.5000	304.733
1045.0000	304.76
1045.5000	304.714
1046.0000	304.792
1046.5000	304.792
1047.0000	304.84
1047.5000	304.895
1048.0000	304.917
1048.5000	304.945
1049.0000	304.958
1049.5000	305.027
1050.0000	305.019
1050.5000	305.062
1051.0000	305.061
1051.5000	305.047
1052.0000	305.05
1052.5000	305.044
1053.0000	305.097
1053.5000	305.085
1054.0000	305.071
1054.5000	305.146
1055.0000	305.131
1055.5000	305.193
1056.0000	305.252
1056.5000	305.239
1057.0000	305.265
1057.5000	305.251
1058.0000	305.234
1058.5000	305.25
1059.0000	305.257
1059.5000	305.28
1060.0000	305.381
1060.5000	305.433
1061.0000	305.482
1061.5000	305.573
1062.0000	305.514
1062.5000	305.518
1063.0000	305.549
1063.5000	305.527
1064.0000	305.63
1064.5000	305.672
1065.0000	305.709
1065.5000	305.775
1066.0000	305.779
1066.5000	305.814
1067.0000	305.833
1067.5000	305.802
1068.0000	305.794
1068.5000	305.801
1069.0000	305.805
1069.5000	305.841
1070.0000	305.869
1070.5000	305.881
1071.0000	305.95
1071.5000	305.985
1072.0000	306.034
1072.5000	306.087
1073.0000	306.074
1073.5000	306.155
1074.0000	306.149
1074.5000	306.167
1075.0000	306.224
1075.5000	306.156
1076.0000	306.236
1076.5000	306.287
1077.0000	306.261
1077.5000	306.327
1078.0000	306.361
1078.5000	306.337
1079.0000	306.381
1079.5000	306.379
1080.0000	306.385
1080.5000	306.436
1081.0000	306.467
1081.5000	306.544
1082.0000	306.538
1082.5000	306.511
1083.0000	306.541
1083.5000	306.54
1084.0000	306.624
1084.5000	306.667
1085.0000	306.736
1085.5000	306.71
1086.0000	306.692
1086.5000	306.733
1087.0000	306.725
1087.5000	306.795
1088.0000	306.831
1088.5000	306.853
1089.0000	306.893
1089.5000	306.895
1090.0000	306.848
1090.5000	306.86
1091.0000	306.892
1091.5000	306.905
1092.0000	306.98
1092.5000	307.01
1093.0000	306.975
1093.5000	306.979
1094.0000	306.909
1094.5000	306.948
1095.0000	306.954
1095.5000	306.956
1096.0000	307.05
1096.5000	307.068
1097.0000	307.115
1097.5000	307.219
1098.0000	307.234
1098.5000	307.303
1099.0000	307.303
1099.5000	307.287
1100.0000	307.377
1100.5000	307.367
1101.0000	307.417
1101.5000	307.502
1102.0000	307.465
1102.5000	307.537
1103.0000	307.566
1103.5000	307.544
1104.0000	307.616
1104.5000	307.591
1105.0000	307.597
1105.5000	307.644
1106.0000	307.656
1106.5000	307.724
1107.0000	307.788
1107.5000	307.807
1108.0000	307.813
1108.5000	307.809
1109.0000	307.799
1109.5000	307.787
1110.0000	307.772
1110.5000	307.83
1111.0000	307.883
1111.5000	307.952
1112.0000	308.042
1112.5000	308.013
1113.0000	308.046
1113.5000	308.07
1114.0000	308.056
1114.5000	308.056
1115.0000	308.115
1115.5000	308.093
1116.0000	308.151
1116.5000	308.223
1117.0000	308.267
1117.5000	308.319
1118.0000	308.387
1118.5000	308.41
1119.0000	308.396
1119.5000	308.402
1120.0000	308.367
1120.5000	308.372
1121.0000	308.33
1121.5000	308.352
1122.0000	308.387
1122.5000	308.42
1123.0000	308.462
1123.5000	308.491
1124.0000	308.491
1124.5000	308.52
1125.0000	308.624
1125.5000	308.679
1126.0000	308.756
1126.5000	308.73
1127.0000	308.752
1127.5000	308.773
1128.0000	308.777
1128.5000	308.839
1129.0000	308.825
1129.5000	308.855
1130.0000	308.883
1130.5000	308.982
1131.0000	309.027
1131.5000	309.075
1132.0000	309.067
1132.5000	309.012
1133.0000	309.043
1133.5000	309.087
1134.0000	309.103
1134.5000	309.163
1135.0000	309.173
1135.5000	309.143
1136.0000	309.177
1136.5000	309.224
1137.0000	309.176
1137.5000	309.249
1138.0000	309.312
1138.5000	309.308
1139.0000	309.421
1139.5000	309.403
1140.0000	309.401
1140.5000	309.507
1141.0000	309.49
1141.5000	309.58
1142.0000	309.621
1142.5000	309.549
1143.0000	309.629
1143.5000	309.61
1144.0000	309.663
1144.5000	309.671
1145.0000	309.633
1145.5000	309.644
1146.0000	309.667
1146.5000	309.772
1147.0000	309.818
1147.5000	309.828
1148.0000	309.834
1148.5000	309.821
1149.0000	309.904
1149.5000	309.959
1150.0000	309.964
1150.5000	310.005
1151.0000	309.955
1151.5000	309.975
1152.0000	309.971
1152.5000	309.959
1153.0000	310.007
1153.5000	310.077
1154.0000	310.163
1154.5000	310.212
1155.0000	310.158
1155.5000	310.104
1156.0000	310.089
1156.5000	310.11
1157.0000	310.198
1157.5000	310.226
1158.0000	310.251
1158.5000	310.259
1159.0000	310.298
1159.5000	310.331
1160.0000	310.403
1160.5000	310.428
1161.0000	310.415
1161.5000	310.434
1162.0000	310.348
1162.5000	310.31
1163.0000	310.368
1163.5000	310.378
1164.0000	310.511
1164.5000	310.567
1165.0000	310.586
1165.5000	310.627
1166.0000	310.585
1166.5000	310.585
1167.0000	310.58
1167.5000	310.5
1168.0000	310.49
1168.5000	310.555
1169.0000	310.535
1169.5000	310.583
1170.0000	310.599
1170.5000	310.547
1171.0000	310.591
1171.5000	310.641
1172.0000	310.698
1172.5000	310.764
1173.0000	310.797
1173.5000	310.78
1174.0000	310.782
1174.5000	310.721
1175.0000	310.653
1175.5000	310.661
1176.0000	310.618
1176.5000	310.669
1177.0000	310.712
1177.5000	310.792
1178.0000	310.798
1178.5000	310.758
1179.0000	310.777
1179.5000	310.714
1180.0000	310.732
1180.5000	310.752
1181.0000	310.766
1181.5000	310.774
1182.0000	310.775
1182.5000	310.79
1183.0000	310.747
1183.5000	310.741
1184.0000	310.775
1184.5000	310.744
1185.0000	310.738
1185.5000	310.75
1186.0000	310.69
1186.5000	310.705
1187.0000	310.701
1187.5000	310.691
1188.0000	310.697
1188.5000	310.686
1189.0000	310.686
1189.5000	310.663
1190.0000	310.727
1190.5000	310.775
1191.0000	310.841
1191.5000	310.867
1192.0000	310.914
1192.5000	310.875
1193.0000	310.84
1193.5000	310.839
1194.0000	310.708
1194.5000	310.73
1195.0000	310.726
1195.5000	310.678
1196.0000	310.727
1196.5000	310.711
1197.0000	310.68
1197.5000	310.679
1198.0000	310.622
1198.5000	310.603
1199.0000	310.564
1199.5000	310.592
1200.0000	310.58
1200.5000	310.589
1201.0000	310.643
1201.5000	310.582
1202.0000	310.57
1202.5000	310.549
1203.0000	310.479
1203.5000	310.536
1204.0000	310.648
1204.5000	310.601
1205.0000	310.643
1205.5000	310.633
1206.0000	310.546
1206.5000	310.59
1207.0000	310.539
1207.5000	310.559
1208.0000	310.589
1208.5000	310.593
1209.0000	310.585
1209.5000	310.542
1210.0000	310.478
1210.5000	310.437
1211.0000	310.452
1211.5000	310.508
1212.0000	310.532
1212.5000	310.591
1213.0000	310.641
1213.5000	310.568
1214.0000	310.532
1214.5000	310.49
1215.0000	310.505
1215.5000	310.454
1216.0000	310.524
1216.5000	310.476
1217.0000	310.416
1217.5000	310.443
1218.0000	310.368
1218.5000	310.428
1219.0000	310.402
1219.5000	310.363
1220.0000	310.378
1220.5000	310.356
1221.0000	310.321
1221.5000	310.362
1222.0000	310.348
1222.5000	310.28
1223.0000	310.279
1223.5000	310.298
1224.0000	310.287
1224.5000	310.334
1225.0000	310.323
1225.5000	310.349
1226.0000	310.336
1226.5000	310.34
1227.0000	310.349
1227.5000	310.32
1228.0000	310.352
1228.5000	310.325
1229.0000	310.317
1229.5000	310.247
1230.0000	310.189
1230.5000	310.145
1231.0000	310.156
1231.5000	310.176
1232.0000	310.199
1232.5000	310.195
1233.0000	310.192
1233.5000	310.18
1234.0000	310.226
1234.5000	310.299
1235.0000	310.27
1235.5000	310.254
1236.0000	310.301
1236.5000	310.264
1237.0000	310.286
1237.5000	310.308
1238.0000	310.195
1238.5000	310.232
1239.0000	310.223
1239.5000	310.249
1240.0000	310.209
1240.5000	310.143
1241.0000	310.189
1241.5000	310.126
1242.0000	310.154
1242.5000	310.155
1243.0000	310.15
1243.5000	310.138
1244.0000	310.144
1244.5000	310.21
1245.0000	310.186
1245.5000	310.272
1246.0000	310.29
1246.5000	310.214
1247.0000	310.183
1247.5000	310.119
1248.0000	310.108
1248.5000	310.1
1249.0000	310.126
1249.5000	310.19
1250.0000	310.182
1250.5000	310.168
1251.0000	310.17
1251.5000	310.079
1252.0000	310.166
1252.5000	310.237
1253.0000	310.221
1253.5000	310.282
1254.0000	310.138
1254.5000	310.146
1255.0000	310.136
1255.5000	310.115
1256.0000	310.152
1256.5000	310.117
1257.0000	310.141
1257.5000	310.15
1258.0000	310.138
1258.5000	310.168
1259.0000	310.142
1259.5000	310.191
1260.0000	310.239
1260.5000	310.257
1261.0000	310.247
1261.5000	310.24
1262.0000	310.207
1262.5000	310.152
1263.0000	310.158
1263.5000	310.125
1264.0000	310.192
1264.5000	310.182
1265.0000	310.18
1265.5000	310.232
1266.0000	310.204
1266.5000	310.201
1267.0000	310.211
1267.5000	310.13
1268.0000	310.156
1268.5000	310.198
1269.0000	310.2
1269.5000	310.299
1270.0000	310.251
1270.5000	310.231
1271.0000	310.293
1271.5000	310.26
1272.0000	310.315
1272.5000	310.347
1273.0000	310.33
1273.5000	310.324
1274.0000	310.353
1274.5000	310.37
1275.0000	310.357
1275.5000	310.384
1276.0000	310.368
1276.5000	310.354
1277.0000	310.44
1277.5000	310.457
1278.0000	310.428
1278.5000	310.495
1279.0000	310.449
1279.5000	310.409
1280.0000	310.525
1280.5000	310.532
1281.0000	310.54
1281.5000	310.56
1282.0000	310.54
1282.5000	310.513
1283.0000	310.535
1283.5000	310.526
1284.0000	310.485
1284.5000	310.488
1285.0000	310.473
1285.5000	310.514
1286.0000	310.595
1286.5000	310.616
1287.0000	310.72
1287.5000	310.743
1288.0000	310.699
1288.5000	310.741
1289.0000	310.67
1289.5000	310.643
1290.0000	310.622
1290.5000	310.586
1291.0000	310.663
1291.5000	310.726
1292.0000	310.847
1292.5000	310.907
1293.0000	310.868
1293.5000	310.822
1294.0000	310.781
1294.5000	310.805
1295.0000	310.799
1295.5000	310.859
1296.0000	310.908
1296.5000	310.906
1297.0000	310.963
1297.5000	310.985
1298.0000	310.994
1298.5000	311.007
1299.0000	311.032
1299.5000	311.036
1300.0000	311.028
1300.5000	311.067
1301.0000	311.109
1301.5000	311.103
1302.0000	311.068
1302.5000	311.04
1303.0000	311.027
1303.5000	311.064
1304.0000	311.098
1304.5000	311.185
1305.0000	311.216
1305.5000	311.254
1306.0000	311.312
1306.5000	311.244
1307.0000	311.253
1307.5000	311.246
1308.0000	311.29
1308.5000	311.353
1309.0000	311.389
1309.5000	311.416
1310.0000	311.431
1310.5000	311.483
1311.0000	311.424
1311.5000	311.467
1312.0000	311.448
1312.5000	311.414
1313.0000	311.45
1313.5000	311.414
1314.0000	311.458
1314.5000	311.494
1315.0000	311.535
1315.5000	311.597
1316.0000	311.572
1316.5000	311.614
1317.0000	311.655
1317.5000	311.656
1318.0000	311.714
1318.5000	311.702
1319.0000	311.697
1319.5000	311.726
1320.0000	311.713
1320.5000	311.767
1321.0000	311.769
1321.5000	311.754
1322.0000	311.8
1322.5000	311.838
1323.0000	311.874
1323.5000	311.977
1324.0000	311.964
1324.5000	311.931
1325.0000	311.92
1325.5000	311.884
1326.0000	311.902
1326.5000	311.907
1327.0000	311.983
1327.5000	312.033
1328.0000	312.055
1328.5000	312.083
1329.0000	312.052
1329.5000	312.041
1330.0000	312.043
1330.5000	312.091
1331.0000	312.201
1331.5000	312.257
1332.0000	312.31
1332.5000	312.294
1333.0000	312.292
1333.5000	312.297
1334.0000	312.293
1334.5000	312.325
1335.0000	312.312
1335.5000	312.356
1336.0000	312.415
1336.5000	312.446
1337.0000	312.458
1337.5000	312.388
1338.0000	312.384
1338.5000	312.467
1339.0000	312.528
1339.5000	312.602
1340.0000	312.647
1340.5000	312.617
1341.0000	312.578
1341.5000	312.605
1342.0000	312.656
1342.5000	312.674
1343.0000	312.7
1343.5000	312.744
1344.0000	312.773
1344.5000	312.82
1345.0000	312.874
1345.5000	312.886
1346.0000	312.877
1346.5000	312.879
1347.0000	312.902
1347.5000	312.941
1348.0000	312.944
1348.5000	312.941
1349.0000	312.967
1349.5000	313.041
1350.0000	313.025
1350.5000	313.105
1351.0000	313.151
1351.5000	313.133
1352.0000	313.19
1352.5000	313.198
1353.0000	313.208
1353.5000	313.198
1354.0000	313.238
1354.5000	313.272
1355.0000	313.309
1355.5000	313.35
1356.0000	313.406
1356.5000	313.417
1357.0000	313.426
1357.5000	313.482
1358.0000	313.504
1358.5000	313.528
1359.0000	313.575
1359.5000	313.537
1360.0000	313.551
1360.5000	313.626
1361.0000	313.678
1361.5000	313.681
1362.0000	313.736
1362.5000	313.594
1363.0000	313.539
1363.5000	313.638
1364.0000	313.642
1364.5000	313.751
1365.0000	313.825
1365.5000	313.867
1366.0000	313.863
1366.5000	313.886
1367.0000	313.946
1367.5000	313.958
1368.0000	314.03
1368.5000	314.074
1369.0000	314.072
1369.5000	314.058
1370.0000	314.067
1370.5000	314.108
1371.0000	314.066
1371.5000	314.103
1372.0000	314.155
1372.5000	314.186
1373.0000	314.256
1373.5000	314.298
1374.0000	314.267
1374.5000	314.329
1375.0000	314.387
1375.5000	314.393
1376.0000	314.396
1376.5000	314.386
1377.0000	314.393
1377.5000	314.461
1378.0000	314.524
1378.5000	314.585
1379.0000	314.635
1379.5000	314.646
1380.0000	314.734
1380.5000	314.766
1381.0000	314.771
1381.5000	314.781
1382.0000	314.742
1382.5000	314.744
1383.0000	314.768
1383.5000	314.842
1384.0000	314.879
1384.5000	314.901
1385.0000	314.946
1385.5000	314.958
1386.0000	315.009
1386.5000	314.982
1387.0000	315.071
1387.5000	315.094
1388.0000	315.164
1388.5000	315.293
1389.0000	315.232
1389.5000	315.289
1390.0000	315.288
1390.5000	315.228
1391.0000	315.268
1391.5000	315.221
1392.0000	315.219
1392.5000	315.24
1393.0000	315.295
1393.5000	315.404
1394.0000	315.391
1394.5000	315.491
1395.0000	315.504
1395.5000	315.509
1396.0000	315.558
1396.5000	315.515
1397.0000	315.562
1397.5000	315.593
1398.0000	315.687
1398.5000	315.804
1399.0000	315.855
1399.5000	315.922
1400.0000	315.897
1400.5000	315.906
1401.0000	315.902
1401.5000	315.875
1402.0000	315.922
1402.5000	315.997
1403.0000	316.053
1403.5000	316.124
1404.0000	316.161
1404.5000	316.137
1405.0000	316.134
1405.5000	316.129
1406.0000	316.166
1406.5000	316.19
1407.0000	316.229
1407.5000	316.326
1408.0000	316.369
1408.5000	316.38
1409.0000	316.431
1409.5000	316.392
1410.0000	316.376
1410.5000	316.432
1411.0000	316.438
1411.5000	316.461
1412.0000	316.503
1412.5000	316.554
1413.0000	316.551
1413.5000	316.596
1414.0000	316.632
1414.5000	316.605
1415.0000	316.669
1415.5000	316.696
1416.0000	316.797
1416.5000	316.85
1417.0000	316.885
1417.5000	316.924
1418.0000	316.938
1418.5000	316.957
1419.0000	316.979
1419.5000	317.027
1420.0000	316.984
1420.5000	317.062
1421.0000	317.12
1421.5000	317.093
1422.0000	317.146
1422.5000	317.157
1423.0000	317.203
1423.5000	317.23
1424.0000	317.207
1424.5000	317.251
1425.0000	317.196
1425.5000	317.214
1426.0000	317.254
1426.5000	317.265
1427.0000	317.416
1427.5000	317.476
1428.0000	317.562
1428.5000	317.575
1429.0000	317.531
1429.5000	317.575
1430.0000	317.642
1430.5000	317.72
1431.0000	317.76
1431.5000	317.804
1432.0000	317.765
1432.5000	317.711
1433.0000	317.745
1433.5000	317.742
1434.0000	317.805
1434.5000	317.892
1435.0000	317.894
1435.5000	317.938
1436.0000	317.974
1436.5000	317.97
1437.0000	317.996
1437.5000	318.036
1438.0000	318.069
1438.5000	318.122
1439.0000	318.153
1439.5000	318.167
1440.0000	318.226
1440.5000	318.263
1441.0000	318.278
1441.5000	318.27
1442.0000	318.205
1442.5000	318.2
1443.0000	318.279
1443.5000	318.265
1444.0000	318.339
1444.5000	318.378
1445.0000	318.407
1445.5000	318.498
1446.0000	318.569
1446.5000	318.642
1447.0000	318.661
1447.5000	318.677
1448.0000	318.629
1448.5000	318.672
1449.0000	318.724
1449.5000	318.712
1450.0000	318.757
1450.5000	318.701
1451.0000	318.694
1451.5000	318.793
1452.0000	318.801
1452.5000	318.876
1453.0000	318.936
1453.5000	318.964
1454.0000	319.046
1454.5000	319.076
1455.0000	319.104
1455.5000	319.13
1456.0000	319.163
1456.5000	319.212
1457.0000	319.218
1457.5000	319.237
1458.0000	319.284
1458.5000	319.288
1459.0000	319.251
1459.5000	319.267
1460.0000	319.261
1460.5000	319.251
1461.0000	319.369
1461.5000	319.365
1462.0000	319.364
1462.5000	319.438
1463.0000	319.407
1463.5000	319.466
1464.0000	319.582
1464.5000	319.6
1465.0000	319.599
1465.5000	319.65
1466.0000	319.61
1466.5000	319.653
1467.0000	319.788
1467.5000	319.848
1468.0000	319.859
1468.5000	319.828
1469.0000	319.765
1469.5000	319.81
1470.0000	319.9
1470.5000	319.956
1471.0000	320.01
1471.5000	320.034
1472.0000	320.08
1472.5000	320.103
1473.0000	320.136
1473.5000	320.134
1474.0000	320.08
1474.5000	320.098
1475.0000	320.116
1475.5000	320.066
1476.0000	320.094
1476.5000	320.12
1477.0000	320.257
1477.5000	320.374
1478.0000	320.443
1478.5000	320.534
1479.0000	320.519
1479.5000	320.542
1480.0000	320.586
1480.5000	320.546
1481.0000	320.561
1481.5000	320.616
1482.0000	320.585
1482.5000	320.671
1483.0000	320.658
1483.5000	320.673
1484.0000	320.738
1484.5000	320.759
1485.0000	320.803
1485.5000	320.776
1486.0000	320.805
1486.5000	320.805
1487.0000	320.804
1487.5000	320.903
1488.0000	320.973
1488.5000	321.016
1489.0000	321.142
1489.5000	321.204
1490.0000	321.176
1490.5000	321.222
1491.0000	321.211
1491.5000	321.175
1492.0000	321.287
1492.5000	321.322
1493.0000	321.295
1493.5000	321.316
1494.0000	321.282
1494.5000	321.299
1495.0000	321.403
1495.5000	321.458
1496.0000	321.469
1496.5000	321.508
1497.0000	321.492
1497.5000	321.523
1498.0000	321.591
1498.5000	321.62
1499.0000	321.61
1499.5000	321.644
1500.0000	321.681
1500.5000	321.72
1501.0000	321.762
1501.5000	321.712
1502.0000	321.765
1502.5000	321.726
1503.0000	321.767
1503.5000	321.854
1504.0000	321.833
1504.5000	321.888
1505.0000	321.934
1505.5000	321.985
1506.0000	322.016
1506.5000	322.013
1507.0000	322.052
1507.5000	322.124
1508.0000	322.18
1508.5000	322.254
1509.0000	322.264
1509.5000	322.217
1510.0000	322.196
1510.5000	322.213
1511.0000	322.268
1511.5000	322.381
1512.0000	322.465
1512.5000	322.548
1513.0000	322.549
1513.5000	322.493
1514.0000	322.481
1514.5000	322.514
1515.0000	322.567
1515.5000	322.618
1516.0000	322.675
1516.5000	322.696
1517.0000	322.749
1517.5000	322.726
1518.0000	322.773
1518.5000	322.818
1519.0000	322.841
1519.5000	322.957
1520.0000	323.026
1520.5000	323.002
1521.0000	323.062
1521.5000	323.04
1522.0000	322.973
1522.5000	322.966
1523.0000	322.911
1523.5000	322.98
1524.0000	323.02
1524.5000	323.071
1525.0000	323.125
1525.5000	323.125
1526.0000	323.156
1526.5000	323.157
1527.0000	323.217
1527.5000	323.27
1528.0000	323.331
1528.5000	323.428
1529.0000	323.399
1529.5000	323.38
1530.0000	323.403
1530.5000	323.381
1531.0000	323.369
1531.5000	323.427
1532.0000	323.414
1532.5000	323.396
1533.0000	323.472
1533.5000	323.505
1534.0000	323.543
1534.5000	323.606
1535.0000	323.679
1535.5000	323.66
1536.0000	323.664
1536.5000	323.718
1537.0000	323.711
1537.5000	323.705
1538.0000	323.731
1538.5000	323.708
1539.0000	323.712
1539.5000	323.766
1540.0000	323.811
1540.5000	323.847
1541.0000	323.845
1541.5000	323.921
1542.0000	323.913
1542.5000	323.931
1543.0000	324.042
1543.5000	324.007
1544.0000	324.036
1544.5000	324.088
1545.0000	324.031
1545.5000	324.074
1546.0000	324.166
1546.5000	324.15
1547.0000	324.22
1547.5000	324.312
1548.0000	324.252
1548.5000	324.385
1549.0000	324.425
1549.5000	324.397
1550.0000	324.469
1550.5000	324.447
1551.0000	324.497
1551.5000	324.443
1552.0000	324.481
1552.5000	324.491
1553.0000	324.439
1553.5000	324.579
1554.0000	324.607
1554.5000	324.636
1555.0000	324.631
1555.5000	324.614
1556.0000	324.647
1556.5000	324.635
1557.0000	324.702
1557.5000	324.719
1558.0000	324.669
1558.5000	324.738
1559.0000	324.756
1559.5000	324.805
1560.0000	324.888
1560.5000	324.89
1561.0000	324.87
1561.5000	324.848
1562.0000	324.848
1562.5000	324.854
1563.0000	324.963
1563.5000	324.998
1564.0000	325.019
1564.5000	325.066
1565.0000	325.091
1565.5000	325.149
1566.0000	325.151
1566.5000	325.195
1567.0000	325.215
1567.5000	325.184
1568.0000	325.217
1568.5000	325.226
1569.0000	325.165
1569.5000	325.155
1570.0000	325.14
1570.5000	325.172
1571.0000	325.261
1571.5000	325.386
1572.0000	325.456
1572.5000	325.47
1573.0000	325.533
1573.5000	325.474
1574.0000	325.491
1574.5000	325.538
1575.0000	325.512
1575.5000	325.586
1576.0000	325.577
1576.5000	325.599
1577.0000	325.556
1577.5000	325.548
1578.0000	325.595
1578.5000	325.578
1579.0000	325.701
1579.5000	325.731
1580.0000	325.715
1580.5000	325.776
1581.0000	325.735
1581.5000	325.78
1582.0000	325.861
1582.5000	325.882
1583.0000	325.847
1583.5000	325.884
1584.0000	325.91
1584.5000	325.966
1585.0000	325.978
1585.5000	325.943
1586.0000	325.905
1586.5000	325.883
1587.0000	325.961
1587.5000	326.001
1588.0000	326.034
1588.5000	325.993
1589.0000	326.025
1589.5000	326.079
1590.0000	326.11
1590.5000	326.149
1591.0000	326.18
1591.5000	326.168
1592.0000	326.229
1592.5000	326.253
1593.0000	326.252
1593.5000	326.282
1594.0000	326.257
1594.5000	326.295
1595.0000	326.328
1595.5000	326.37
1596.0000	326.413
1596.5000	326.466
1597.0000	326.441
1597.5000	326.461
1598.0000	326.49
1598.5000	326.447
1599.0000	326.557
1599.5000	326.506
1600.0000	326.566
1600.5000	326.567
1601.0000	326.565
1601.5000	326.636
1602.0000	326.544
1602.5000	326.627
1603.0000	326.639
1603.5000	326.666
1604.0000	326.759
1604.5000	326.778
1605.0000	326.721
1605.5000	326.809
1606.0000	326.838
1606.5000	326.85
1607.0000	326.948
1607.5000	326.883
1608.0000	326.853
1608.5000	326.87
1609.0000	326.852
1609.5000	326.889
1610.0000	326.967
1610.5000	326.994
1611.0000	327.06
1611.5000	327.103
1612.0000	327.082
1612.5000	327.058
1613.0000	327.053
1613.5000	327.043
1614.0000	327.07
1614.5000	327.129
1615.0000	327.181
1615.5000	327.161
1616.0000	327.196
1616.5000	327.216
1617.0000	327.215
1617.5000	327.253
1618.0000	327.257
1618.5000	327.263
1619.0000	327.271
1619.5000	327.302
1620.0000	327.359
1620.5000	327.373
1621.0000	327.379
1621.5000	327.317
1622.0000	327.311
1622.5000	327.318
1623.0000	327.366
1623.5000	327.534
1624.0000	327.529
1624.5000	327.534
1625.0000	327.5
1625.5000	327.415
1626.0000	327.474
1626.5000	327.541
1627.0000	327.604
1627.5000	327.664
1628.0000	327.681
1628.5000	327.681
1629.0000	327.756
1629.5000	327.757
1630.0000	327.727
1630.5000	327.703
1631.0000	327.658
1631.5000	327.589
1632.0000	327.664
1632.5000	327.779
1633.0000	327.757
1633.5000	327.909
1634.0000	327.89
1634.5000	327.851
1635.0000	327.987
1635.5000	327.988
1636.0000	328.029
1636.5000	328.036
1637.0000	327.978
1637.5000	327.98
1638.0000	327.942
1638.5000	328.01
1639.0000	328.05
1639.5000	328.018
1640.0000	328.085
1640.5000	328.116
1641.0000	328.13
1641.5000	328.156
1642.0000	328.199
1642.5000	328.156
1643.0000	328.113
1643.5000	328.204
1644.0000	328.19
1644.5000	328.137
1645.0000	328.207
1645.5000	328.155
1646.0000	328.093
1646.5000	328.116
1647.0000	328.123
1647.5000	328.186
1648.0000	328.275
1648.5000	328.342
1649.0000	328.358
1649.5000	328.346
1650.0000	328.362
1650.5000	328.4
1651.0000	328.355
1651.5000	328.39
1652.0000	328.41
1652.5000	328.418
1653.0000	328.539
1653.5000	328.506
1654.0000	328.567
1654.5000	328.561
1655.0000	328.544
1655.5000	328.635
1656.0000	328.582
1656.5000	328.636
1657.0000	328.636
1657.5000	328.673
1658.0000	328.691
1658.5000	328.701
1659.0000	328.781
1659.5000	328.719
1660.0000	328.742
1660.5000	328.742
1661.0000	328.713
1661.5000	328.731
1662.0000	328.729
1662.5000	328.715
1663.0000	328.747
1663.5000	328.778
1664.0000	328.872
1664.5000	328.93
1665.0000	328.874
1665.5000	328.932
1666.0000	328.891
1666.5000	328.833
1667.0000	328.869
1667.5000	328.885
1668.0000	328.905
1668.5000	329.001
1669.0000	329.045
1669.5000	329.056
1670.0000	329.071
1670.5000	329.069
1671.0000	329.112
1671.5000	329.084
1672.0000	329.149
1672.5000	329.22
1673.0000	329.129
1673.5000	329.142
1674.0000	329.163
1674.5000	329.152
1675.0000	329.225
1675.5000	329.325
1676.0000	329.291
1676.5000	329.31
1677.0000	329.33
1677.5000	329.293
1678.0000	329.306
1678.5000	329.282
1679.0000	329.299
1679.5000	329.321
1680.0000	329.343
1680.5000	329.371
1681.0000	329.367
1681.5000	329.317
1682.0000	329.298
1682.5000	329.322
1683.0000	329.335
1683.5000	329.393
1684.0000	329.406
1684.5000	329.418
1685.0000	329.416
1685.5000	329.404
1686.0000	329.439
1686.5000	329.458
1687.0000	329.532
1687.5000	329.55
1688.0000	329.593
1688.5000	329.635
1689.0000	329.639
1689.5000	329.663
1690.0000	329.625
1690.5000	329.621
1691.0000	329.62
1691.5000	329.651
1692.0000	329.645
1692.5000	329.615
1693.0000	329.65
1693.5000	329.639
1694.0000	329.693
1694.5000	329.755
1695.0000	329.795
1695.5000	329.843
1696.0000	329.866
1696.5000	329.879
1697.0000	329.884
1697.5000	329.899
1698.0000	329.871
1698.5000	329.834
1699.0000	329.816
1699.5000	329.832
1700.0000	329.907
1700.5000	329.968
1701.0000	329.991
1701.5000	329.953
1702.0000	329.974
1702.5000	329.941
1703.0000	329.895
1703.5000	329.903
1704.0000	329.886
1704.5000	329.961
1705.0000	330.074
1705.5000	330.049
1706.0000	330.061
1706.5000	330.078
1707.0000	330.03
1707.5000	330.114
1708.0000	330.086
1708.5000	330.036
1709.0000	330.094
1709.5000	330.019
1710.0000	330.052
1710.5000	330.121
1711.0000	330.088
1711.5000	330.222
1712.0000	330.242
1712.5000	330.171
1713.0000	330.194
1713.5000	330.201
1714.0000	330.265
1714.5000	330.35
1715.0000	330.388
1715.5000	330.36
1716.0000	330.315
1716.5000	330.281
1717.0000	330.302
1717.5000	330.341
1718.0000	330.352
1718.5000	330.393
1719.0000	330.36
1719.5000	330.418
1720.0000	330.432
1720.5000	330.464
1721.0000	330.465
1721.5000	330.388
1722.0000	330.46
1722.5000	330.405
1723.0000	330.425
1723.5000	330.502
1724.0000	330.417
1724.5000	330.487
1725.0000	330.498
1725.5000	330.497
1726.0000	330.559
1726.5000	330.591
1727.0000	330.647
1727.5000	330.63
1728.0000	330.663
1728.5000	330.617
1729.0000	330.633
1729.5000	330.656
1730.0000	330.65
1730.5000	330.675
1731.0000	330.646
1731.5000	330.661
1732.0000	330.629
1732.5000	330.645
1733.0000	330.768
1733.5000	330.797
1734.0000	330.896
1734.5000	330.949
1735.0000	330.871
1735.5000	330.866
1736.0000	330.827
1736.5000	330.837
1737.0000	330.83
1737.5000	330.797
1738.0000	330.864
1738.5000	330.866
1739.0000	330.956
1739.5000	331.012
1740.0000	330.992
1740.5000	331.009
1741.0000	330.986
1741.5000	331.012
1742.0000	331.019
1742.5000	331.034
1743.0000	331.061
1743.5000	331
1744.0000	331.044
1744.5000	331.043
1745.0000	330.975
1745.5000	331.052
1746.0000	331.038
1746.5000	331.055
1747.0000	331.092
1747.5000	331.16
1748.0000	331.155
1748.5000	331.144
1749.0000	331.198
1749.5000	331.148
1750.0000	331.115
1750.5000	331.072
1751.0000	331.04
1751.5000	331.069
1752.0000	331.172
1752.5000	331.22
1753.0000	331.184
1753.5000	331.155
1754.0000	331.062
1754.5000	331.071
1755.0000	331.155
1755.5000	331.188
1756.0000	331.284
1756.5000	331.329
1757.0000	331.332
1757.5000	331.341
1758.0000	331.3
1758.5000	331.287
1759.0000	331.284
1759.5000	331.29
1760.0000	331.278
1760.5000	331.256
1761.0000	331.24
1761.5000	331.254
1762.0000	331.285
1762.5000	331.339
1763.0000	331.355
1763.5000	331.326
1764.0000	331.366
1764.5000	331.368
1765.0000	331.42
1765.5000	331.484
1766.0000	331.468
1766.5000	331.469
1767.0000	331.451
1767.5000	331.418
1768.0000	331.407
1768.5000	331.434
1769.0000	331.44
1769.5000	331.501
1770.0000	331.606
1770.5000	331.563
1771.0000	331.609
1771.5000	331.638
1772.0000	331.623
1772.5000	331.697
1773.0000	331.672
1773.5000	331.68
1774.0000	331.674
1774.5000	331.665
1775.0000	331.685
1775.5000	331.645
1776.0000	331.665
1776.5000	331.694
1777.0000	331.705
1777.5000	331.718
1778.0000	331.76
1778.5000	331.798
1779.0000	331.865
1779.5000	331.89
1780.0000	331.796
1780.5000	331.787
1781.0000	331.647
1781.5000	331.611
1782.0000	331.614
1782.5000	331.595
1783.0000	331.728
1783.5000	331.782
1784.0000	331.88
1784.5000	331.888
1785.0000	331.892
1785.5000	331.92
1786.0000	331.912
1786.5000	331.913
1787.0000	331.901
1787.5000	331.878
1788.0000	331.896
1788.5000	331.923
1789.0000	331.972
1789.5000	331.998
1790.0000	331.967
1790.5000	331.972
1791.0000	331.929
1791.5000	331.962
1792.0000	331.996
1792.5000	332.028
1793.0000	332.024
1793.5000	331.963
1794.0000	331.978
1794.5000	331.996
1795.0000	331.972
1795.5000	332.002
1796.0000	332.02
1796.5000	331.946
1797.0000	331.962
1797.5000	331.978
1798.0000	332.036
1798.5000	332.078
1799.0000	332.145
1799.5000	332.141
1800.0000	332.154
1800.5000	332.182
1801.0000	332.191
1801.5000	332.226
1802.0000	332.173
1802.5000	332.236
1803.0000	332.237
1803.5000	332.233
1804.0000	332.216
1804.5000	332.164
1805.0000	332.164
1805.5000	332.142
1806.0000	332.187
1806.5000	332.211
1807.0000	332.224
1807.5000	332.238
1808.0000	332.241
1808.5000	332.276
1809.0000	332.278
1809.5000	332.292
1810.0000	332.305
1810.5000	332.316
1811.0000	332.344
1811.5000	332.405
1812.0000	332.377
1812.5000	332.4
1813.0000	332.495
1813.5000	332.513
1814.0000	332.536
1814.5000	332.546
1815.0000	332.462
1815.5000	332.434
1816.0000	332.425
1816.5000	332.391
1817.0000	332.413
1817.5000	332.417
1818.0000	332.44
1818.5000	332.417
1819.0000	332.4
1819.5000	332.367
1820.0000	332.395
1820.5000	332.424
1821.0000	332.419
1821.5000	332.561
1822.0000	332.57
1822.5000	332.592
1823.0000	332.646
1823.5000	332.629
1824.0000	332.604
1824.5000	332.645
1825.0000	332.647
1825.5000	332.598
1826.0000	332.589
1826.5000	332.578
1827.0000	332.616
1827.5000	332.643
1828.0000	332.663
1828.5000	332.72
1829.0000	332.742
1829.5000	332.823
1830.0000	332.914
1830.5000	332.838
1831.0000	332.819
1831.5000	332.839
1832.0000	332.8
1832.5000	332.865
1833.0000	332.811
1833.5000	332.707
1834.0000	332.728
1834.5000	332.699
1835.0000	332.753
1835.5000	332.839
1836.0000	332.906
1836.5000	332.937
1837.0000	332.968
1837.5000	332.89
1838.0000	332.809
1838.5000	332.893
1839.0000	332.861
1839.5000	332.899
1840.0000	332.895
1840.5000	332.862
1841.0000	332.893
1841.5000	332.861
1842.0000	332.886
1842.5000	332.888
1843.0000	332.889
1843.5000	332.961
1844.0000	333.023
1844.5000	333.066
1845.0000	333.086
1845.5000	333.116
1846.0000	333.151
1846.5000	333.057
1847.0000	333.106
1847.5000	333.094
1848.0000	333.022
1848.5000	333.085
1849.0000	333.022
1849.5000	332.983
1850.0000	332.956
1850.5000	332.943
1851.0000	333.009
1851.5000	333.076
1852.0000	333.19
1852.5000	333.179
1853.0000	333.204
1853.5000	333.197
1854.0000	333.2
1854.5000	333.285
1855.0000	333.27
1855.5000	333.31
1856.0000	333.329
1856.5000	333.329
1857.0000	333.372
1857.5000	333.304
1858.0000	333.265
1858.5000	333.227
1859.0000	333.226
1859.5000	333.285
1860.0000	333.316
1860.5000	333.294
1861.0000	333.253
1861.5000	333.299
1862.0000	333.286
1862.5000	333.388
1863.0000	333.419
1863.5000	333.364
1864.0000	333.361
1864.5000	333.345
1865.0000	333.434
1865.5000	333.475
1866.0000	333.516
1866.5000	333.558
1867.0000	333.538
1867.5000	333.504
1868.0000	333.529
1868.5000	333.496
1869.0000	333.456
1869.5000	333.607
1870.0000	333.592
1870.5000	333.58
1871.0000	333.577
1871.5000	333.539
1872.0000	333.549
1872.5000	333.602
1873.0000	333.676
1873.5000	333.608
1874.0000	333.649
1874.5000	333.621
1875.0000	333.634
1875.5000	333.701
1876.0000	333.668
1876.5000	333.723
1877.0000	333.664
1877.5000	333.675
1878.0000	333.761
1878.5000	333.715
1879.0000	333.782
1879.5000	333.77
1880.0000	333.683
1880.5000	333.76
1881.0000	333.692
1881.5000	333.733
1882.0000	333.841
1882.5000	333.868
1883.0000	333.945
1883.5000	333.889
1884.0000	333.881
1884.5000	333.827
1885.0000	333.8
1885.5000	333.907
1886.0000	333.88
1886.5000	333.913
1887.0000	333.945
1887.5000	333.954
1888.0000	333.987
1888.5000	333.967
1889.0000	333.971
1889.5000	333.977
1890.0000	334.008
1890.5000	334.05
1891.0000	334.055
1891.5000	334.03
1892.0000	334.022
1892.5000	334.032
1893.0000	334.125
1893.5000	334.092
1894.0000	334.081
1894.5000	334.133
1895.0000	334.134
1895.5000	334.112
1896.0000	334.106
1896.5000	334.053
1897.0000	333.996
1897.5000	334.068
1898.0000	334.127
1898.5000	334.114
1899.0000	334.193
1899.5000	334.264
1900.0000	334.217
1900.5000	334.257
1901.0000	334.221
1901.5000	334.187
1902.0000	334.29
1902.5000	334.313
1903.0000	334.341
1903.5000	334.369
1904.0000	334.352
1904.5000	334.373
1905.0000	334.382
1905.5000	334.394
1906.0000	334.362
1906.5000	334.381
1907.0000	334.375
1907.5000	334.368
1908.0000	334.382
1908.5000	334.43
1909.0000	334.468
1909.5000	334.508
1910.0000	334.523
1910.5000	334.446
1911.0000	334.478
1911.5000	334.499
1912.0000	334.538
1912.5000	334.587
1913.0000	334.548
1913.5000	334.518
1914.0000	334.509
1914.5000	334.503
1915.0000	334.623
1915.5000	334.662
1916.0000	334.704
1916.5000	334.719
1917.0000	334.633
1917.5000	334.7
1918.0000	334.651
1918.5000	334.72
1919.0000	334.798
1919.5000	334.688
1920.0000	334.829
1920.5000	334.837
1921.0000	334.815
1921.5000	334.92
1922.0000	334.886
1922.5000	334.856
1923.0000	334.909
1923.5000	334.943
1924.0000	334.906
1924.5000	334.949
1925.0000	334.919
1925.5000	334.855
1926.0000	334.913
1926.5000	334.981
1927.0000	334.986
1927.5000	334.977
1928.0000	334.998
1928.5000	334.904
1929.0000	334.914
1929.5000	334.987
1930.0000	334.987
1930.5000	335.053
1931.0000	335.032
1931.5000	334.983
1932.0000	335.02
1932.5000	335.028
1933.0000	335.083
1933.5000	335.165
1934.0000	335.127
1934.5000	335.173
1935.0000	335.193
1935.5000	335.172
1936.0000	335.236
1936.5000	335.151
1937.0000	335.172
1937.5000	335.263
1938.0000	335.207
1938.5000	335.339
1939.0000	335.325
1939.5000	335.324
1940.0000	335.366
1940.5000	335.321
1941.0000	335.358
1941.5000	335.287
1942.0000	335.326
1942.5000	335.415
1943.0000	335.399
1943.5000	335.465
1944.0000	335.498
1944.5000	335.437
1945.0000	335.467
1945.5000	335.48
1946.0000	335.436
1946.5000	335.436
1947.0000	335.484
1947.5000	335.496
1948.0000	335.554
1948.5000	335.576
1949.0000	335.522
1949.5000	335.54
1950.0000	335.58
1950.5000	335.584
1951.0000	335.664
1951.5000	335.658
1952.0000	335.665
1952.5000	335.71
1953.0000	335.712
1953.5000	335.73
1954.0000	335.75
1954.5000	335.79
1955.0000	335.765
1955.5000	335.812
1956.0000	335.743
1956.5000	335.767
1957.0000	335.822
1957.5000	335.8
1958.0000	335.779
1958.5000	335.687
1959.0000	335.699
1959.5000	335.723
1960.0000	335.76
1960.5000	335.878
1961.0000	335.883
1961.5000	335.927
1962.0000	336.016
1962.5000	335.995
1963.0000	336.02
1963.5000	335.991
1964.0000	335.983
1964.5000	335.987
1965.0000	336.003
1965.5000	336.03
1966.0000	336.037
1966.5000	336.024
1967.0000	336.004
1967.5000	335.983
1968.0000	335.963
1968.5000	336.013
1969.0000	336.021
1969.5000	336.07
1970.0000	336.131
1970.5000	336.149
1971.0000	336.217
1971.5000	336.243
1972.0000	336.223
1972.5000	336.3
1973.0000	336.284
1973.5000	336.348
1974.0000	336.42
1974.5000	336.383
1975.0000	336.355
1975.5000	336.326
1976.0000	336.323
1976.5000	336.359
1977.0000	336.463
1977.5000	336.474
1978.0000	336.484
1978.5000	336.502
1979.0000	336.451
1979.5000	336.454
1980.0000	336.522
1980.5000	336.492
1981.0000	336.544
1981.5000	336.511
1982.0000	336.516
1982.5000	336.511
1983.0000	336.585
1983.5000	336.649
1984.0000	336.63
1984.5000	336.651
1985.0000	336.578
1985.5000	336.605
1986.0000	336.594
1986.5000	336.594
1987.0000	336.646
1987.5000	336.58
1988.0000	336.652
1988.5000	336.723
1989.0000	336.722
1989.5000	336.798
1990.0000	336.787
1990.5000	336.865
1991.0000	336.928
1991.5000	336.98
1992.0000	336.995
1992.5000	336.936
1993.0000	336.945
1993.5000	336.945
1994.0000	336.947
1994.5000	337.043
1995.0000	337.027
1995.5000	337.096
1996.0000	337.111
1996.5000	337.157
1997.0000	337.161
1997.5000	337.097
1998.0000	337.15
1998.5000	337.105
1999.0000	337.137
1999.5000	337.195
2000.0000	337.262
2000.5000	337.236
2001.0000	337.258
2001.5000	337.3
2002.0000	337.259
2002.5000	337.288
2003.0000	337.286
2003.5000	337.311
2004.0000	337.307
2004.5000	337.341
2005.0000	337.352
2005.5000	337.374
2006.0000	337.365
2006.5000	337.406
2007.0000	337.482
2007.5000	337.426
2008.0000	337.498
2008.5000	337.522
2009.0000	337.55
2009.5000	337.619
2010.0000	337.66
2010.5000	337.608
2011.0000	337.604
2011.5000	337.563
2012.0000	337.528
2012.5000	337.572
2013.0000	337.552
2013.5000	337.625
2014.0000	337.647
2014.5000	337.72
2015.0000	337.729
2015.5000	337.8
2016.0000	337.876
2016.5000	337.832
2017.0000	337.855
2017.5000	337.836
2018.0000	337.815
2018.5000	337.852
2019.0000	337.849
2019.5000	337.782
2020.0000	337.813
2020.5000	337.815
2021.0000	337.846
2021.5000	337.743
2022.0000	337.533
2022.5000	337.29
2023.0000	337.085
2023.5000	337.036
2024.0000	337.042
2024.5000	337.202
2025.0000	337.32
2025.5000	337.392
2026.0000	337.509
2026.5000	337.623
2027.0000	337.704
2027.5000	337.861
2028.0000	337.932
2028.5000	337.854
2029.0000	337.817
2029.5000	337.83
2030.0000	337.867
2030.5000	337.928
2031.0000	338.026
2031.5000	338.045
2032.0000	338.061
2032.5000	338.099
2033.0000	338.162
2033.5000	338.175
2034.0000	338.249
2034.5000	338.25
2035.0000	338.278
2035.5000	338.313
2036.0000	338.342
2036.5000	338.378
2037.0000	338.344
2037.5000	338.379
2038.0000	338.365
2038.5000	338.386
2039.0000	338.466
2039.5000	338.397
2040.0000	338.47
2040.5000	338.508
2041.0000	338.544
2041.5000	338.672
2042.0000	338.691
2042.5000	338.718
2043.0000	338.71
2043.5000	338.701
2044.0000	338.629
2044.5000	338.681
2045.0000	338.688
2045.5000	338.735
2046.0000	338.795
2046.5000	338.811
2047.0000	338.749
2047.5000	338.721
2048.0000	338.706
2048.5000	338.717
2049.0000	338.799
2049.5000	338.83
2050.0000	338.88
2050.5000	338.912
2051.0000	338.922
2051.5000	338.927
2052.0000	339.036
2052.5000	339.019
2053.0000	339.068
2053.5000	339.078
2054.0000	338.988
2054.5000	339.013
2055.0000	339.007
2055.5000	339.05
2056.0000	339.079
2056.5000	339.046
2057.0000	339.085
2057.5000	339.189
2058.0000	339.135
2058.5000	339.242
2059.0000	339.265
2059.5000	339.209
2060.0000	339.38
2060.5000	339.345
2061.0000	339.369
2061.5000	339.382
2062.0000	339.335
2062.5000	339.385
2063.0000	339.393
2063.5000	339.395
2064.0000	339.373
2064.5000	339.392
2065.0000	339.418
2065.5000	339.418
2066.0000	339.408
2066.5000	339.395
2067.0000	339.43
2067.5000	339.455
2068.0000	339.564
2068.5000	339.597
2069.0000	339.556
2069.5000	339.571
2070.0000	339.594
2070.5000	339.591
2071.0000	339.639
2071.5000	339.711
2072.0000	339.754
2072.5000	339.789
2073.0000	339.856
2073.5000	339.898
2074.0000	339.906
2074.5000	339.942
2075.0000	339.878
2075.5000	339.892
2076.0000	339.838
2076.5000	339.873
2077.0000	339.934
2077.5000	339.903
2078.0000	339.907
2078.5000	339.965
2079.0000	339.97
2079.5000	339.973
2080.0000	339.967
2080.5000	339.935
2081.0000	339.972
2081.5000	340.01
2082.0000	340.127
2082.5000	340.159
2083.0000	340.095
2083.5000	340.141
2084.0000	340.166
2084.5000	340.172
2085.0000	340.311
2085.5000	340.27
2086.0000	340.277
2086.5000	340.316
2087.0000	340.295
2087.5000	340.401
2088.0000	340.411
2088.5000	340.334
2089.0000	340.335
2089.5000	340.352
2090.0000	340.391
2090.5000	340.437
2091.0000	340.463
2091.5000	340.407
2092.0000	340.403
2092.5000	340.435
2093.0000	340.501
2093.5000	340.568
2094.0000	340.549
2094.5000	340.603
2095.0000	340.615
2095.5000	340.614
2096.0000	340.667
2096.5000	340.673
2097.0000	340.686
2097.5000	340.728
2098.0000	340.782
2098.5000	340.808
2099.0000	340.767
2099.5000	340.685
2100.0000	340.704
2100.5000	340.723
2101.0000	340.806
2101.5000	340.936
2102.0000	340.836
2102.5000	340.796
2103.0000	340.76
2103.5000	340.724
2104.0000	340.863
2104.5000	340.969
2105.0000	341.007
2105.5000	341.04
2106.0000	341.034
2106.5000	341.022
2107.0000	341.061
2107.5000	341.072
2108.0000	341.016
2108.5000	340.971
2109.0000	340.963
2109.5000	340.99
2110.0000	341.031
2110.5000	341.112
2111.0000	341.121
2111.5000	341.103
2112.0000	341.138
2112.5000	341.124
2113.0000	341.122
2113.5000	341.107
2114.0000	341.205
2114.5000	341.204
2115.0000	341.245
2115.5000	341.311
2116.0000	341.258
2116.5000	341.368
2117.0000	341.389
2117.5000	341.395
2118.0000	341.398
2118.5000	341.394
2119.0000	341.451
2119.5000	341.54
2120.0000	341.559
2120.5000	341.543
2121.0000	341.517
2121.5000	341.484
2122.0000	341.514
2122.5000	341.585
2123.0000	341.572
2123.5000	341.543
2124.0000	341.577
2124.5000	341.546
2125.0000	341.585
2125.5000	341.664
2126.0000	341.679
2126.5000	341.733
2127.0000	341.72
2127.5000	341.695
2128.0000	341.691
2128.5000	341.655
2129.0000	341.723
2129.5000	341.748
2130.0000	341.766
2130.5000	341.804
2131.0000	341.811
2131.5000	341.767
2132.0000	341.775
2132.5000	341.757
2133.0000	341.75
2133.5000	341.802
2134.0000	341.838
2134.5000	341.91
2135.0000	341.951
2135.5000	342.008
2136.0000	341.987
2136.5000	341.964
2137.0000	341.967
2137.5000	341.985
2138.0000	342.046
2138.5000	342.114
2139.0000	342.108
2139.5000	342.095
2140.0000	342.029
2140.5000	341.985
2141.0000	342.008
2141.5000	342.083
2142.0000	342.157
2142.5000	342.141
2143.0000	342.234
2143.5000	342.24
2144.0000	342.25
2144.5000	342.316
2145.0000	342.286
2145.5000	342.279
2146.0000	342.273
2146.5000	342.278
2147.0000	342.297
2147.5000	342.306
2148.0000	342.35
2148.5000	342.377
2149.0000	342.349
2149.5000	342.379
2150.0000	342.384
2150.5000	342.408
2151.0000	342.408
2151.5000	342.375
2152.0000	342.378
2152.5000	342.379
2153.0000	342.4
2153.5000	342.454
2154.0000	342.551
2154.5000	342.57
2155.0000	342.604
2155.5000	342.604
2156.0000	342.639
2156.5000	342.625
2157.0000	342.629
2157.5000	342.7
2158.0000	342.643
2158.5000	342.691
2159.0000	342.833
2159.5000	342.779
2160.0000	342.735
2160.5000	342.775
2161.0000	342.652
2161.5000	342.673
2162.0000	342.706
2162.5000	342.669
2163.0000	342.723
2163.5000	342.81
2164.0000	342.888
2164.5000	342.874
2165.0000	342.914
2165.5000	342.853
2166.0000	342.842
2166.5000	342.872
2167.0000	342.869
2167.5000	342.909
2168.0000	342.914
2168.5000	342.948
2169.0000	342.928
2169.5000	342.927
2170.0000	342.894
2170.5000	342.942
2171.0000	342.991
2171.5000	342.985
2172.0000	343.109
2172.5000	343.065
2173.0000	343.045
2173.5000	343.066
2174.0000	343.026
2174.5000	343.095
2175.0000	343.117
2175.5000	343.156
2176.0000	343.183
2176.5000	343.162
2177.0000	343.173
2177.5000	343.214
2178.0000	343.253
2178.5000	343.333
2179.0000	343.319
2179.5000	343.314
2180.0000	343.306
2180.5000	343.243
2181.0000	343.233
2181.5000	343.236
2182.0000	343.201
2182.5000	343.232
2183.0000	343.326
2183.5000	343.267
2184.0000	343.324
2184.5000	343.357
2185.0000	343.397
2185.5000	343.511
2186.0000	343.493
2186.5000	343.472
2187.0000	343.482
2187.5000	343.444
2188.0000	343.509
2188.5000	343.586
2189.0000	343.559
2189.5000	343.591
2190.0000	343.604
2190.5000	343.556
2191.0000	343.62
2191.5000	343.634
2192.0000	343.626
2192.5000	343.641
2193.0000	343.606
2193.5000	343.62
2194.0000	343.673
2194.5000	343.704
2195.0000	343.749
2195.5000	343.774
2196.0000	343.75
2196.5000	343.8
2197.0000	343.801
2197.5000	343.82
2198.0000	343.825
2198.5000	343.832
2199.0000	343.849
2199.5000	343.846
2200.0000	343.859
2200.5000	343.799
2201.0000	343.811
2201.5000	343.859
2202.0000	343.902
2202.5000	343.983
2203.0000	343.959
2203.5000	343.953
2204.0000	343.945
2204.5000	343.924
2205.0000	343.952
2205.5000	343.965
2206.0000	343.937
2206.5000	343.983
2207.0000	344.07
2207.5000	344.046
2208.0000	344.05
2208.5000	344.051
2209.0000	344.027
2209.5000	344.045
2210.0000	344.078
2210.5000	344.152
2211.0000	344.158
2211.5000	344.209
2212.0000	344.293
2212.5000	344.272
2213.0000	344.268
2213.5000	344.252
2214.0000	344.261
2214.5000	344.227
2215.0000	344.253
2215.5000	344.307
2216.0000	344.331
2216.5000	344.327
2217.0000	344.37
2217.5000	344.407
2218.0000	344.334
2218.5000	344.33
2219.0000	344.284
2219.5000	344.247
2220.0000	344.21
2220.5000	344.205
2221.0000	344.217
2221.5000	344.21
2222.0000	344.328
2222.5000	344.457
2223.0000	344.505
2223.5000	344.604
2224.0000	344.567
2224.5000	344.576
2225.0000	344.573
2225.5000	344.53
2226.0000	344.543
2226.5000	344.531
2227.0000	344.486
2227.5000	344.475
2228.0000	344.503
2228.5000	344.543
2229.0000	344.59
2229.5000	344.651
2230.0000	344.688
2230.5000	344.636
2231.0000	344.677
2231.5000	344.651
2232.0000	344.68
2232.5000	344.696
2233.0000	344.679
2233.5000	344.727
2234.0000	344.724
2234.5000	344.752
2235.0000	344.764
2235.5000	344.73
2236.0000	344.731
2236.5000	344.713
2237.0000	344.714
2237.5000	344.756
2238.0000	344.754
2238.5000	344.761
2239.0000	344.811
2239.5000	344.739
2240.0000	344.76
2240.5000	344.789
2241.0000	344.802
2241.5000	344.885
2242.0000	344.89
2242.5000	344.883
2243.0000	344.861
2243.5000	344.836
2244.0000	344.891
2244.5000	344.924
2245.0000	344.994
2245.5000	345.042
2246.0000	344.988
2246.5000	345.017
2247.0000	345.005
2247.5000	345.052
2248.0000	345.1
2248.5000	345.049
2249.0000	345.083
2249.5000	345.016
2250.0000	345.043
2250.5000	345.128
2251.0000	345.132
2251.5000	345.225
2252.0000	345.223
2252.5000	345.165
2253.0000	345.166
2253.5000	345.174
2254.0000	345.168
2254.5000	345.172
2255.0000	345.179
2255.5000	345.181
2256.0000	345.176
2256.5000	345.233
2257.0000	345.247
2257.5000	345.18
2258.0000	345.185
2258.5000	345.227
2259.0000	345.258
2259.5000	345.349
2260.0000	345.467
2260.5000	345.486
2261.0000	345.45
2261.5000	345.439
2262.0000	345.382
2262.5000	345.367
2263.0000	345.419
2263.5000	345.442
2264.0000	345.42
2264.5000	345.362
2265.0000	345.34
2265.5000	345.363
2266.0000	345.438
2266.5000	345.537
2267.0000	345.553
2267.5000	345.506
2268.0000	345.454
2268.5000	345.441
2269.0000	345.412
2269.5000	345.509
2270.0000	345.577
2270.5000	345.639
2271.0000	345.696
2271.5000	345.648
2272.0000	345.576
2272.5000	345.591
2273.0000	345.595
2273.5000	345.677
2274.0000	345.693
2274.5000	345.666
2275.0000	345.69
2275.5000	345.611
2276.0000	345.65
2276.5000	345.643
2277.0000	345.6
2277.5000	345.666
2278.0000	345.733
2278.5000	345.725
2279.0000	345.772
2279.5000	345.72
2280.0000	345.685
2280.5000	345.718
2281.0000	345.763
2281.5000	345.777
2282.0000	345.803
2282.5000	345.779
2283.0000	345.771
2283.5000	345.822
2284.0000	345.803
2284.5000	345.827
2285.0000	345.879
2285.5000	345.811
2286.0000	345.805
2286.5000	345.824
2287.0000	345.775
2287.5000	345.801
2288.0000	345.802
2288.5000	345.835
2289.0000	345.872
2289.5000	345.878
2290.0000	345.983
2290.5000	346.021
2291.0000	345.959
2291.5000	345.995
2292.0000	345.913
2292.5000	345.892
2293.0000	345.999
2293.5000	346.081
2294.0000	346.15
2294.5000	346.122
2295.0000	346.128
2295.5000	346.07
2296.0000	346.093
2296.5000	346.112
2297.0000	346.052
2297.5000	346.074
2298.0000	346.036
2298.5000	346.044
2299.0000	346.054
2299.5000	346.088
2300.0000	346.073
2300.5000	346.128
2301.0000	346.159
2301.5000	346.046
2302.0000	346.086
2302.5000	346.052
2303.0000	346.123
2303.5000	346.242
2304.0000	346.247
2304.5000	346.243
2305.0000	346.188
2305.5000	346.125
2306.0000	346.174
2306.5000	346.206
2307.0000	346.215
2307.5000	346.274
2308.0000	346.308
2308.5000	346.385
2309.0000	346.394
2309.5000	346.403
2310.0000	346.326
2310.5000	346.283
2311.0000	346.298
2311.5000	346.302
2312.0000	346.401
2312.5000	346.377
2313.0000	346.342
2313.5000	346.387
2314.0000	346.354
2314.5000	346.422
2315.0000	346.441
2315.5000	346.401
2316.0000	346.38
2316.5000	346.278
2317.0000	346.263
2317.5000	346.329
2318.0000	346.384
2318.5000	346.516
2319.0000	346.659
2319.5000	346.627
2320.0000	346.611
2320.5000	346.582
2321.0000	346.521
2321.5000	346.549
2322.0000	346.536
2322.5000	346.576
2323.0000	346.576
2323.5000	346.555
2324.0000	346.556
2324.5000	346.546
2325.0000	346.547
2325.5000	346.59
2326.0000	346.632
2326.5000	346.628
2327.0000	346.65
2327.5000	346.61
2328.0000	346.62
2328.5000	346.643
2329.0000	346.701
2329.5000	346.755
2330.0000	346.739
2330.5000	346.718
2331.0000	346.71
2331.5000	346.704
2332.0000	346.784
2332.5000	346.75
2333.0000	346.741
2333.5000	346.785
2334.0000	346.794
2334.5000	346.893
2335.0000	346.928
2335.5000	347.019
2336.0000	346.955
2336.5000	346.949
2337.0000	346.977
2337.5000	346.906
2338.0000	346.923
2338.5000	346.931
2339.0000	346.906
2339.5000	346.939
2340.0000	346.952
2340.5000	346.928
2341.0000	346.875
2341.5000	346.837
2342.0000	346.875
2342.5000	346.915
2343.0000	346.957
2343.5000	346.985
2344.0000	346.954
2344.5000	346.954
2345.0000	346.957
2345.5000	346.945
2346.0000	346.992
2346.5000	346.965
2347.0000	347.039
