TITLE	
DATA TYPE	
ORIGIN	JASCO
OWNER	
DATE	22/04/19
TIME	17:35:29
SPECTROMETER/DATA SYSTEM	
RESOLUTION	
DELTAX	0.5
XUNITS	SEC
YUNITS	INTENSITY
FIRSTX	0.0000
LASTX	2086.5000
NPOINTS	4174
FIRSTY	561.19159
MAXY	561.19159
MINY	-93.23050
XYDATA
0.0000	561.192
0.5000	542.461
1.0000	535.592
1.5000	525.893
2.0000	489.778
2.5000	489.264
3.0000	488.779
3.5000	488.427
4.0000	488.249
4.5000	488.125
5.0000	488.061
5.5000	488.008
6.0000	487.813
6.5000	487.642
7.0000	487.493
7.5000	487.453
8.0000	487.388
8.5000	487.366
9.0000	487.427
9.5000	487.372
10.0000	487.356
10.5000	487.34
11.0000	487.296
11.5000	487.328
12.0000	487.274
12.5000	487.251
13.0000	487.098
13.5000	487.003
14.0000	486.944
14.5000	486.966
15.0000	487.088
15.5000	487.167
16.0000	487.228
16.5000	487.145
17.0000	487.1
17.5000	486.973
18.0000	486.839
18.5000	486.853
19.0000	477.75
19.5000	459.085
20.0000	424.273
20.5000	298.397
21.0000	-93.2305
21.5000	-42.6425
22.0000	-33.1829
22.5000	-30.3584
23.0000	-29.026
23.5000	-28.0923
24.0000	-27.4615
24.5000	-26.8675
25.0000	-26.4255
25.5000	-26.0986
26.0000	-25.2966
26.5000	284.119
27.0000	275.239
27.5000	273.736
28.0000	272.937
28.5000	252.669
29.0000	253.679
29.5000	253.641
30.0000	253.575
30.5000	253.47
31.0000	253.443
31.5000	253.377
32.0000	253.38
32.5000	253.481
33.0000	253.45
33.5000	253.536
34.0000	253.562
34.5000	253.546
35.0000	253.628
35.5000	253.667
36.0000	253.677
36.5000	253.705
37.0000	253.667
37.5000	253.598
38.0000	253.544
38.5000	253.515
39.0000	253.48
39.5000	253.49
40.0000	253.605
40.5000	253.744
41.0000	253.899
41.5000	254.01
42.0000	254.138
42.5000	254.176
43.0000	254.229
43.5000	254.319
44.0000	254.372
44.5000	254.442
45.0000	254.509
45.5000	254.565
46.0000	254.616
46.5000	254.683
47.0000	254.699
47.5000	254.745
48.0000	254.777
48.5000	254.8
49.0000	254.873
49.5000	254.937
50.0000	254.936
50.5000	254.96
51.0000	255.008
51.5000	255.036
52.0000	255.067
52.5000	255.193
53.0000	255.27
53.5000	255.343
54.0000	255.461
54.5000	255.432
55.0000	255.463
55.5000	255.474
56.0000	255.527
56.5000	255.647
57.0000	255.717
57.5000	255.771
58.0000	255.815
58.5000	255.825
59.0000	255.905
59.5000	255.983
60.0000	256.011
60.5000	256.06
61.0000	256.063
61.5000	256.072
62.0000	256.103
62.5000	256.18
63.0000	256.225
63.5000	256.308
64.0000	256.406
64.5000	256.434
65.0000	256.482
65.5000	256.539
66.0000	256.626
66.5000	256.665
67.0000	256.757
67.5000	256.8
68.0000	256.766
68.5000	256.788
69.0000	256.817
69.5000	256.839
70.0000	256.941
70.5000	257.032
71.0000	257.073
71.5000	257.159
72.0000	257.199
72.5000	257.265
73.0000	257.294
73.5000	257.339
74.0000	257.403
74.5000	257.444
75.0000	257.534
75.5000	257.611
76.0000	257.596
76.5000	257.65
77.0000	257.749
77.5000	257.753
78.0000	257.861
78.5000	257.887
79.0000	257.896
79.5000	257.969
80.0000	257.998
80.5000	258.067
81.0000	258.125
81.5000	258.162
82.0000	258.229
82.5000	258.258
83.0000	258.286
83.5000	258.318
84.0000	258.364
84.5000	258.466
85.0000	258.543
85.5000	258.621
86.0000	258.668
86.5000	258.717
87.0000	258.768
87.5000	258.832
88.0000	258.897
88.5000	258.977
89.0000	259.004
89.5000	259.008
90.0000	259.077
90.5000	259.092
91.0000	259.125
91.5000	259.188
92.0000	259.208
92.5000	259.245
93.0000	259.377
93.5000	259.464
94.0000	259.523
94.5000	259.563
95.0000	259.549
95.5000	259.596
96.0000	259.613
96.5000	259.675
97.0000	259.765
97.5000	259.802
98.0000	259.915
98.5000	259.988
99.0000	260.012
99.5000	260.097
100.0000	260.178
100.5000	260.2
101.0000	260.314
101.5000	260.353
102.0000	260.357
102.5000	260.41
103.0000	260.396
103.5000	260.463
104.0000	260.543
104.5000	260.584
105.0000	260.649
105.5000	260.672
106.0000	260.675
106.5000	260.758
107.0000	260.845
107.5000	260.928
108.0000	261.018
108.5000	261.13
109.0000	261.155
109.5000	261.168
110.0000	261.207
110.5000	261.208
111.0000	261.296
111.5000	261.387
112.0000	261.521
112.5000	261.588
113.0000	261.626
113.5000	261.671
114.0000	261.699
114.5000	261.808
115.0000	261.851
115.5000	261.922
116.0000	261.938
116.5000	261.916
117.0000	261.944
117.5000	262.018
118.0000	262.083
118.5000	262.212
119.0000	262.317
119.5000	262.343
120.0000	262.456
120.5000	262.471
121.0000	262.519
121.5000	262.589
122.0000	262.6
122.5000	262.685
123.0000	262.784
123.5000	262.822
124.0000	262.857
124.5000	262.922
125.0000	262.923
125.5000	263.05
126.0000	263.135
126.5000	263.116
127.0000	263.164
127.5000	263.176
128.0000	263.238
128.5000	263.352
129.0000	263.453
129.5000	263.521
130.0000	263.574
130.5000	263.582
131.0000	263.615
131.5000	263.608
132.0000	263.66
132.5000	263.753
133.0000	263.794
133.5000	263.944
134.0000	263.976
134.5000	264.104
135.0000	264.194
135.5000	264.251
136.0000	264.36
136.5000	264.295
137.0000	264.349
137.5000	264.385
138.0000	264.4
138.5000	264.533
139.0000	264.645
139.5000	264.711
140.0000	264.778
140.5000	264.88
141.0000	264.906
141.5000	264.991
142.0000	265.068
142.5000	265.148
143.0000	265.222
143.5000	265.249
144.0000	265.333
144.5000	265.307
145.0000	265.321
145.5000	265.356
146.0000	265.434
146.5000	265.493
147.0000	265.554
147.5000	265.654
148.0000	265.687
148.5000	265.795
149.0000	265.876
149.5000	265.912
150.0000	266.006
150.5000	266.023
151.0000	266.057
151.5000	266.152
152.0000	266.18
152.5000	266.229
153.0000	266.342
153.5000	266.404
154.0000	266.461
154.5000	266.568
155.0000	266.611
155.5000	266.644
156.0000	266.68
156.5000	266.685
157.0000	266.706
157.5000	266.774
158.0000	266.851
158.5000	266.913
159.0000	267.021
159.5000	267.064
160.0000	267.094
160.5000	267.146
161.0000	267.159
161.5000	267.309
162.0000	267.379
162.5000	267.459
163.0000	267.537
163.5000	267.479
164.0000	267.553
164.5000	267.605
165.0000	267.678
165.5000	267.771
166.0000	267.866
166.5000	267.936
167.0000	267.987
167.5000	268.008
168.0000	268.045
168.5000	268.077
169.0000	268.131
169.5000	268.228
170.0000	268.335
170.5000	268.384
171.0000	268.414
171.5000	268.482
172.0000	268.434
172.5000	268.488
173.0000	268.587
173.5000	268.617
174.0000	268.72
174.5000	268.806
175.0000	268.784
175.5000	268.793
176.0000	268.835
176.5000	268.875
177.0000	268.956
177.5000	269.032
178.0000	269.115
178.5000	269.232
179.0000	269.305
179.5000	269.381
180.0000	269.399
180.5000	269.408
181.0000	269.497
181.5000	269.581
182.0000	269.629
182.5000	269.69
183.0000	269.738
183.5000	269.809
184.0000	269.923
184.5000	269.997
185.0000	270.036
185.5000	270.037
186.0000	270.062
186.5000	270.079
187.0000	270.132
187.5000	270.226
188.0000	270.283
188.5000	270.349
189.0000	270.449
189.5000	270.493
190.0000	270.586
190.5000	270.663
191.0000	270.636
191.5000	270.698
192.0000	270.739
192.5000	270.754
193.0000	270.842
193.5000	270.889
194.0000	270.936
194.5000	271.019
195.0000	271.052
195.5000	271.086
196.0000	271.092
196.5000	271.155
197.0000	271.289
197.5000	271.393
198.0000	271.48
198.5000	271.493
199.0000	271.542
199.5000	271.534
200.0000	271.636
200.5000	271.65
201.0000	271.643
201.5000	271.75
202.0000	271.735
202.5000	271.805
203.0000	271.861
203.5000	271.868
204.0000	271.945
204.5000	272.044
205.0000	272.111
205.5000	272.212
206.0000	272.276
206.5000	272.306
207.0000	272.395
207.5000	272.424
208.0000	272.44
208.5000	272.524
209.0000	272.539
209.5000	272.576
210.0000	272.666
210.5000	272.711
211.0000	272.783
211.5000	272.857
212.0000	272.82
212.5000	272.901
213.0000	272.955
213.5000	272.976
214.0000	273.106
214.5000	273.108
215.0000	273.126
215.5000	273.24
216.0000	273.297
216.5000	273.395
217.0000	273.444
217.5000	273.46
218.0000	273.487
218.5000	273.556
219.0000	273.689
219.5000	273.719
220.0000	273.749
220.5000	273.795
221.0000	273.759
221.5000	273.798
222.0000	273.91
222.5000	273.964
223.0000	274.026
223.5000	274.124
224.0000	274.15
224.5000	274.163
225.0000	274.275
225.5000	274.285
226.0000	274.293
226.5000	274.344
227.0000	274.315
227.5000	274.405
228.0000	274.513
228.5000	274.568
229.0000	274.598
229.5000	274.645
230.0000	274.653
230.5000	274.683
231.0000	274.817
231.5000	274.823
232.0000	274.864
232.5000	274.938
233.0000	274.994
233.5000	275.128
234.0000	275.196
234.5000	275.217
235.0000	275.212
235.5000	275.246
236.0000	275.286
236.5000	275.386
237.0000	275.494
237.5000	275.528
238.0000	275.561
238.5000	275.663
239.0000	275.655
239.5000	275.671
240.0000	275.752
240.5000	275.735
241.0000	275.817
241.5000	275.915
242.0000	276
242.5000	276.055
243.0000	276.095
243.5000	276.089
244.0000	276.083
244.5000	276.088
245.0000	276.147
245.5000	276.217
246.0000	276.298
246.5000	276.425
247.0000	276.497
247.5000	276.524
248.0000	276.552
248.5000	276.589
249.0000	276.541
249.5000	276.648
250.0000	276.761
250.5000	276.816
251.0000	276.945
251.5000	276.968
252.0000	276.978
252.5000	276.95
253.0000	277.017
253.5000	277.085
254.0000	277.084
254.5000	277.114
255.0000	277.129
255.5000	277.096
256.0000	277.209
256.5000	277.286
257.0000	277.351
257.5000	277.453
258.0000	277.478
258.5000	277.53
259.0000	277.582
259.5000	277.599
260.0000	277.688
260.5000	277.768
261.0000	277.829
261.5000	277.947
262.0000	277.971
262.5000	278.032
263.0000	278.037
263.5000	278.027
264.0000	278.02
264.5000	278.024
265.0000	278.091
265.5000	278.119
266.0000	278.219
266.5000	278.295
267.0000	278.312
267.5000	278.409
268.0000	278.46
268.5000	278.528
269.0000	278.576
269.5000	278.61
270.0000	278.611
270.5000	278.628
271.0000	278.695
271.5000	278.769
272.0000	278.805
272.5000	278.87
273.0000	278.945
273.5000	278.991
274.0000	279.106
274.5000	279.126
275.0000	279.143
275.5000	279.185
276.0000	279.199
276.5000	279.244
277.0000	279.298
277.5000	279.368
278.0000	279.389
278.5000	279.499
279.0000	279.562
279.5000	279.564
280.0000	279.618
280.5000	279.578
281.0000	279.643
281.5000	279.657
282.0000	279.692
282.5000	279.804
283.0000	279.787
283.5000	279.918
284.0000	280.009
284.5000	280.001
285.0000	280.041
285.5000	280.06
286.0000	280.131
286.5000	280.174
287.0000	280.25
287.5000	280.268
288.0000	280.272
288.5000	280.386
289.0000	280.489
289.5000	280.545
290.0000	280.615
290.5000	280.611
291.0000	280.613
291.5000	280.617
292.0000	280.697
292.5000	280.778
293.0000	280.814
293.5000	280.918
294.0000	280.944
294.5000	280.955
295.0000	280.965
295.5000	280.998
296.0000	281.049
296.5000	281.103
297.0000	281.152
297.5000	281.195
298.0000	281.168
298.5000	281.243
299.0000	281.284
299.5000	281.298
300.0000	281.36
300.5000	281.362
301.0000	281.405
301.5000	281.471
302.0000	281.547
302.5000	281.594
303.0000	281.63
303.5000	281.658
304.0000	281.685
304.5000	281.745
305.0000	281.844
305.5000	281.886
306.0000	281.896
306.5000	281.961
307.0000	282
307.5000	282.056
308.0000	282.129
308.5000	282.146
309.0000	282.125
309.5000	282.189
310.0000	282.288
310.5000	282.267
311.0000	282.382
311.5000	282.432
312.0000	282.427
312.5000	282.562
313.0000	282.6
313.5000	282.654
314.0000	282.707
314.5000	282.732
315.0000	282.77
315.5000	282.782
316.0000	282.84
316.5000	282.863
317.0000	282.94
317.5000	282.967
318.0000	282.977
318.5000	283.061
319.0000	283.089
319.5000	283.139
320.0000	283.17
320.5000	283.199
321.0000	283.212
321.5000	283.218
322.0000	283.333
322.5000	283.386
323.0000	283.426
323.5000	283.549
324.0000	283.551
324.5000	283.56
325.0000	283.588
325.5000	283.61
326.0000	283.635
326.5000	283.65
327.0000	283.725
327.5000	283.801
328.0000	283.853
328.5000	283.924
329.0000	283.97
329.5000	283.988
330.0000	284.007
330.5000	284.079
331.0000	284.065
331.5000	284.123
332.0000	284.188
332.5000	284.208
333.0000	284.276
333.5000	284.29
334.0000	284.364
334.5000	284.459
335.0000	284.476
335.5000	284.516
336.0000	284.531
336.5000	284.49
337.0000	284.584
337.5000	284.662
338.0000	284.685
338.5000	284.779
339.0000	284.831
339.5000	284.821
340.0000	284.874
340.5000	284.887
341.0000	284.866
341.5000	284.967
342.0000	285.014
342.5000	285.126
343.0000	285.173
343.5000	285.185
344.0000	285.267
344.5000	285.337
345.0000	285.462
345.5000	285.486
346.0000	285.512
346.5000	285.483
347.0000	285.505
347.5000	285.549
348.0000	285.54
348.5000	285.606
349.0000	285.659
349.5000	285.688
350.0000	285.81
350.5000	285.832
351.0000	285.876
351.5000	285.941
352.0000	285.914
352.5000	285.945
353.0000	285.893
353.5000	286.025
354.0000	286.07
354.5000	286.113
355.0000	286.241
355.5000	286.142
356.0000	286.164
356.5000	286.25
357.0000	286.285
357.5000	286.379
358.0000	286.494
358.5000	286.518
359.0000	286.603
359.5000	286.641
360.0000	286.678
360.5000	286.731
361.0000	286.738
361.5000	286.778
362.0000	286.808
362.5000	286.833
363.0000	286.891
363.5000	286.957
364.0000	287.034
364.5000	287.053
365.0000	287.035
365.5000	287.104
366.0000	287.115
366.5000	287.199
367.0000	287.285
367.5000	287.33
368.0000	287.337
368.5000	287.464
369.0000	287.517
369.5000	287.522
370.0000	287.593
370.5000	287.552
371.0000	287.664
371.5000	287.714
372.0000	287.772
372.5000	287.795
373.0000	287.754
373.5000	287.817
374.0000	287.854
374.5000	287.912
375.0000	287.965
375.5000	288.001
376.0000	288.065
376.5000	288.112
377.0000	288.169
377.5000	288.217
378.0000	288.298
378.5000	288.342
379.0000	288.384
379.5000	288.444
380.0000	288.491
380.5000	288.565
381.0000	288.597
381.5000	288.714
382.0000	288.72
382.5000	288.736
383.0000	288.816
383.5000	288.78
384.0000	288.856
384.5000	288.945
385.0000	288.961
385.5000	289.047
386.0000	289.093
386.5000	289.112
387.0000	289.202
387.5000	289.221
388.0000	289.271
388.5000	289.319
389.0000	289.355
389.5000	289.425
390.0000	289.422
390.5000	289.535
391.0000	289.543
391.5000	289.59
392.0000	289.691
392.5000	289.687
393.0000	289.774
393.5000	289.826
394.0000	289.86
394.5000	289.926
395.0000	289.93
395.5000	289.988
396.0000	290.046
396.5000	290.085
397.0000	290.246
397.5000	290.291
398.0000	290.4
398.5000	290.477
399.0000	290.53
399.5000	290.63
400.0000	290.637
400.5000	290.707
401.0000	290.676
401.5000	290.761
402.0000	290.835
402.5000	290.861
403.0000	290.976
403.5000	291.014
404.0000	291.092
404.5000	291.163
405.0000	291.262
405.5000	291.35
406.0000	291.43
406.5000	291.536
407.0000	291.667
407.5000	291.672
408.0000	291.706
408.5000	291.84
409.0000	291.905
409.5000	292.021
410.0000	292.164
410.5000	292.229
411.0000	292.301
411.5000	292.373
412.0000	292.471
412.5000	292.552
413.0000	292.618
413.5000	292.729
414.0000	292.792
414.5000	292.881
415.0000	292.976
415.5000	293.088
416.0000	293.115
416.5000	293.165
417.0000	293.217
417.5000	293.324
418.0000	293.525
418.5000	293.682
419.0000	293.809
419.5000	293.942
420.0000	294.045
420.5000	294.108
421.0000	294.228
421.5000	294.3
422.0000	294.379
422.5000	294.527
423.0000	294.658
423.5000	294.744
424.0000	294.882
424.5000	294.999
425.0000	295.102
425.5000	295.247
426.0000	295.338
426.5000	295.467
427.0000	295.58
427.5000	295.662
428.0000	295.791
428.5000	295.874
429.0000	295.971
429.5000	296.118
430.0000	296.237
430.5000	296.376
431.0000	296.494
431.5000	296.579
432.0000	296.688
432.5000	296.802
433.0000	296.967
433.5000	297.163
434.0000	297.274
434.5000	297.397
435.0000	297.491
435.5000	297.547
436.0000	297.658
436.5000	297.773
437.0000	297.893
437.5000	298.036
438.0000	298.183
438.5000	298.266
439.0000	298.348
439.5000	298.481
440.0000	298.554
440.5000	298.646
441.0000	298.769
441.5000	298.909
442.0000	299.017
442.5000	299.224
443.0000	299.388
443.5000	299.443
444.0000	299.662
444.5000	299.712
445.0000	299.771
445.5000	299.892
446.0000	299.924
446.5000	300.048
447.0000	300.215
447.5000	300.311
448.0000	300.497
448.5000	300.592
449.0000	300.674
449.5000	300.836
450.0000	300.878
450.5000	301.025
451.0000	301.129
451.5000	301.189
452.0000	301.337
452.5000	301.447
453.0000	301.532
453.5000	301.623
454.0000	301.666
454.5000	301.714
455.0000	301.858
455.5000	302.017
456.0000	302.124
456.5000	302.254
457.0000	302.327
457.5000	302.415
458.0000	302.529
458.5000	302.594
459.0000	302.742
459.5000	302.841
460.0000	302.943
460.5000	303.075
461.0000	303.182
461.5000	303.284
462.0000	303.384
462.5000	303.522
463.0000	303.583
463.5000	303.688
464.0000	303.773
464.5000	303.852
465.0000	303.929
465.5000	303.992
466.0000	304.129
466.5000	304.232
467.0000	304.353
467.5000	304.473
468.0000	304.503
468.5000	304.542
469.0000	304.636
469.5000	304.711
470.0000	304.794
470.5000	304.884
471.0000	304.938
471.5000	305.058
472.0000	305.221
472.5000	305.33
473.0000	305.532
473.5000	305.595
474.0000	305.649
474.5000	305.795
475.0000	305.818
475.5000	305.878
476.0000	305.985
476.5000	306.037
477.0000	306.151
477.5000	306.254
478.0000	306.345
478.5000	306.439
479.0000	306.488
479.5000	306.547
480.0000	306.559
480.5000	306.677
481.0000	306.742
481.5000	306.928
482.0000	307.145
482.5000	307.182
483.0000	307.331
483.5000	307.307
484.0000	307.314
484.5000	307.389
485.0000	307.407
485.5000	307.554
486.0000	307.644
486.5000	307.701
487.0000	307.773
487.5000	307.829
488.0000	307.889
488.5000	307.978
489.0000	308.093
489.5000	308.128
490.0000	308.201
490.5000	308.3
491.0000	308.346
491.5000	308.43
492.0000	308.535
492.5000	308.596
493.0000	308.696
493.5000	308.829
494.0000	308.914
494.5000	308.997
495.0000	309.035
495.5000	309.115
496.0000	309.147
496.5000	309.223
497.0000	309.309
497.5000	309.36
498.0000	309.444
498.5000	309.497
499.0000	309.607
499.5000	309.644
500.0000	309.747
500.5000	309.839
501.0000	309.835
501.5000	309.941
502.0000	310.022
502.5000	310.185
503.0000	310.28
503.5000	310.359
504.0000	310.409
504.5000	310.397
505.0000	310.485
505.5000	310.57
506.0000	310.604
506.5000	310.637
507.0000	310.704
507.5000	310.722
508.0000	310.881
508.5000	310.974
509.0000	311.017
509.5000	311.1
510.0000	311.103
510.5000	311.16
511.0000	311.256
511.5000	311.37
512.0000	311.412
512.5000	311.5
513.0000	311.535
513.5000	311.546
514.0000	311.614
514.5000	311.665
515.0000	311.718
515.5000	311.798
516.0000	311.886
516.5000	311.873
517.0000	311.993
517.5000	312.023
518.0000	312.099
518.5000	312.287
519.0000	312.305
519.5000	312.352
520.0000	312.432
520.5000	312.418
521.0000	312.442
521.5000	312.516
522.0000	312.552
522.5000	312.584
523.0000	312.677
523.5000	312.723
524.0000	312.741
524.5000	312.867
525.0000	312.925
525.5000	313.019
526.0000	313.087
526.5000	313.127
527.0000	313.181
527.5000	313.262
528.0000	313.361
528.5000	313.481
529.0000	313.544
529.5000	313.522
530.0000	313.505
530.5000	313.455
531.0000	313.505
531.5000	313.575
532.0000	313.629
532.5000	313.678
533.0000	313.73
533.5000	313.811
534.0000	313.838
534.5000	313.9
535.0000	313.991
535.5000	314.014
536.0000	314.1
536.5000	314.187
537.0000	314.267
537.5000	314.329
538.0000	314.383
538.5000	314.452
539.0000	314.439
539.5000	314.473
540.0000	314.516
540.5000	314.546
541.0000	314.579
541.5000	314.65
542.0000	314.699
542.5000	314.753
543.0000	314.836
543.5000	314.875
544.0000	314.967
544.5000	314.985
545.0000	314.991
545.5000	315.08
546.0000	315.103
546.5000	315.153
547.0000	315.203
547.5000	315.242
548.0000	315.295
548.5000	315.376
549.0000	315.424
549.5000	315.454
550.0000	315.48
550.5000	315.469
551.0000	315.532
551.5000	315.555
552.0000	315.609
552.5000	315.712
553.0000	315.8
553.5000	315.876
554.0000	315.944
554.5000	315.966
555.0000	315.984
555.5000	316.015
556.0000	316.039
556.5000	316.112
557.0000	316.137
557.5000	316.191
558.0000	316.315
558.5000	316.342
559.0000	316.38
559.5000	316.414
560.0000	316.36
560.5000	316.415
561.0000	316.489
561.5000	316.559
562.0000	316.639
562.5000	316.653
563.0000	316.733
563.5000	316.742
564.0000	316.789
564.5000	316.867
565.0000	316.869
565.5000	316.895
566.0000	317.011
566.5000	316.995
567.0000	317.075
567.5000	317.186
568.0000	317.135
568.5000	317.179
569.0000	317.221
569.5000	317.222
570.0000	317.267
570.5000	317.315
571.0000	317.304
571.5000	317.372
572.0000	317.43
572.5000	317.526
573.0000	317.581
573.5000	317.586
574.0000	317.622
574.5000	317.647
575.0000	317.721
575.5000	317.798
576.0000	317.83
576.5000	317.844
577.0000	317.904
577.5000	317.912
578.0000	317.961
578.5000	318.049
579.0000	318.105
579.5000	318.165
580.0000	318.226
580.5000	318.244
581.0000	318.266
581.5000	318.333
582.0000	318.383
582.5000	318.436
583.0000	318.401
583.5000	318.488
584.0000	318.505
584.5000	318.532
585.0000	318.604
585.5000	318.589
586.0000	318.656
586.5000	318.737
587.0000	318.81
587.5000	318.86
588.0000	318.837
588.5000	318.85
589.0000	318.902
589.5000	318.91
590.0000	318.981
590.5000	319.002
591.0000	319.022
591.5000	319.104
592.0000	319.132
592.5000	319.17
593.0000	319.225
593.5000	319.242
594.0000	319.339
594.5000	319.404
595.0000	319.432
595.5000	319.488
596.0000	319.548
596.5000	319.594
597.0000	319.649
597.5000	319.734
598.0000	319.79
598.5000	319.885
599.0000	319.932
599.5000	319.912
600.0000	319.933
600.5000	319.988
601.0000	320.024
601.5000	320.108
602.0000	320.128
602.5000	320.143
603.0000	320.182
603.5000	320.244
604.0000	320.263
604.5000	320.347
605.0000	320.397
605.5000	320.395
606.0000	320.477
606.5000	320.469
607.0000	320.541
607.5000	320.594
608.0000	320.56
608.5000	320.582
609.0000	320.584
609.5000	320.697
610.0000	320.782
610.5000	320.874
611.0000	320.937
611.5000	320.929
612.0000	321.008
612.5000	321.045
613.0000	321.078
613.5000	321.113
614.0000	321.116
614.5000	321.099
615.0000	321.169
615.5000	321.172
616.0000	321.195
616.5000	321.278
617.0000	321.3
617.5000	321.398
618.0000	321.532
618.5000	321.567
619.0000	321.541
619.5000	321.533
620.0000	321.504
620.5000	321.515
621.0000	321.612
621.5000	321.641
622.0000	321.692
622.5000	321.743
623.0000	321.792
623.5000	321.85
624.0000	321.868
624.5000	321.964
625.0000	321.994
625.5000	322.096
626.0000	322.233
626.5000	322.202
627.0000	322.259
627.5000	322.331
628.0000	322.326
628.5000	322.402
629.0000	322.454
629.5000	322.505
630.0000	322.574
630.5000	322.595
631.0000	322.651
631.5000	322.655
632.0000	322.631
632.5000	322.651
633.0000	322.642
633.5000	322.614
634.0000	322.66
634.5000	322.829
635.0000	322.88
635.5000	322.948
636.0000	323.07
636.5000	323.027
637.0000	323.102
637.5000	323.136
638.0000	323.128
638.5000	323.177
639.0000	323.231
639.5000	323.286
640.0000	323.279
640.5000	323.292
641.0000	323.295
641.5000	323.295
642.0000	323.362
642.5000	323.464
643.0000	323.486
643.5000	323.548
644.0000	323.582
644.5000	323.509
645.0000	323.549
645.5000	323.597
646.0000	323.678
646.5000	323.726
647.0000	323.797
647.5000	323.893
648.0000	323.915
648.5000	324.032
649.0000	324.027
649.5000	324.095
650.0000	324.107
650.5000	324.122
651.0000	324.223
651.5000	324.245
652.0000	324.303
652.5000	324.337
653.0000	324.361
653.5000	324.267
654.0000	324.351
654.5000	324.404
655.0000	324.43
655.5000	324.513
656.0000	324.557
656.5000	324.61
657.0000	324.664
657.5000	324.735
658.0000	324.751
658.5000	324.792
659.0000	324.841
659.5000	324.884
660.0000	324.902
660.5000	324.961
661.0000	325.008
661.5000	325.014
662.0000	325.04
662.5000	325.043
663.0000	325.043
663.5000	325.144
664.0000	325.256
664.5000	325.291
665.0000	325.364
665.5000	325.438
666.0000	325.385
666.5000	325.424
667.0000	325.453
667.5000	325.422
668.0000	325.51
668.5000	325.595
669.0000	325.648
669.5000	325.765
670.0000	325.846
670.5000	325.898
671.0000	325.957
671.5000	325.94
672.0000	325.971
672.5000	325.944
673.0000	325.947
673.5000	326.009
674.0000	325.993
674.5000	326.089
675.0000	326.136
675.5000	326.191
676.0000	326.257
676.5000	326.266
677.0000	326.311
677.5000	326.348
678.0000	326.458
678.5000	326.504
679.0000	326.556
679.5000	326.557
680.0000	326.522
680.5000	326.598
681.0000	326.612
681.5000	326.652
682.0000	326.697
682.5000	326.73
683.0000	326.781
683.5000	326.832
684.0000	326.884
684.5000	326.859
685.0000	326.898
685.5000	326.9
686.0000	326.98
686.5000	327.105
687.0000	327.149
687.5000	327.231
688.0000	327.188
688.5000	327.221
689.0000	327.243
689.5000	327.282
690.0000	327.387
690.5000	327.378
691.0000	327.424
691.5000	327.428
692.0000	327.408
692.5000	327.422
693.0000	327.507
693.5000	327.612
694.0000	327.636
694.5000	327.687
695.0000	327.736
695.5000	327.715
696.0000	327.818
696.5000	327.877
697.0000	327.86
697.5000	327.932
698.0000	327.937
698.5000	327.932
699.0000	327.991
699.5000	328.01
700.0000	328.101
700.5000	328.154
701.0000	328.195
701.5000	328.246
702.0000	328.231
702.5000	328.327
703.0000	328.348
703.5000	328.34
704.0000	328.338
704.5000	328.333
705.0000	328.389
705.5000	328.454
706.0000	328.503
706.5000	328.536
707.0000	328.523
707.5000	328.532
708.0000	328.623
708.5000	328.643
709.0000	328.653
709.5000	328.73
710.0000	328.743
710.5000	328.781
711.0000	328.918
711.5000	328.972
712.0000	329.019
712.5000	329.095
713.0000	329.123
713.5000	329.156
714.0000	329.233
714.5000	329.273
715.0000	329.275
715.5000	329.31
716.0000	329.252
716.5000	329.238
717.0000	329.354
717.5000	329.358
718.0000	329.482
718.5000	329.552
719.0000	329.546
719.5000	329.583
720.0000	329.62
720.5000	329.662
721.0000	329.62
721.5000	329.701
722.0000	329.654
722.5000	329.719
723.0000	329.833
723.5000	329.91
724.0000	330.043
724.5000	330
725.0000	329.995
725.5000	329.944
726.0000	329.974
726.5000	330.145
727.0000	330.178
727.5000	330.259
728.0000	330.228
728.5000	330.205
729.0000	330.259
729.5000	330.291
730.0000	330.346
730.5000	330.373
731.0000	330.448
731.5000	330.446
732.0000	330.505
732.5000	330.542
733.0000	330.533
733.5000	330.577
734.0000	330.612
734.5000	330.665
735.0000	330.668
735.5000	330.731
736.0000	330.732
736.5000	330.711
737.0000	330.789
737.5000	330.797
738.0000	330.769
738.5000	330.84
739.0000	330.878
739.5000	330.952
740.0000	331.086
740.5000	331.087
741.0000	331.114
741.5000	331.124
742.0000	331.09
742.5000	331.12
743.0000	331.134
743.5000	331.142
744.0000	331.259
744.5000	331.27
745.0000	331.323
745.5000	331.401
746.0000	331.37
746.5000	331.461
747.0000	331.49
747.5000	331.498
748.0000	331.544
748.5000	331.501
749.0000	331.513
749.5000	331.552
750.0000	331.629
750.5000	331.687
751.0000	331.756
751.5000	331.816
752.0000	331.849
752.5000	331.874
753.0000	331.905
753.5000	331.876
754.0000	331.911
754.5000	332.025
755.0000	332.013
755.5000	332.076
756.0000	332.124
756.5000	332.031
757.0000	332.149
757.5000	332.211
758.0000	332.183
758.5000	332.292
759.0000	332.274
759.5000	332.282
760.0000	332.285
760.5000	332.346
761.0000	332.324
761.5000	332.333
762.0000	332.431
762.5000	332.477
763.0000	332.579
763.5000	332.622
764.0000	332.674
764.5000	332.668
765.0000	332.696
765.5000	332.739
766.0000	332.767
766.5000	332.861
767.0000	332.904
767.5000	332.963
768.0000	332.946
768.5000	332.949
769.0000	333.005
769.5000	332.987
770.0000	333.022
770.5000	333.018
771.0000	333.086
771.5000	333.071
772.0000	333.064
772.5000	333.11
773.0000	333.109
773.5000	333.276
774.0000	333.394
774.5000	333.456
775.0000	333.425
775.5000	333.359
776.0000	333.326
776.5000	333.357
777.0000	333.423
777.5000	333.474
778.0000	333.608
778.5000	333.583
779.0000	333.577
779.5000	333.611
780.0000	333.57
780.5000	333.615
781.0000	333.665
781.5000	333.778
782.0000	333.837
782.5000	333.874
783.0000	333.902
783.5000	333.852
784.0000	333.818
784.5000	333.829
785.0000	333.858
785.5000	333.873
786.0000	333.932
786.5000	334.061
787.0000	334.112
787.5000	334.152
788.0000	334.196
788.5000	334.22
789.0000	334.223
789.5000	334.291
790.0000	334.295
790.5000	334.241
791.0000	334.265
791.5000	334.262
792.0000	334.329
792.5000	334.358
793.0000	334.387
793.5000	334.48
794.0000	334.539
794.5000	334.548
795.0000	334.656
795.5000	334.65
796.0000	334.583
796.5000	334.688
797.0000	334.72
797.5000	334.741
798.0000	334.834
798.5000	334.892
799.0000	334.871
799.5000	334.901
800.0000	334.954
800.5000	334.954
801.0000	334.996
801.5000	335.029
802.0000	335.115
802.5000	335.156
803.0000	335.151
803.5000	335.193
804.0000	335.171
804.5000	335.189
805.0000	335.252
805.5000	335.327
806.0000	335.34
806.5000	335.379
807.0000	335.423
807.5000	335.398
808.0000	335.417
808.5000	335.429
809.0000	335.494
809.5000	335.555
810.0000	335.589
810.5000	335.68
811.0000	335.62
811.5000	335.668
812.0000	335.759
812.5000	335.69
813.0000	335.82
813.5000	335.803
814.0000	335.735
814.5000	335.879
815.0000	335.85
815.5000	335.897
816.0000	336.006
816.5000	335.996
817.0000	336.113
817.5000	336.133
818.0000	336.131
818.5000	336.173
819.0000	336.127
819.5000	336.192
820.0000	336.228
820.5000	336.254
821.0000	336.306
821.5000	336.341
822.0000	336.406
822.5000	336.427
823.0000	336.46
823.5000	336.436
824.0000	336.459
824.5000	336.475
825.0000	336.451
825.5000	336.523
826.0000	336.547
826.5000	336.529
827.0000	336.6
827.5000	336.621
828.0000	336.651
828.5000	336.74
829.0000	336.784
829.5000	336.84
830.0000	336.891
830.5000	336.893
831.0000	336.864
831.5000	336.901
832.0000	336.845
832.5000	336.947
833.0000	336.991
833.5000	337.01
834.0000	337.083
834.5000	337.142
835.0000	337.199
835.5000	337.207
836.0000	337.218
836.5000	337.183
837.0000	337.225
837.5000	337.188
838.0000	337.263
838.5000	337.3
839.0000	337.336
839.5000	337.492
840.0000	337.552
840.5000	337.53
841.0000	337.541
841.5000	337.441
842.0000	337.413
842.5000	337.515
843.0000	337.513
843.5000	337.606
844.0000	337.707
844.5000	337.738
845.0000	337.828
845.5000	337.947
846.0000	337.943
846.5000	337.963
847.0000	338.02
847.5000	337.989
848.0000	337.998
848.5000	337.972
849.0000	337.942
849.5000	337.981
850.0000	338.055
850.5000	338.061
851.0000	338.083
851.5000	338.13
852.0000	338.18
852.5000	338.235
853.0000	338.313
853.5000	338.321
854.0000	338.279
854.5000	338.327
855.0000	338.362
855.5000	338.47
856.0000	338.533
856.5000	338.598
857.0000	338.64
857.5000	338.543
858.0000	338.558
858.5000	338.62
859.0000	338.591
859.5000	338.676
860.0000	338.696
860.5000	338.654
861.0000	338.728
861.5000	338.784
862.0000	338.828
862.5000	338.827
863.0000	338.825
863.5000	338.808
864.0000	338.817
864.5000	338.878
865.0000	338.933
865.5000	339.013
866.0000	339.075
866.5000	339.19
867.0000	339.223
867.5000	339.238
868.0000	339.296
868.5000	339.254
869.0000	339.247
869.5000	339.203
870.0000	339.213
870.5000	339.247
871.0000	339.282
871.5000	339.354
872.0000	339.33
872.5000	339.361
873.0000	339.415
873.5000	339.502
874.0000	339.582
874.5000	339.561
875.0000	339.567
875.5000	339.492
876.0000	339.527
876.5000	339.599
877.0000	339.636
877.5000	339.598
878.0000	339.501
878.5000	339.54
879.0000	339.508
879.5000	339.683
880.0000	339.781
880.5000	339.805
881.0000	339.929
881.5000	339.866
882.0000	339.918
882.5000	339.951
883.0000	339.994
883.5000	339.987
884.0000	340.037
884.5000	340.09
885.0000	340.009
885.5000	340.214
886.0000	340.219
886.5000	340.212
887.0000	340.286
887.5000	340.28
888.0000	340.354
888.5000	340.4
889.0000	340.465
889.5000	340.47
890.0000	340.454
890.5000	340.45
891.0000	340.504
891.5000	340.494
892.0000	340.503
892.5000	340.586
893.0000	340.527
893.5000	340.545
894.0000	340.647
894.5000	340.65
895.0000	340.714
895.5000	340.78
896.0000	340.755
896.5000	340.761
897.0000	340.792
897.5000	340.79
898.0000	340.827
898.5000	340.869
899.0000	340.928
899.5000	340.983
900.0000	341.027
900.5000	341.056
901.0000	341.018
901.5000	341.06
902.0000	341.071
902.5000	341.076
903.0000	341.14
903.5000	341.155
904.0000	341.121
904.5000	341.121
905.0000	341.158
905.5000	341.151
906.0000	341.258
906.5000	341.366
907.0000	341.333
907.5000	341.382
908.0000	341.342
908.5000	341.301
909.0000	341.401
909.5000	341.473
910.0000	341.573
910.5000	341.613
911.0000	341.668
911.5000	341.643
912.0000	341.619
912.5000	341.647
913.0000	341.695
913.5000	341.727
914.0000	341.778
914.5000	341.806
915.0000	341.771
915.5000	341.82
916.0000	341.854
916.5000	341.887
917.0000	341.863
917.5000	341.901
918.0000	341.959
918.5000	342.011
919.0000	342.067
919.5000	341.985
920.0000	341.927
920.5000	341.979
921.0000	341.983
921.5000	342.076
922.0000	342.156
922.5000	342.192
923.0000	342.194
923.5000	342.242
924.0000	342.274
924.5000	342.238
925.0000	342.281
925.5000	342.276
926.0000	342.315
926.5000	342.302
927.0000	342.354
927.5000	342.348
928.0000	342.339
928.5000	342.442
929.0000	342.524
929.5000	342.512
930.0000	342.606
930.5000	342.615
931.0000	342.607
931.5000	342.764
932.0000	342.661
932.5000	342.732
933.0000	342.772
933.5000	342.758
934.0000	342.918
934.5000	342.89
935.0000	342.912
935.5000	342.956
936.0000	342.889
936.5000	342.949
937.0000	343.004
937.5000	343.003
938.0000	343.041
938.5000	343.044
939.0000	343.006
939.5000	343.028
940.0000	343.036
940.5000	343.078
941.0000	343.099
941.5000	343.189
942.0000	343.228
942.5000	343.237
943.0000	343.26
943.5000	343.233
944.0000	343.338
944.5000	343.359
945.0000	343.386
945.5000	343.421
946.0000	343.439
946.5000	343.454
947.0000	343.526
947.5000	343.543
948.0000	343.548
948.5000	343.641
949.0000	343.65
949.5000	343.722
950.0000	343.73
950.5000	343.653
951.0000	343.68
951.5000	343.644
952.0000	343.631
952.5000	343.627
953.0000	343.686
953.5000	343.703
954.0000	343.74
954.5000	343.843
955.0000	343.821
955.5000	343.851
956.0000	343.897
956.5000	343.963
957.0000	343.961
957.5000	344.025
958.0000	344.021
958.5000	343.947
959.0000	344.034
959.5000	344.049
960.0000	344.101
960.5000	344.211
961.0000	344.211
961.5000	344.278
962.0000	344.304
962.5000	344.329
963.0000	344.329
963.5000	344.333
964.0000	344.369
964.5000	344.369
965.0000	344.436
965.5000	344.474
966.0000	344.45
966.5000	344.485
967.0000	344.491
967.5000	344.481
968.0000	344.545
968.5000	344.558
969.0000	344.667
969.5000	344.742
970.0000	344.769
970.5000	344.808
971.0000	344.786
971.5000	344.749
972.0000	344.785
972.5000	344.794
973.0000	344.786
973.5000	344.751
974.0000	344.809
974.5000	344.86
975.0000	344.881
975.5000	344.968
976.0000	344.935
976.5000	344.9
977.0000	344.963
977.5000	344.985
978.0000	344.984
978.5000	345.062
979.0000	345.115
979.5000	345.162
980.0000	345.154
980.5000	345.151
981.0000	345.096
981.5000	345.066
982.0000	345.23
982.5000	345.273
983.0000	345.328
983.5000	345.422
984.0000	345.365
984.5000	345.425
985.0000	345.346
985.5000	345.341
986.0000	345.365
986.5000	345.346
987.0000	345.452
987.5000	345.483
988.0000	345.578
988.5000	345.653
989.0000	345.743
989.5000	345.749
990.0000	345.734
990.5000	345.732
991.0000	345.732
991.5000	345.738
992.0000	345.779
992.5000	345.868
993.0000	345.958
993.5000	346.077
994.0000	346.048
994.5000	346.031
995.0000	345.978
995.5000	345.969
996.0000	346.01
996.5000	346.028
997.0000	346.064
997.5000	346.124
998.0000	346.216
998.5000	346.243
999.0000	346.302
999.5000	346.286
1000.0000	346.272
1000.5000	346.258
1001.0000	346.296
1001.5000	346.346
1002.0000	346.362
1002.5000	346.382
1003.0000	346.357
1003.5000	346.393
1004.0000	346.445
1004.5000	346.497
1005.0000	346.564
1005.5000	346.581
1006.0000	346.629
1006.5000	346.629
1007.0000	346.591
1007.5000	346.616
1008.0000	346.648
1008.5000	346.686
1009.0000	346.731
1009.5000	346.784
1010.0000	346.828
1010.5000	346.92
1011.0000	346.969
1011.5000	346.957
1012.0000	346.952
1012.5000	346.976
1013.0000	346.958
1013.5000	346.96
1014.0000	346.986
1014.5000	346.975
1015.0000	347.076
1015.5000	347.111
1016.0000	347.145
1016.5000	347.186
1017.0000	347.219
1017.5000	347.27
1018.0000	347.283
1018.5000	347.335
1019.0000	347.302
1019.5000	347.281
1020.0000	347.265
1020.5000	347.236
1021.0000	347.286
1021.5000	347.327
1022.0000	347.33
1022.5000	347.363
1023.0000	347.426
1023.5000	347.48
1024.0000	347.57
1024.5000	347.633
1025.0000	347.668
1025.5000	347.722
1026.0000	347.738
1026.5000	347.764
1027.0000	347.739
1027.5000	347.645
1028.0000	347.675
1028.5000	347.733
1029.0000	347.741
1029.5000	347.891
1030.0000	347.97
1030.5000	348.036
1031.0000	348.111
1031.5000	348.118
1032.0000	348.141
1032.5000	348.121
1033.0000	348.169
1033.5000	348.139
1034.0000	348.149
1034.5000	348.132
1035.0000	348.06
1035.5000	348.17
1036.0000	348.173
1036.5000	348.254
1037.0000	348.401
1037.5000	348.344
1038.0000	348.371
1038.5000	348.351
1039.0000	348.327
1039.5000	348.411
1040.0000	348.444
1040.5000	348.455
1041.0000	348.446
1041.5000	348.438
1042.0000	348.457
1042.5000	348.465
1043.0000	348.473
1043.5000	348.481
1044.0000	348.455
1044.5000	348.572
1045.0000	348.643
1045.5000	348.704
1046.0000	348.758
1046.5000	348.73
1047.0000	348.753
1047.5000	348.828
1048.0000	348.84
1048.5000	348.836
1049.0000	348.858
1049.5000	348.902
1050.0000	348.962
1050.5000	348.998
1051.0000	349.02
1051.5000	349.062
1052.0000	349.113
1052.5000	349.062
1053.0000	349.071
1053.5000	349.051
1054.0000	349.054
1054.5000	349.106
1055.0000	349.102
1055.5000	349.071
1056.0000	349.069
1056.5000	349.137
1057.0000	349.241
1057.5000	349.322
1058.0000	349.392
1058.5000	349.492
1059.0000	349.484
1059.5000	349.452
1060.0000	349.452
1060.5000	349.435
1061.0000	349.46
1061.5000	349.516
1062.0000	349.582
1062.5000	349.561
1063.0000	349.563
1063.5000	349.631
1064.0000	349.664
1064.5000	349.728
1065.0000	349.8
1065.5000	349.801
1066.0000	349.787
1066.5000	349.821
1067.0000	349.809
1067.5000	349.829
1068.0000	349.904
1068.5000	349.937
1069.0000	349.982
1069.5000	349.975
1070.0000	349.958
1070.5000	349.97
1071.0000	349.945
1071.5000	349.918
1072.0000	349.908
1072.5000	349.959
1073.0000	350.022
1073.5000	350.139
1074.0000	350.198
1074.5000	350.165
1075.0000	350.214
1075.5000	350.236
1076.0000	350.246
1076.5000	350.32
1077.0000	350.349
1077.5000	350.359
1078.0000	350.343
1078.5000	350.341
1079.0000	350.362
1079.5000	350.328
1080.0000	350.352
1080.5000	350.376
1081.0000	350.381
1081.5000	350.459
1082.0000	350.486
1082.5000	350.449
1083.0000	350.454
1083.5000	350.507
1084.0000	350.579
1084.5000	350.675
1085.0000	350.692
1085.5000	350.707
1086.0000	350.694
1086.5000	350.677
1087.0000	350.755
1087.5000	350.753
1088.0000	350.817
1088.5000	350.886
1089.0000	350.936
1089.5000	350.986
1090.0000	350.981
1090.5000	351.002
1091.0000	350.952
1091.5000	351
1092.0000	351.06
1092.5000	351.121
1093.0000	351.234
1093.5000	351.185
1094.0000	351.194
1094.5000	351.209
1095.0000	351.165
1095.5000	351.181
1096.0000	351.224
1096.5000	351.245
1097.0000	351.307
1097.5000	351.345
1098.0000	351.372
1098.5000	351.347
1099.0000	351.311
1099.5000	351.377
1100.0000	351.393
1100.5000	351.517
1101.0000	351.595
1101.5000	351.543
1102.0000	351.593
1102.5000	351.564
1103.0000	351.585
1103.5000	351.643
1104.0000	351.625
1104.5000	351.587
1105.0000	351.554
1105.5000	351.59
1106.0000	351.601
1106.5000	351.656
1107.0000	351.679
1107.5000	351.755
1108.0000	351.774
1108.5000	351.785
1109.0000	351.874
1109.5000	351.903
1110.0000	351.99
1110.5000	352.024
1111.0000	352.008
1111.5000	351.962
1112.0000	351.98
1112.5000	351.997
1113.0000	352.065
1113.5000	352.187
1114.0000	352.204
1114.5000	352.191
1115.0000	352.165
1115.5000	352.192
1116.0000	352.233
1116.5000	352.326
1117.0000	352.377
1117.5000	352.294
1118.0000	352.318
1118.5000	352.402
1119.0000	352.39
1119.5000	352.417
1120.0000	352.371
1120.5000	352.312
1121.0000	352.36
1121.5000	352.442
1122.0000	352.456
1122.5000	352.481
1123.0000	352.568
1123.5000	352.598
1124.0000	352.675
1124.5000	352.662
1125.0000	352.658
1125.5000	352.669
1126.0000	352.662
1126.5000	352.747
1127.0000	352.742
1127.5000	352.722
1128.0000	352.782
1128.5000	352.8
1129.0000	352.818
1129.5000	352.923
1130.0000	352.929
1130.5000	352.907
1131.0000	352.935
1131.5000	352.886
1132.0000	352.893
1132.5000	352.943
1133.0000	352.988
1133.5000	353.036
1134.0000	353.059
1134.5000	353.089
1135.0000	353.099
1135.5000	353.136
1136.0000	353.166
1136.5000	353.169
1137.0000	353.193
1137.5000	353.137
1138.0000	353.15
1138.5000	353.15
1139.0000	353.176
1139.5000	353.241
1140.0000	353.307
1140.5000	353.404
1141.0000	353.407
1141.5000	353.396
1142.0000	353.386
1142.5000	353.422
1143.0000	353.433
1143.5000	353.578
1144.0000	353.616
1144.5000	353.587
1145.0000	353.651
1145.5000	353.648
1146.0000	353.668
1146.5000	353.721
1147.0000	353.789
1147.5000	353.763
1148.0000	353.842
1148.5000	353.86
1149.0000	353.79
1149.5000	353.812
1150.0000	353.868
1150.5000	353.897
1151.0000	353.953
1151.5000	354.07
1152.0000	354.074
1152.5000	354.093
1153.0000	354.154
1153.5000	354.119
1154.0000	354.077
1154.5000	354.048
1155.0000	354.093
1155.5000	354.072
1156.0000	354.115
1156.5000	354.124
1157.0000	354.114
1157.5000	354.208
1158.0000	354.253
1158.5000	354.388
1159.0000	354.483
1159.5000	354.51
1160.0000	354.53
1160.5000	354.465
1161.0000	354.42
1161.5000	354.421
1162.0000	354.475
1162.5000	354.522
1163.0000	354.477
1163.5000	354.555
1164.0000	354.479
1164.5000	354.559
1165.0000	354.657
1165.5000	354.66
1166.0000	354.776
1166.5000	354.735
1167.0000	354.712
1167.5000	354.692
1168.0000	354.705
1168.5000	354.802
1169.0000	354.853
1169.5000	354.887
1170.0000	354.889
1170.5000	354.888
1171.0000	354.906
1171.5000	354.927
1172.0000	354.99
1172.5000	355.016
1173.0000	355.053
1173.5000	355.038
1174.0000	355.059
1174.5000	355.134
1175.0000	355.164
1175.5000	355.257
1176.0000	355.246
1176.5000	355.202
1177.0000	355.242
1177.5000	355.24
1178.0000	355.266
1178.5000	355.305
1179.0000	355.315
1179.5000	355.339
1180.0000	355.403
1180.5000	355.442
1181.0000	355.508
1181.5000	355.574
1182.0000	355.566
1182.5000	355.543
1183.0000	355.504
1183.5000	355.532
1184.0000	355.542
1184.5000	355.637
1185.0000	355.685
1185.5000	355.67
1186.0000	355.692
1186.5000	355.655
1187.0000	355.687
1187.5000	355.698
1188.0000	355.788
1188.5000	355.787
1189.0000	355.803
1189.5000	355.835
1190.0000	355.836
1190.5000	355.929
1191.0000	355.929
1191.5000	355.985
1192.0000	355.988
1192.5000	355.999
1193.0000	356.112
1193.5000	356.173
1194.0000	356.197
1194.5000	356.265
1195.0000	356.233
1195.5000	356.214
1196.0000	356.288
1196.5000	356.279
1197.0000	356.255
1197.5000	356.382
1198.0000	356.305
1198.5000	356.299
1199.0000	356.409
1199.5000	356.354
1200.0000	356.435
1200.5000	356.498
1201.0000	356.541
1201.5000	356.533
1202.0000	356.482
1202.5000	356.551
1203.0000	356.453
1203.5000	356.472
1204.0000	356.526
1204.5000	356.522
1205.0000	356.635
1205.5000	356.642
1206.0000	356.715
1206.5000	356.61
1207.0000	356.598
1207.5000	356.651
1208.0000	356.619
1208.5000	356.755
1209.0000	356.798
1209.5000	356.834
1210.0000	356.924
1210.5000	356.924
1211.0000	357
1211.5000	357.012
1212.0000	357.009
1212.5000	357.053
1213.0000	357.031
1213.5000	357.062
1214.0000	357.126
1214.5000	357.165
1215.0000	357.126
1215.5000	357.14
1216.0000	357.149
1216.5000	357.103
1217.0000	357.168
1217.5000	357.216
1218.0000	357.183
1218.5000	357.184
1219.0000	357.27
1219.5000	357.312
1220.0000	357.413
1220.5000	357.518
1221.0000	357.516
1221.5000	357.483
1222.0000	357.464
1222.5000	357.49
1223.0000	357.545
1223.5000	357.531
1224.0000	357.541
1224.5000	357.556
1225.0000	357.54
1225.5000	357.571
1226.0000	357.669
1226.5000	357.668
1227.0000	357.709
1227.5000	357.776
1228.0000	357.727
1228.5000	357.743
1229.0000	357.753
1229.5000	357.806
1230.0000	357.792
1230.5000	357.778
1231.0000	357.75
1231.5000	357.768
1232.0000	357.867
1232.5000	357.964
1233.0000	358.008
1233.5000	357.999
1234.0000	358.003
1234.5000	357.99
1235.0000	358.036
1235.5000	358.078
1236.0000	358.089
1236.5000	358.157
1237.0000	358.139
1237.5000	358.148
1238.0000	358.207
1238.5000	358.245
1239.0000	358.316
1239.5000	358.368
1240.0000	358.337
1240.5000	358.33
1241.0000	358.319
1241.5000	358.319
1242.0000	358.377
1242.5000	358.404
1243.0000	358.491
1243.5000	358.547
1244.0000	358.585
1244.5000	358.565
1245.0000	358.543
1245.5000	358.502
1246.0000	358.551
1246.5000	358.55
1247.0000	358.636
1247.5000	358.681
1248.0000	358.733
1248.5000	358.838
1249.0000	358.803
1249.5000	358.891
1250.0000	358.846
1250.5000	358.812
1251.0000	358.884
1251.5000	358.83
1252.0000	358.859
1252.5000	358.937
1253.0000	358.978
1253.5000	359.054
1254.0000	359.08
1254.5000	359.182
1255.0000	359.13
1255.5000	359.151
1256.0000	359.191
1256.5000	359.139
1257.0000	359.181
1257.5000	359.176
1258.0000	359.197
1258.5000	359.222
1259.0000	359.286
1259.5000	359.297
1260.0000	359.346
1260.5000	359.392
1261.0000	359.387
1261.5000	359.447
1262.0000	359.501
1262.5000	359.521
1263.0000	359.581
1263.5000	359.581
1264.0000	359.593
1264.5000	359.568
1265.0000	359.518
1265.5000	359.637
1266.0000	359.615
1266.5000	359.611
1267.0000	359.685
1267.5000	359.641
1268.0000	359.616
1268.5000	359.769
1269.0000	359.818
1269.5000	359.852
1270.0000	359.934
1270.5000	359.872
1271.0000	359.896
1271.5000	359.943
1272.0000	359.968
1272.5000	360.071
1273.0000	360.068
1273.5000	360.026
1274.0000	360.064
1274.5000	359.992
1275.0000	360.039
1275.5000	360.084
1276.0000	360.058
1276.5000	360.153
1277.0000	360.256
1277.5000	360.226
1278.0000	360.269
1278.5000	360.308
1279.0000	360.286
1279.5000	360.481
1280.0000	360.5
1280.5000	360.451
1281.0000	360.426
1281.5000	360.344
1282.0000	360.454
1282.5000	360.491
1283.0000	360.532
1283.5000	360.553
1284.0000	360.482
1284.5000	360.522
1285.0000	360.543
1285.5000	360.63
1286.0000	360.661
1286.5000	360.666
1287.0000	360.667
1287.5000	360.618
1288.0000	360.695
1288.5000	360.714
1289.0000	360.8
1289.5000	360.853
1290.0000	360.819
1290.5000	360.84
1291.0000	360.801
1291.5000	360.826
1292.0000	360.864
1292.5000	360.922
1293.0000	361.026
1293.5000	361.072
1294.0000	361.122
1294.5000	361.114
1295.0000	361.049
1295.5000	361.032
1296.0000	361.037
1296.5000	361.17
1297.0000	361.268
1297.5000	361.35
1298.0000	361.397
1298.5000	361.343
1299.0000	361.266
1299.5000	361.197
1300.0000	361.211
1300.5000	361.185
1301.0000	361.257
1301.5000	361.358
1302.0000	361.473
1302.5000	361.57
1303.0000	361.69
1303.5000	361.693
1304.0000	361.613
1304.5000	361.605
1305.0000	361.547
1305.5000	361.543
1306.0000	361.606
1306.5000	361.653
1307.0000	361.648
1307.5000	361.699
1308.0000	361.678
1308.5000	361.648
1309.0000	361.676
1309.5000	361.689
1310.0000	361.708
1310.5000	361.832
1311.0000	361.942
1311.5000	362.008
1312.0000	362.047
1312.5000	361.984
1313.0000	361.958
1313.5000	361.955
1314.0000	361.962
1314.5000	361.987
1315.0000	362.033
1315.5000	362.008
1316.0000	362.049
1316.5000	362.088
1317.0000	362.048
1317.5000	362.109
1318.0000	362.136
1318.5000	362.083
1319.0000	362.097
1319.5000	362.098
1320.0000	362.1
1320.5000	362.167
1321.0000	362.165
1321.5000	362.165
1322.0000	362.226
1322.5000	362.341
1323.0000	362.423
1323.5000	362.475
1324.0000	362.513
1324.5000	362.514
1325.0000	362.528
1325.5000	362.591
1326.0000	362.482
1326.5000	362.417
1327.0000	362.465
1327.5000	362.5
1328.0000	362.62
1328.5000	362.711
1329.0000	362.74
1329.5000	362.768
1330.0000	362.836
1330.5000	362.843
1331.0000	362.849
1331.5000	362.878
1332.0000	362.9
1332.5000	362.909
1333.0000	362.939
1333.5000	362.927
1334.0000	362.917
1334.5000	362.957
1335.0000	362.992
1335.5000	362.988
1336.0000	363.014
1336.5000	363.024
1337.0000	362.989
1337.5000	363.016
1338.0000	363.046
1338.5000	363.081
1339.0000	363.199
1339.5000	363.26
1340.0000	363.293
1340.5000	363.388
1341.0000	363.347
1341.5000	363.347
1342.0000	363.37
1342.5000	363.328
1343.0000	363.352
1343.5000	363.471
1344.0000	363.443
1344.5000	363.453
1345.0000	363.501
1345.5000	363.471
1346.0000	363.487
1346.5000	363.502
1347.0000	363.504
1347.5000	363.494
1348.0000	363.597
1348.5000	363.661
1349.0000	363.668
1349.5000	363.686
1350.0000	363.666
1350.5000	363.704
1351.0000	363.71
1351.5000	363.661
1352.0000	363.674
1352.5000	363.733
1353.0000	363.798
1353.5000	363.905
1354.0000	363.948
1354.5000	363.928
1355.0000	363.938
1355.5000	363.968
1356.0000	364.013
1356.5000	364.079
1357.0000	364.117
1357.5000	364.176
1358.0000	364.228
1358.5000	364.18
1359.0000	364.214
1359.5000	364.223
1360.0000	364.239
1360.5000	364.263
1361.0000	364.251
1361.5000	364.285
1362.0000	364.288
1362.5000	364.327
1363.0000	364.377
1363.5000	364.323
1364.0000	364.337
1364.5000	364.381
1365.0000	364.408
1365.5000	364.453
1366.0000	364.521
1366.5000	364.485
1367.0000	364.491
1367.5000	364.5
1368.0000	364.503
1368.5000	364.566
1369.0000	364.637
1369.5000	364.67
1370.0000	364.658
1370.5000	364.663
1371.0000	364.671
1371.5000	364.737
1372.0000	364.776
1372.5000	364.844
1373.0000	364.923
1373.5000	364.915
1374.0000	364.949
1374.5000	364.953
1375.0000	364.918
1375.5000	364.959
1376.0000	364.996
1376.5000	365.055
1377.0000	365.083
1377.5000	365.073
1378.0000	365.115
1378.5000	365.085
1379.0000	365.101
1379.5000	365.198
1380.0000	365.251
1380.5000	365.3
1381.0000	365.34
1381.5000	365.359
1382.0000	365.304
1382.5000	365.296
1383.0000	365.341
1383.5000	365.352
1384.0000	365.355
1384.5000	365.357
1385.0000	365.319
1385.5000	365.295
1386.0000	365.345
1386.5000	365.388
1387.0000	365.427
1387.5000	365.405
1388.0000	365.434
1388.5000	365.463
1389.0000	365.494
1389.5000	365.627
1390.0000	365.606
1390.5000	365.614
1391.0000	365.633
1391.5000	365.565
1392.0000	365.587
1392.5000	365.618
1393.0000	365.584
1393.5000	365.613
1394.0000	365.65
1394.5000	365.73
1395.0000	365.778
1395.5000	365.771
1396.0000	365.8
1396.5000	365.852
1397.0000	365.911
1397.5000	365.951
1398.0000	366.021
1398.5000	365.946
1399.0000	365.939
1399.5000	366.008
1400.0000	365.986
1400.5000	366.006
1401.0000	366.106
1401.5000	366.187
1402.0000	366.218
1402.5000	366.298
1403.0000	366.278
1403.5000	366.28
1404.0000	366.369
1404.5000	366.371
1405.0000	366.299
1405.5000	366.295
1406.0000	366.261
1406.5000	366.302
1407.0000	366.404
1407.5000	366.46
1408.0000	366.484
1408.5000	366.514
1409.0000	366.504
1409.5000	366.446
1410.0000	366.479
1410.5000	366.423
1411.0000	366.492
1411.5000	366.53
1412.0000	366.511
1412.5000	366.543
1413.0000	366.55
1413.5000	366.561
1414.0000	366.584
1414.5000	366.55
1415.0000	366.561
1415.5000	366.66
1416.0000	366.641
1416.5000	366.725
1417.0000	366.739
1417.5000	366.671
1418.0000	366.758
1418.5000	366.773
1419.0000	366.796
1419.5000	366.825
1420.0000	366.858
1420.5000	366.944
1421.0000	366.962
1421.5000	367.122
1422.0000	367.049
1422.5000	367.03
1423.0000	367.149
1423.5000	367.05
1424.0000	367.137
1424.5000	367.222
1425.0000	367.185
1425.5000	367.191
1426.0000	367.283
1426.5000	367.259
1427.0000	367.284
1427.5000	367.279
1428.0000	367.272
1428.5000	367.299
1429.0000	367.268
1429.5000	367.349
1430.0000	367.313
1430.5000	367.312
1431.0000	367.286
1431.5000	367.329
1432.0000	367.371
1432.5000	367.37
1433.0000	367.412
1433.5000	367.447
1434.0000	367.477
1434.5000	367.55
1435.0000	367.625
1435.5000	367.561
1436.0000	367.613
1436.5000	367.602
1437.0000	367.628
1437.5000	367.699
1438.0000	367.684
1438.5000	367.649
1439.0000	367.624
1439.5000	367.637
1440.0000	367.65
1440.5000	367.739
1441.0000	367.794
1441.5000	367.782
1442.0000	367.795
1442.5000	367.869
1443.0000	367.905
1443.5000	367.918
1444.0000	367.933
1444.5000	367.884
1445.0000	367.977
1445.5000	368.038
1446.0000	368.094
1446.5000	368.07
1447.0000	367.989
1447.5000	368.029
1448.0000	368.001
1448.5000	368.083
1449.0000	368.123
1449.5000	368.158
1450.0000	368.232
1450.5000	368.245
1451.0000	368.227
1451.5000	368.212
1452.0000	368.204
1452.5000	368.232
1453.0000	368.255
1453.5000	368.241
1454.0000	368.274
1454.5000	368.283
1455.0000	368.362
1455.5000	368.446
1456.0000	368.428
1456.5000	368.418
1457.0000	368.355
1457.5000	368.391
1458.0000	368.438
1458.5000	368.505
1459.0000	368.615
1459.5000	368.576
1460.0000	368.559
1460.5000	368.573
1461.0000	368.577
1461.5000	368.485
1462.0000	368.568
1462.5000	368.618
1463.0000	368.578
1463.5000	368.713
1464.0000	368.754
1464.5000	368.748
1465.0000	368.799
1465.5000	368.815
1466.0000	368.696
1466.5000	368.718
1467.0000	368.686
1467.5000	368.737
1468.0000	368.917
1468.5000	368.927
1469.0000	368.894
1469.5000	368.951
1470.0000	368.861
1470.5000	368.893
1471.0000	368.958
1471.5000	368.919
1472.0000	368.957
1472.5000	368.923
1473.0000	368.973
1473.5000	369.001
1474.0000	369.004
1474.5000	369.104
1475.0000	369.187
1475.5000	369.25
1476.0000	369.323
1476.5000	369.203
1477.0000	369.255
1477.5000	369.156
1478.0000	369.202
1478.5000	369.248
1479.0000	369.194
1479.5000	369.266
1480.0000	369.23
1480.5000	369.283
1481.0000	369.306
1481.5000	369.227
1482.0000	369.21
1482.5000	369.176
1483.0000	369.112
1483.5000	369.208
1484.0000	369.292
1484.5000	369.323
1485.0000	369.409
1485.5000	369.443
1486.0000	369.45
1486.5000	369.513
1487.0000	369.557
1487.5000	369.574
1488.0000	369.512
1488.5000	369.556
1489.0000	369.527
1489.5000	369.591
1490.0000	369.668
1490.5000	369.65
1491.0000	369.68
1491.5000	369.637
1492.0000	369.687
1492.5000	369.711
1493.0000	369.78
1493.5000	369.816
1494.0000	369.829
1494.5000	369.812
1495.0000	369.826
1495.5000	369.833
1496.0000	369.823
1496.5000	369.921
1497.0000	369.857
1497.5000	369.874
1498.0000	369.785
1498.5000	369.784
1499.0000	369.877
1499.5000	369.906
1500.0000	370.035
1500.5000	370.094
1501.0000	370.088
1501.5000	370.064
1502.0000	370.144
1502.5000	370.091
1503.0000	370.133
1503.5000	370.211
1504.0000	370.173
1504.5000	370.269
1505.0000	370.257
1505.5000	370.258
1506.0000	370.234
1506.5000	370.185
1507.0000	370.196
1507.5000	370.255
1508.0000	370.265
1508.5000	370.289
1509.0000	370.269
1509.5000	370.226
1510.0000	370.259
1510.5000	370.269
1511.0000	370.305
1511.5000	370.321
1512.0000	370.353
1512.5000	370.418
1513.0000	370.467
1513.5000	370.485
1514.0000	370.503
1514.5000	370.491
1515.0000	370.518
1515.5000	370.582
1516.0000	370.642
1516.5000	370.736
1517.0000	370.758
1517.5000	370.795
1518.0000	370.781
1518.5000	370.737
1519.0000	370.799
1519.5000	370.836
1520.0000	370.889
1520.5000	370.867
1521.0000	370.887
1521.5000	370.854
1522.0000	370.873
1522.5000	370.963
1523.0000	371.001
1523.5000	371.047
1524.0000	370.992
1524.5000	370.901
1525.0000	370.865
1525.5000	370.845
1526.0000	370.903
1526.5000	370.967
1527.0000	370.95
1527.5000	370.985
1528.0000	371.022
1528.5000	371.045
1529.0000	371.086
1529.5000	371.14
1530.0000	371.089
1530.5000	371.109
1531.0000	371.137
1531.5000	371.101
1532.0000	371.195
1532.5000	371.216
1533.0000	371.259
1533.5000	371.297
1534.0000	371.316
1534.5000	371.289
1535.0000	371.21
1535.5000	371.212
1536.0000	371.205
1536.5000	371.287
1537.0000	371.392
1537.5000	371.372
1538.0000	371.436
1538.5000	371.435
1539.0000	371.406
1539.5000	371.459
1540.0000	371.508
1540.5000	371.578
1541.0000	371.572
1541.5000	371.585
1542.0000	371.502
1542.5000	371.484
1543.0000	371.56
1543.5000	371.622
1544.0000	371.629
1544.5000	371.642
1545.0000	371.572
1545.5000	371.538
1546.0000	371.634
1546.5000	371.581
1547.0000	371.666
1547.5000	371.707
1548.0000	371.66
1548.5000	371.646
1549.0000	371.671
1549.5000	371.619
1550.0000	371.693
1550.5000	371.805
1551.0000	371.784
1551.5000	371.87
1552.0000	371.908
1552.5000	371.978
1553.0000	372.024
1553.5000	372.071
1554.0000	371.984
1554.5000	371.938
1555.0000	371.972
1555.5000	371.921
1556.0000	371.937
1556.5000	371.97
1557.0000	371.977
1557.5000	372.068
1558.0000	372.098
1558.5000	372.071
1559.0000	372.055
1559.5000	372.063
1560.0000	372.155
1560.5000	372.213
1561.0000	372.186
1561.5000	372.172
1562.0000	372.21
1562.5000	372.159
1563.0000	372.228
1563.5000	372.237
1564.0000	372.193
1564.5000	372.218
1565.0000	372.275
1565.5000	372.256
1566.0000	372.275
1566.5000	372.363
1567.0000	372.338
1567.5000	372.35
1568.0000	372.414
1568.5000	372.407
1569.0000	372.48
1569.5000	372.56
1570.0000	372.526
1570.5000	372.554
1571.0000	372.549
1571.5000	372.565
1572.0000	372.59
1572.5000	372.638
1573.0000	372.639
1573.5000	372.58
1574.0000	372.573
1574.5000	372.574
1575.0000	372.576
1575.5000	372.644
1576.0000	372.697
1576.5000	372.724
1577.0000	372.723
1577.5000	372.739
1578.0000	372.75
1578.5000	372.684
1579.0000	372.718
1579.5000	372.771
1580.0000	372.75
1580.5000	372.786
1581.0000	372.827
1581.5000	372.822
1582.0000	372.867
1582.5000	372.879
1583.0000	372.905
1583.5000	372.868
1584.0000	372.859
1584.5000	372.876
1585.0000	372.869
1585.5000	372.93
1586.0000	372.918
1586.5000	372.898
1587.0000	372.925
1587.5000	372.953
1588.0000	372.987
1588.5000	373.069
1589.0000	373.09
1589.5000	373.125
1590.0000	373.171
1590.5000	373.204
1591.0000	373.222
1591.5000	373.236
1592.0000	373.241
1592.5000	373.298
1593.0000	373.329
1593.5000	373.343
1594.0000	373.357
1594.5000	373.331
1595.0000	373.359
1595.5000	373.466
1596.0000	373.478
1596.5000	373.422
1597.0000	373.431
1597.5000	373.319
1598.0000	373.378
1598.5000	373.476
1599.0000	373.438
1599.5000	373.497
1600.0000	373.505
1600.5000	373.5
1601.0000	373.599
1601.5000	373.628
1602.0000	373.611
1602.5000	373.613
1603.0000	373.576
1603.5000	373.532
1604.0000	373.599
1604.5000	373.663
1605.0000	373.665
1605.5000	373.747
1606.0000	373.789
1606.5000	373.747
1607.0000	373.791
1607.5000	373.816
1608.0000	373.716
1608.5000	373.74
1609.0000	373.822
1609.5000	373.711
1610.0000	373.746
1610.5000	373.766
1611.0000	373.674
1611.5000	373.758
1612.0000	373.843
1612.5000	373.878
1613.0000	373.909
1613.5000	373.935
1614.0000	373.863
1614.5000	373.883
1615.0000	373.917
1615.5000	373.949
1616.0000	373.952
1616.5000	373.965
1617.0000	373.901
1617.5000	373.88
1618.0000	373.914
1618.5000	373.925
1619.0000	373.998
1619.5000	374.057
1620.0000	374.132
1620.5000	374.14
1621.0000	374.127
1621.5000	374.104
1622.0000	374.107
1622.5000	374.083
1623.0000	374.118
1623.5000	374.127
1624.0000	374.176
1624.5000	374.284
1625.0000	374.343
1625.5000	374.341
1626.0000	374.375
1626.5000	374.387
1627.0000	374.342
1627.5000	374.336
1628.0000	374.307
1628.5000	374.292
1629.0000	374.394
1629.5000	374.448
1630.0000	374.369
1630.5000	374.359
1631.0000	374.33
1631.5000	374.399
1632.0000	374.499
1632.5000	374.511
1633.0000	374.547
1633.5000	374.507
1634.0000	374.557
1634.5000	374.567
1635.0000	374.534
1635.5000	374.53
1636.0000	374.555
1636.5000	374.559
1637.0000	374.539
1637.5000	374.567
1638.0000	374.509
1638.5000	374.513
1639.0000	374.542
1639.5000	374.587
1640.0000	374.592
1640.5000	374.643
1641.0000	374.693
1641.5000	374.659
1642.0000	374.662
1642.5000	374.662
1643.0000	374.688
1643.5000	374.756
1644.0000	374.778
1644.5000	374.801
1645.0000	374.822
1645.5000	374.814
1646.0000	374.844
1646.5000	374.923
1647.0000	374.889
1647.5000	374.863
1648.0000	374.892
1648.5000	374.864
1649.0000	374.91
1649.5000	374.96
1650.0000	375.004
1650.5000	375.004
1651.0000	375.023
1651.5000	375.025
1652.0000	374.964
1652.5000	374.961
1653.0000	374.973
1653.5000	374.96
1654.0000	375.014
1654.5000	375.059
1655.0000	375.068
1655.5000	375.194
1656.0000	375.213
1656.5000	375.207
1657.0000	375.254
1657.5000	375.142
1658.0000	375.122
1658.5000	375.144
1659.0000	375.144
1659.5000	375.241
1660.0000	375.344
1660.5000	375.442
1661.0000	375.438
1661.5000	375.468
1662.0000	375.394
1662.5000	375.322
1663.0000	375.407
1663.5000	375.39
1664.0000	375.43
1664.5000	375.397
1665.0000	375.332
1665.5000	375.363
1666.0000	375.415
1666.5000	375.482
1667.0000	375.531
1667.5000	375.516
1668.0000	375.571
1668.5000	375.626
1669.0000	375.634
1669.5000	375.615
1670.0000	375.568
1670.5000	375.531
1671.0000	375.522
1671.5000	375.558
1672.0000	375.566
1672.5000	375.659
1673.0000	375.662
1673.5000	375.706
1674.0000	375.734
1674.5000	375.694
1675.0000	375.766
1675.5000	375.76
1676.0000	375.756
1676.5000	375.737
1677.0000	375.713
1677.5000	375.702
1678.0000	375.786
1678.5000	375.814
1679.0000	375.768
1679.5000	375.816
1680.0000	375.727
1680.5000	375.785
1681.0000	375.893
1681.5000	375.87
1682.0000	375.919
1682.5000	375.811
1683.0000	375.749
1683.5000	375.799
1684.0000	375.829
1684.5000	375.86
1685.0000	375.821
1685.5000	375.841
1686.0000	375.859
1686.5000	375.911
1687.0000	375.993
1687.5000	376.034
1688.0000	376.006
1688.5000	376.058
1689.0000	376.116
1689.5000	376.061
1690.0000	376.058
1690.5000	376.085
1691.0000	376.077
1691.5000	376.125
1692.0000	376.174
1692.5000	376.123
1693.0000	376.112
1693.5000	376.177
1694.0000	376.166
1694.5000	376.18
1695.0000	376.23
1695.5000	376.243
1696.0000	376.271
1696.5000	376.278
1697.0000	376.296
1697.5000	376.233
1698.0000	376.331
1698.5000	376.352
1699.0000	376.355
1699.5000	376.319
1700.0000	376.226
1700.5000	376.272
1701.0000	376.212
1701.5000	376.277
1702.0000	376.347
1702.5000	376.333
1703.0000	376.527
1703.5000	376.567
1704.0000	376.547
1704.5000	376.614
1705.0000	376.481
1705.5000	376.468
1706.0000	376.455
1706.5000	376.468
1707.0000	376.508
1707.5000	376.553
1708.0000	376.608
1708.5000	376.528
1709.0000	376.634
1709.5000	376.581
1710.0000	376.582
1710.5000	376.637
1711.0000	376.5
1711.5000	376.66
1712.0000	376.743
1712.5000	376.776
1713.0000	376.884
1713.5000	376.775
1714.0000	376.71
1714.5000	376.745
1715.0000	376.72
1715.5000	376.795
1716.0000	376.82
1716.5000	376.826
1717.0000	376.853
1717.5000	376.819
1718.0000	376.893
1718.5000	376.887
1719.0000	376.845
1719.5000	376.858
1720.0000	376.824
1720.5000	376.947
1721.0000	376.976
1721.5000	376.997
1722.0000	377.013
1722.5000	376.887
1723.0000	376.934
1723.5000	376.923
1724.0000	376.923
1724.5000	376.925
1725.0000	376.949
1725.5000	376.997
1726.0000	377.038
1726.5000	377.056
1727.0000	377.108
1727.5000	377.148
1728.0000	377.157
1728.5000	377.173
1729.0000	377.178
1729.5000	377.223
1730.0000	377.219
1730.5000	377.254
1731.0000	377.342
1731.5000	377.267
1732.0000	377.261
1732.5000	377.272
1733.0000	377.189
1733.5000	377.16
1734.0000	377.16
1734.5000	377.181
1735.0000	377.2
1735.5000	377.29
1736.0000	377.36
1736.5000	377.382
1737.0000	377.396
1737.5000	377.454
1738.0000	377.463
1738.5000	377.469
1739.0000	377.492
1739.5000	377.51
1740.0000	377.477
1740.5000	377.484
1741.0000	377.443
1741.5000	377.379
1742.0000	377.417
1742.5000	377.433
1743.0000	377.457
1743.5000	377.504
1744.0000	377.541
1744.5000	377.566
1745.0000	377.62
1745.5000	377.717
1746.0000	377.707
1746.5000	377.709
1747.0000	377.778
1747.5000	377.693
1748.0000	377.745
1748.5000	377.731
1749.0000	377.631
1749.5000	377.631
1750.0000	377.652
1750.5000	377.657
1751.0000	377.735
1751.5000	377.703
1752.0000	377.676
1752.5000	377.669
1753.0000	377.56
1753.5000	377.688
1754.0000	377.725
1754.5000	377.805
1755.0000	377.964
1755.5000	377.939
1756.0000	377.947
1756.5000	377.894
1757.0000	377.836
1757.5000	377.801
1758.0000	377.836
1758.5000	377.853
1759.0000	377.869
1759.5000	377.933
1760.0000	377.889
1760.5000	377.91
1761.0000	377.979
1761.5000	377.98
1762.0000	378.053
1762.5000	378.056
1763.0000	378.104
1763.5000	378.096
1764.0000	378.048
1764.5000	378.139
1765.0000	378.065
1765.5000	378.067
1766.0000	378.185
1766.5000	378.213
1767.0000	378.201
1767.5000	378.239
1768.0000	378.168
1768.5000	378.209
1769.0000	378.294
1769.5000	378.264
1770.0000	378.271
1770.5000	378.259
1771.0000	378.237
1771.5000	378.326
1772.0000	378.42
1772.5000	378.418
1773.0000	378.434
1773.5000	378.445
1774.0000	378.397
1774.5000	378.435
1775.0000	378.488
1775.5000	378.48
1776.0000	378.485
1776.5000	378.458
1777.0000	378.434
1777.5000	378.44
1778.0000	378.484
1778.5000	378.509
1779.0000	378.537
1779.5000	378.541
1780.0000	378.536
1780.5000	378.55
1781.0000	378.611
1781.5000	378.62
1782.0000	378.554
1782.5000	378.596
1783.0000	378.65
1783.5000	378.721
1784.0000	378.825
1784.5000	378.747
1785.0000	378.774
1785.5000	378.704
1786.0000	378.674
1786.5000	378.777
1787.0000	378.694
1787.5000	378.772
1788.0000	378.8
1788.5000	378.839
1789.0000	378.808
1789.5000	378.811
1790.0000	378.912
1790.5000	378.865
1791.0000	378.859
1791.5000	378.896
1792.0000	378.837
1792.5000	378.924
1793.0000	378.984
1793.5000	378.987
1794.0000	378.981
1794.5000	378.957
1795.0000	379.063
1795.5000	379.075
1796.0000	379.01
1796.5000	379.01
1797.0000	378.934
1797.5000	378.91
1798.0000	379.063
1798.5000	379.083
1799.0000	379.132
1799.5000	379.186
1800.0000	379.171
1800.5000	379.228
1801.0000	379.183
1801.5000	379.225
1802.0000	379.21
1802.5000	379.14
1803.0000	379.238
1803.5000	379.255
1804.0000	379.296
1804.5000	379.333
1805.0000	379.362
1805.5000	379.341
1806.0000	379.407
1806.5000	379.545
1807.0000	379.491
1807.5000	379.542
1808.0000	379.477
1808.5000	379.335
1809.0000	379.392
1809.5000	379.33
1810.0000	379.41
1810.5000	379.453
1811.0000	379.422
1811.5000	379.459
1812.0000	379.48
1812.5000	379.544
1813.0000	379.514
1813.5000	379.558
1814.0000	379.574
1814.5000	379.607
1815.0000	379.646
1815.5000	379.672
1816.0000	379.644
1816.5000	379.641
1817.0000	379.701
1817.5000	379.653
1818.0000	379.666
1818.5000	379.597
1819.0000	379.613
1819.5000	379.658
1820.0000	379.632
1820.5000	379.742
1821.0000	379.677
1821.5000	379.668
1822.0000	379.69
1822.5000	379.711
1823.0000	379.789
1823.5000	379.826
1824.0000	379.858
1824.5000	379.872
1825.0000	379.897
1825.5000	379.944
1826.0000	379.975
1826.5000	379.911
1827.0000	379.901
1827.5000	379.908
1828.0000	379.909
1828.5000	379.937
1829.0000	379.984
1829.5000	379.963
1830.0000	380.043
1830.5000	380.06
1831.0000	380.057
1831.5000	380.194
1832.0000	380.166
1832.5000	380.182
1833.0000	380.185
1833.5000	380.071
1834.0000	380.093
1834.5000	380.103
1835.0000	380.071
1835.5000	380.1
1836.0000	380.097
1836.5000	380.195
1837.0000	380.25
1837.5000	380.264
1838.0000	380.27
1838.5000	380.196
1839.0000	380.215
1839.5000	380.258
1840.0000	380.252
1840.5000	380.283
1841.0000	380.301
1841.5000	380.271
1842.0000	380.342
1842.5000	380.354
1843.0000	380.325
1843.5000	380.339
1844.0000	380.296
1844.5000	380.305
1845.0000	380.295
1845.5000	380.294
1846.0000	380.26
1846.5000	380.292
1847.0000	380.444
1847.5000	380.48
1848.0000	380.549
1848.5000	380.542
1849.0000	380.506
1849.5000	380.448
1850.0000	380.521
1850.5000	380.514
1851.0000	380.486
1851.5000	380.618
1852.0000	380.538
1852.5000	380.555
1853.0000	380.548
1853.5000	380.505
1854.0000	380.587
1854.5000	380.617
1855.0000	380.639
1855.5000	380.688
1856.0000	380.729
1856.5000	380.772
1857.0000	380.846
1857.5000	380.916
1858.0000	380.813
1858.5000	380.752
1859.0000	380.771
1859.5000	380.791
1860.0000	380.857
1860.5000	381.012
1861.0000	381.069
1861.5000	381.073
1862.0000	381.04
1862.5000	380.977
1863.0000	380.959
1863.5000	380.876
1864.0000	380.926
1864.5000	380.937
1865.0000	380.915
1865.5000	380.913
1866.0000	380.964
1866.5000	380.916
1867.0000	380.954
1867.5000	381.042
1868.0000	381.011
1868.5000	381.079
1869.0000	381.029
1869.5000	380.995
1870.0000	381.065
1870.5000	381.052
1871.0000	381.107
1871.5000	381.142
1872.0000	381.113
1872.5000	381.149
1873.0000	381.07
1873.5000	381.073
1874.0000	381.089
1874.5000	381.128
1875.0000	381.214
1875.5000	381.228
1876.0000	381.271
1876.5000	381.304
1877.0000	381.329
1877.5000	381.381
1878.0000	381.397
1878.5000	381.351
1879.0000	381.367
1879.5000	381.349
1880.0000	381.299
1880.5000	381.265
1881.0000	381.267
1881.5000	381.248
1882.0000	381.309
1882.5000	381.391
1883.0000	381.473
1883.5000	381.503
1884.0000	381.504
1884.5000	381.516
1885.0000	381.475
1885.5000	381.453
1886.0000	381.441
1886.5000	381.425
1887.0000	381.407
1887.5000	381.405
1888.0000	381.476
1888.5000	381.49
1889.0000	381.561
1889.5000	381.673
1890.0000	381.644
1890.5000	381.66
1891.0000	381.666
1891.5000	381.606
1892.0000	381.597
1892.5000	381.717
1893.0000	381.742
1893.5000	381.828
1894.0000	381.878
1894.5000	381.752
1895.0000	381.745
1895.5000	381.715
1896.0000	381.764
1896.5000	381.82
1897.0000	381.781
1897.5000	381.86
1898.0000	381.839
1898.5000	381.837
1899.0000	381.884
1899.5000	381.842
1900.0000	381.821
1900.5000	381.842
1901.0000	381.856
1901.5000	381.8
1902.0000	381.821
1902.5000	381.87
1903.0000	381.897
1903.5000	381.996
1904.0000	382.083
1904.5000	382.112
1905.0000	382.107
1905.5000	382.12
1906.0000	382.097
1906.5000	381.996
1907.0000	381.994
1907.5000	382.037
1908.0000	382.025
1908.5000	382.13
1909.0000	382.137
1909.5000	382.092
1910.0000	382.117
1910.5000	382.085
1911.0000	382.125
1911.5000	382.174
1912.0000	382.138
1912.5000	382.165
1913.0000	382.21
1913.5000	382.205
1914.0000	382.228
1914.5000	382.295
1915.0000	382.256
1915.5000	382.303
1916.0000	382.289
1916.5000	382.209
1917.0000	382.232
1917.5000	382.207
1918.0000	382.25
1918.5000	382.248
1919.0000	382.311
1919.5000	382.315
1920.0000	382.329
1920.5000	382.427
1921.0000	382.338
1921.5000	382.381
1922.0000	382.4
1922.5000	382.44
1923.0000	382.461
1923.5000	382.419
1924.0000	382.459
1924.5000	382.355
1925.0000	382.409
1925.5000	382.399
1926.0000	382.412
1926.5000	382.547
1927.0000	382.496
1927.5000	382.52
1928.0000	382.564
1928.5000	382.515
1929.0000	382.579
1929.5000	382.645
1930.0000	382.566
1930.5000	382.619
1931.0000	382.677
1931.5000	382.657
1932.0000	382.788
1932.5000	382.739
1933.0000	382.709
1933.5000	382.73
1934.0000	382.689
1934.5000	382.799
1935.0000	382.884
1935.5000	382.932
1936.0000	382.879
1936.5000	382.838
1937.0000	382.74
1937.5000	382.637
1938.0000	382.666
1938.5000	382.71
1939.0000	382.744
1939.5000	382.799
1940.0000	382.826
1940.5000	382.763
1941.0000	382.805
1941.5000	382.852
1942.0000	382.861
1942.5000	382.919
1943.0000	382.891
1943.5000	382.855
1944.0000	382.851
1944.5000	382.868
1945.0000	382.827
1945.5000	382.901
1946.0000	382.945
1946.5000	382.93
1947.0000	383.033
1947.5000	383.038
1948.0000	383.052
1948.5000	383.109
1949.0000	383.15
1949.5000	383.082
1950.0000	383.099
1950.5000	383.057
1951.0000	383.016
1951.5000	382.985
1952.0000	382.959
1952.5000	382.949
1953.0000	382.987
1953.5000	383.083
1954.0000	383.19
1954.5000	383.225
1955.0000	383.258
1955.5000	383.337
1956.0000	383.31
1956.5000	383.345
1957.0000	383.288
1957.5000	383.254
1958.0000	383.216
1958.5000	383.231
1959.0000	383.261
1959.5000	383.244
1960.0000	383.252
1960.5000	383.263
1961.0000	383.348
1961.5000	383.371
1962.0000	383.383
1962.5000	383.341
1963.0000	383.344
1963.5000	383.335
1964.0000	383.404
1964.5000	383.409
1965.0000	383.395
1965.5000	383.476
1966.0000	383.41
1966.5000	383.554
1967.0000	383.539
1967.5000	383.52
1968.0000	383.602
1968.5000	383.51
1969.0000	383.532
1969.5000	383.447
1970.0000	383.466
1970.5000	383.491
1971.0000	383.552
1971.5000	383.673
1972.0000	383.71
1972.5000	383.751
1973.0000	383.64
1973.5000	383.656
1974.0000	383.629
1974.5000	383.568
1975.0000	383.62
1975.5000	383.66
1976.0000	383.682
1976.5000	383.753
1977.0000	383.741
1977.5000	383.789
1978.0000	383.823
1978.5000	383.779
1979.0000	383.851
1979.5000	383.785
1980.0000	383.777
1980.5000	383.854
1981.0000	383.815
1981.5000	383.828
1982.0000	383.89
1982.5000	383.899
1983.0000	383.99
1983.5000	384.001
1984.0000	383.943
1984.5000	383.999
1985.0000	383.974
1985.5000	383.95
1986.0000	383.983
1986.5000	383.959
1987.0000	384.024
1987.5000	384.028
1988.0000	384.012
1988.5000	384.049
1989.0000	384.025
1989.5000	384.039
1990.0000	384.044
1990.5000	383.996
1991.0000	383.988
1991.5000	384.025
1992.0000	384.061
1992.5000	384.047
1993.0000	384.098
1993.5000	384.121
1994.0000	384.161
1994.5000	384.154
1995.0000	384.139
1995.5000	384.162
1996.0000	384.167
1996.5000	384.232
1997.0000	384.182
1997.5000	384.177
1998.0000	384.169
1998.5000	384.152
1999.0000	384.193
1999.5000	384.281
2000.0000	384.329
2000.5000	384.361
2001.0000	384.411
2001.5000	384.373
2002.0000	384.352
2002.5000	384.33
2003.0000	384.266
2003.5000	384.294
2004.0000	384.276
2004.5000	384.295
2005.0000	384.323
2005.5000	384.293
2006.0000	384.288
2006.5000	384.311
2007.0000	384.392
2007.5000	384.384
2008.0000	384.444
2008.5000	384.439
2009.0000	384.447
2009.5000	384.463
2010.0000	384.441
2010.5000	384.516
2011.0000	384.532
2011.5000	384.614
2012.0000	384.65
2012.5000	384.612
2013.0000	384.616
2013.5000	384.585
2014.0000	384.553
2014.5000	384.611
2015.0000	384.609
2015.5000	384.649
2016.0000	384.693
2016.5000	384.718
2017.0000	384.725
2017.5000	384.726
2018.0000	384.74
2018.5000	384.774
2019.0000	384.809
2019.5000	384.823
2020.0000	384.821
2020.5000	384.776
2021.0000	384.77
2021.5000	384.729
2022.0000	384.786
2022.5000	384.829
2023.0000	384.873
2023.5000	384.958
2024.0000	384.93
2024.5000	384.956
2025.0000	384.913
2025.5000	384.823
2026.0000	384.906
2026.5000	384.922
2027.0000	384.928
2027.5000	385.005
2028.0000	384.976
2028.5000	384.955
2029.0000	385.048
2029.5000	385.035
2030.0000	385.019
2030.5000	385.026
2031.0000	385.038
2031.5000	385.065
2032.0000	385.135
2032.5000	385.121
2033.0000	385.155
2033.5000	385.139
2034.0000	385.108
2034.5000	385.21
2035.0000	385.171
2035.5000	385.254
2036.0000	385.269
2036.5000	385.204
2037.0000	385.203
2037.5000	385.213
2038.0000	385.232
2038.5000	385.27
2039.0000	385.274
2039.5000	385.215
2040.0000	385.176
2040.5000	385.219
2041.0000	385.257
2041.5000	385.296
2042.0000	385.355
2042.5000	385.327
2043.0000	385.259
2043.5000	385.299
2044.0000	385.332
2044.5000	385.372
2045.0000	385.511
2045.5000	385.548
2046.0000	385.507
2046.5000	385.517
2047.0000	385.383
2047.5000	385.463
2048.0000	385.458
2048.5000	385.422
2049.0000	385.518
2049.5000	385.469
2050.0000	385.57
2050.5000	385.644
2051.0000	385.631
2051.5000	385.598
2052.0000	385.626
2052.5000	385.569
2053.0000	385.614
2053.5000	385.651
2054.0000	385.651
2054.5000	385.702
2055.0000	385.767
2055.5000	385.752
2056.0000	385.806
2056.5000	385.743
2057.0000	385.705
2057.5000	385.715
2058.0000	385.602
2058.5000	385.754
2059.0000	385.856
2059.5000	385.891
2060.0000	385.891
2060.5000	385.843
2061.0000	385.797
2061.5000	385.82
2062.0000	385.833
2062.5000	385.792
2063.0000	385.761
2063.5000	385.812
2064.0000	385.964
2064.5000	385.966
2065.0000	386.005
2065.5000	385.919
2066.0000	385.81
2066.5000	385.976
2067.0000	385.961
2067.5000	386.024
2068.0000	386.099
2068.5000	385.986
2069.0000	386.009
2069.5000	386.055
2070.0000	386.02
2070.5000	386.034
2071.0000	386.084
2071.5000	386.063
2072.0000	386.126
2072.5000	386.186
2073.0000	386.201
2073.5000	386.155
2074.0000	386.183
2074.5000	386.16
2075.0000	386.144
2075.5000	386.195
2076.0000	386.185
2076.5000	386.216
2077.0000	386.169
2077.5000	386.201
2078.0000	386.148
2078.5000	386.206
2079.0000	386.275
2079.5000	386.342
2080.0000	386.464
2080.5000	386.402
2081.0000	386.347
2081.5000	386.345
2082.0000	386.392
2082.5000	386.4
2083.0000	386.497
2083.5000	386.456
2084.0000	386.351
2084.5000	386.377
2085.0000	386.444
2085.5000	386.532
2086.0000	386.561
2086.5000	386.645
