TITLE	
DATA TYPE	
ORIGIN	JASCO
OWNER	
DATE	21/10/27
TIME	15:28:39
SPECTROMETER/DATA SYSTEM	
RESOLUTION	
DELTAX	1
XUNITS	SEC
YUNITS	INTENSITY
FIRSTX	0.0000
LASTX	2701.0000
NPOINTS	2702
FIRSTY	377.20392
MAXY	758.89624
MINY	-253.78416
XYDATA
0.0000	377.204
1.0000	380.844
2.0000	380.065
3.0000	381.23
4.0000	380.676
5.0000	378.775
6.0000	376.957
7.0000	377.089
8.0000	382.182
9.0000	381.403
10.0000	380.354
11.0000	380.049
12.0000	379.456
13.0000	385.568
14.0000	388.977
15.0000	383.765
16.0000	382.673
17.0000	384.002
18.0000	383.425
19.0000	381.827
20.0000	382.039
21.0000	386.771
22.0000	385.373
23.0000	381.676
24.0000	380.484
25.0000	381.086
26.0000	381.315
27.0000	380.375
28.0000	379.857
29.0000	380.535
30.0000	382.264
31.0000	383.149
32.0000	387.513
33.0000	386.936
34.0000	383.416
35.0000	383.713
36.0000	382.327
37.0000	383.465
38.0000	385.571
39.0000	381.938
40.0000	380.346
41.0000	384.527
42.0000	383.315
43.0000	380.476
44.0000	385.395
45.0000	384.879
46.0000	380.543
47.0000	383.272
48.0000	384.584
49.0000	386.63
50.0000	386.134
51.0000	383.726
52.0000	382.683
53.0000	380.954
54.0000	381.819
55.0000	381.856
56.0000	380.291
57.0000	382.784
58.0000	387.454
59.0000	388.67
60.0000	385.699
61.0000	377.972
62.0000	377.888
63.0000	383.848
64.0000	386.258
65.0000	386.549
66.0000	383.572
67.0000	381.057
68.0000	379.597
69.0000	380.981
70.0000	383.723
71.0000	383.574
72.0000	384.686
73.0000	384.306
74.0000	384.941
75.0000	385.495
76.0000	380.16
77.0000	381.034
78.0000	385.278
79.0000	385.906
80.0000	384.828
81.0000	382.538
82.0000	383.568
83.0000	381.836
84.0000	381.03
85.0000	384.5
86.0000	384.65
87.0000	384.276
88.0000	381.557
89.0000	382.666
90.0000	383.69
91.0000	382.165
92.0000	385.769
93.0000	387.068
94.0000	383.897
95.0000	381.414
96.0000	384.025
97.0000	382.925
98.0000	380.219
99.0000	382.196
100.0000	381.703
101.0000	381.113
102.0000	382.232
103.0000	383.312
104.0000	384.327
105.0000	384.378
106.0000	382.383
107.0000	384.228
108.0000	383.077
109.0000	379.51
110.0000	383.067
111.0000	383.061
112.0000	383.034
113.0000	386.553
114.0000	384.53
115.0000	382.665
116.0000	384.812
117.0000	384.562
118.0000	385.396
119.0000	386.226
120.0000	382.865
121.0000	383.606
122.0000	386.044
123.0000	382.432
124.0000	380.723
125.0000	383.203
126.0000	383.72
127.0000	384.293
128.0000	355.65
129.0000	155.407
130.0000	-253.784
131.0000	-211.57
132.0000	375.126
133.0000	344.467
134.0000	305.493
135.0000	299.718
136.0000	298.263
137.0000	298.957
138.0000	301.518
139.0000	300.632
140.0000	299.415
141.0000	300.545
142.0000	302.144
143.0000	302.971
144.0000	302.338
145.0000	306.329
146.0000	309.451
147.0000	309.613
148.0000	308.072
149.0000	306.427
150.0000	305.691
151.0000	307.47
152.0000	314.302
153.0000	314.622
154.0000	312.789
155.0000	312.212
156.0000	311.716
157.0000	312.763
158.0000	312.138
159.0000	311.874
160.0000	313.891
161.0000	317.741
162.0000	314.844
163.0000	314.13
164.0000	314.223
165.0000	312.366
166.0000	314.728
167.0000	313.891
168.0000	309.019
169.0000	309.25
170.0000	312.977
171.0000	311.268
172.0000	311.846
173.0000	316.575
174.0000	317.333
175.0000	315.748
176.0000	316.18
177.0000	316.447
178.0000	319.373
179.0000	318.843
180.0000	316.317
181.0000	316.936
182.0000	319.149
183.0000	319.55
184.0000	322.071
185.0000	324.571
186.0000	323.682
187.0000	326.447
188.0000	326.242
189.0000	324.76
190.0000	326.269
191.0000	326.036
192.0000	324.667
193.0000	328.252
194.0000	330.636
195.0000	328.428
196.0000	327.591
197.0000	330.689
198.0000	333.346
199.0000	332.476
200.0000	330.888
201.0000	327.949
202.0000	330.912
203.0000	333.308
204.0000	334.029
205.0000	336.517
206.0000	334.921
207.0000	337.067
208.0000	338.666
209.0000	338.331
210.0000	336.086
211.0000	336.311
212.0000	340.416
213.0000	340.988
214.0000	341.009
215.0000	340.931
216.0000	341.226
217.0000	341.047
218.0000	342.677
219.0000	345.77
220.0000	347.616
221.0000	347.343
222.0000	343.855
223.0000	344.471
224.0000	345.293
225.0000	345.97
226.0000	346.875
227.0000	349.536
228.0000	353.509
229.0000	351.276
230.0000	349.069
231.0000	353.704
232.0000	356.072
233.0000	355.407
234.0000	357.414
235.0000	356.41
236.0000	356.532
237.0000	355.978
238.0000	356.78
239.0000	359.29
240.0000	359.84
241.0000	356.268
242.0000	358.449
243.0000	361.912
244.0000	362.138
245.0000	365.288
246.0000	364.908
247.0000	364.514
248.0000	363.915
249.0000	364.902
250.0000	365.467
251.0000	368.558
252.0000	370.965
253.0000	370.592
254.0000	369.334
255.0000	369.621
256.0000	369.974
257.0000	371.955
258.0000	371.999
259.0000	369.707
260.0000	370.006
261.0000	370.375
262.0000	374.189
263.0000	377.052
264.0000	378.389
265.0000	373.611
266.0000	374.357
267.0000	379.907
268.0000	379.632
269.0000	383.183
270.0000	383.99
271.0000	381.598
272.0000	379.625
273.0000	380.183
274.0000	380.577
275.0000	382.345
276.0000	385.982
277.0000	384.063
278.0000	385.15
279.0000	385.664
280.0000	383.292
281.0000	386.044
282.0000	389.103
283.0000	388.756
284.0000	388.61
285.0000	391.034
286.0000	391.15
287.0000	392.209
288.0000	394.059
289.0000	390.472
290.0000	389.483
291.0000	392.022
292.0000	397.566
293.0000	396.727
294.0000	396.155
295.0000	399.785
296.0000	399.464
297.0000	399.279
298.0000	397.476
299.0000	398.504
300.0000	399.53
301.0000	397.21
302.0000	397.32
303.0000	400.447
304.0000	403.38
305.0000	405.061
306.0000	404.584
307.0000	404.234
308.0000	404.538
309.0000	404.144
310.0000	405.857
311.0000	409.757
312.0000	409.997
313.0000	407.535
314.0000	407.486
315.0000	404.57
316.0000	407.891
317.0000	412.203
318.0000	410.154
319.0000	411.33
320.0000	412.156
321.0000	409.885
322.0000	410.421
323.0000	415.832
324.0000	416.123
325.0000	414.778
326.0000	416.856
327.0000	416.748
328.0000	413.949
329.0000	414.424
330.0000	416.528
331.0000	414.935
332.0000	418.611
333.0000	421.166
334.0000	420.127
335.0000	419.965
336.0000	414.769
337.0000	415.83
338.0000	420.927
339.0000	422.888
340.0000	425.382
341.0000	422.487
342.0000	418.728
343.0000	423.795
344.0000	424.218
345.0000	420.887
346.0000	423.935
347.0000	423.574
348.0000	421.864
349.0000	424.24
350.0000	424.72
351.0000	425.697
352.0000	431.167
353.0000	430.087
354.0000	428.666
355.0000	433.451
356.0000	432.81
357.0000	431.643
358.0000	434.771
359.0000	433.668
360.0000	432.72
361.0000	435.423
362.0000	434.113
363.0000	430.534
364.0000	431.728
365.0000	433.579
366.0000	434.918
367.0000	434.673
368.0000	434.688
369.0000	438.508
370.0000	439.439
371.0000	439.212
372.0000	436.926
373.0000	438.68
374.0000	443.2
375.0000	440.734
376.0000	441.794
377.0000	445.758
378.0000	444.006
379.0000	443.742
380.0000	441.697
381.0000	440.258
382.0000	442.743
383.0000	439.679
384.0000	443.668
385.0000	446.269
386.0000	440.393
387.0000	444.33
388.0000	449.531
389.0000	448.253
390.0000	448.848
391.0000	449.006
392.0000	447.386
393.0000	450.617
394.0000	454.592
395.0000	455.622
396.0000	457.436
397.0000	454.785
398.0000	452.257
399.0000	457.172
400.0000	455.877
401.0000	450.009
402.0000	449.267
403.0000	450.702
404.0000	452.507
405.0000	454.808
406.0000	457.916
407.0000	456.787
408.0000	451.608
409.0000	454.041
410.0000	457.869
411.0000	458.042
412.0000	459.157
413.0000	459.233
414.0000	456.524
415.0000	456.547
416.0000	459.78
417.0000	461.33
418.0000	460.069
419.0000	459.235
420.0000	460.519
421.0000	458.735
422.0000	459.415
423.0000	459.502
424.0000	459.217
425.0000	463.036
426.0000	466.24
427.0000	466.304
428.0000	466.285
429.0000	468.096
430.0000	468.338
431.0000	463.109
432.0000	460.73
433.0000	466.874
434.0000	466.925
435.0000	464.729
436.0000	466.963
437.0000	468.659
438.0000	470.251
439.0000	471.364
440.0000	471.097
441.0000	470.929
442.0000	465.212
443.0000	466.391
444.0000	473.026
445.0000	474.718
446.0000	476.854
447.0000	475.687
448.0000	475.763
449.0000	472.046
450.0000	468.171
451.0000	474.308
452.0000	477.229
453.0000	472.556
454.0000	471.818
455.0000	473.295
456.0000	475.21
457.0000	478.045
458.0000	478.195
459.0000	474.832
460.0000	474.675
461.0000	477.676
462.0000	479.885
463.0000	479.023
464.0000	477.544
465.0000	479.015
466.0000	480.96
467.0000	482.451
468.0000	484.967
469.0000	486.863
470.0000	486.061
471.0000	484.55
472.0000	481.185
473.0000	479.956
474.0000	483.32
475.0000	484.384
476.0000	484.324
477.0000	486.408
478.0000	488.635
479.0000	489.252
480.0000	484.944
481.0000	482.494
482.0000	486.823
483.0000	490.755
484.0000	491.698
485.0000	488.453
486.0000	486.99
487.0000	489.034
488.0000	491.293
489.0000	493.807
490.0000	489.748
491.0000	491.269
492.0000	492.761
493.0000	488.045
494.0000	491.618
495.0000	496.961
496.0000	494.969
497.0000	493.352
498.0000	493.536
499.0000	491.093
500.0000	496.404
501.0000	497.993
502.0000	492.829
503.0000	493.816
504.0000	492.075
505.0000	494.158
506.0000	498.143
507.0000	496.63
508.0000	496.106
509.0000	498.177
510.0000	501.628
511.0000	499.059
512.0000	495.321
513.0000	496.02
514.0000	498.049
515.0000	500.589
516.0000	501.191
517.0000	502.598
518.0000	503.155
519.0000	503.361
520.0000	502.124
521.0000	500.664
522.0000	503.757
523.0000	502.822
524.0000	503.766
525.0000	505.717
526.0000	503.127
527.0000	500.258
528.0000	502.612
529.0000	504.05
530.0000	503.201
531.0000	508.133
532.0000	508.379
533.0000	508.796
534.0000	511.244
535.0000	510.032
536.0000	509.696
537.0000	509.256
538.0000	505.017
539.0000	500.41
540.0000	506.129
541.0000	510.576
542.0000	508.212
543.0000	510.994
544.0000	512.08
545.0000	513.011
546.0000	513.272
547.0000	512.537
548.0000	514.237
549.0000	515.422
550.0000	515.097
551.0000	514.634
552.0000	514.765
553.0000	515.627
554.0000	515.246
555.0000	516.203
556.0000	519.173
557.0000	520.616
558.0000	521.575
559.0000	524.472
560.0000	524.774
561.0000	521.816
562.0000	521.284
563.0000	518.235
564.0000	520.092
565.0000	522.569
566.0000	519.876
567.0000	520.802
568.0000	520.859
569.0000	522.723
570.0000	521.919
571.0000	519.35
572.0000	524.761
573.0000	525.238
574.0000	523.535
575.0000	519.828
576.0000	517.473
577.0000	524.88
578.0000	525.88
579.0000	521.319
580.0000	527.288
581.0000	530.068
582.0000	526.889
583.0000	523.625
584.0000	522.128
585.0000	528.247
586.0000	528.268
587.0000	525.141
588.0000	526.388
589.0000	530.411
590.0000	531.915
591.0000	531.483
592.0000	531.771
593.0000	531.06
594.0000	531.554
595.0000	528.736
596.0000	530.985
597.0000	533.152
598.0000	530.129
599.0000	530.565
600.0000	528.664
601.0000	530.772
602.0000	534.517
603.0000	535.118
604.0000	535.282
605.0000	535.562
606.0000	535.697
607.0000	536.602
608.0000	536.386
609.0000	534.065
610.0000	533.97
611.0000	531.946
612.0000	534.696
613.0000	540.619
614.0000	538.063
615.0000	537.82
616.0000	537.704
617.0000	535.765
618.0000	536.863
619.0000	537.823
620.0000	535.708
621.0000	534.652
622.0000	542.031
623.0000	540.903
624.0000	538.258
625.0000	539.811
626.0000	541.078
627.0000	543.009
628.0000	541.298
629.0000	544.965
630.0000	546.137
631.0000	542.737
632.0000	543.522
633.0000	544.694
634.0000	546.757
635.0000	546.051
636.0000	545.27
637.0000	543.889
638.0000	542.88
639.0000	544.404
640.0000	543.283
641.0000	542.894
642.0000	546.072
643.0000	546.956
644.0000	547.867
645.0000	550.475
646.0000	545.778
647.0000	542.109
648.0000	545.931
649.0000	549.618
650.0000	550.2
651.0000	552.532
652.0000	554.825
653.0000	555.231
654.0000	555.698
655.0000	553.736
656.0000	555.35
657.0000	556.683
658.0000	553.044
659.0000	552.922
660.0000	553.442
661.0000	556.971
662.0000	556.351
663.0000	553.007
664.0000	555.116
665.0000	557.082
666.0000	558.268
667.0000	559.115
668.0000	555.464
669.0000	552.446
670.0000	556.449
671.0000	561.35
672.0000	560.25
673.0000	557.276
674.0000	556.149
675.0000	560.149
676.0000	558.159
677.0000	554.96
678.0000	559.957
679.0000	563.979
680.0000	562.985
681.0000	559.366
682.0000	558.323
683.0000	559.616
684.0000	562.337
685.0000	564.031
686.0000	561.814
687.0000	559.933
688.0000	559.749
689.0000	560.383
690.0000	565.113
691.0000	565.981
692.0000	561.836
693.0000	565.592
694.0000	570.543
695.0000	566.351
696.0000	566.046
697.0000	562.566
698.0000	563.098
699.0000	568.573
700.0000	568.645
701.0000	570.136
702.0000	568.937
703.0000	566.823
704.0000	568.823
705.0000	571.069
706.0000	567.866
707.0000	567.397
708.0000	571.615
709.0000	571.971
710.0000	570.035
711.0000	572.877
712.0000	574.09
713.0000	573.495
714.0000	569.031
715.0000	566.747
716.0000	570.479
717.0000	570.397
718.0000	571.999
719.0000	575.427
720.0000	575.691
721.0000	573.484
722.0000	577.553
723.0000	573.546
724.0000	568.323
725.0000	575.954
726.0000	579.648
727.0000	579.733
728.0000	578.031
729.0000	573.355
730.0000	574.961
731.0000	576.412
732.0000	576.776
733.0000	580.182
734.0000	576.717
735.0000	575.028
736.0000	576.913
737.0000	577.337
738.0000	582.162
739.0000	580.416
740.0000	577.155
741.0000	579.319
742.0000	577.852
743.0000	578.581
744.0000	580.121
745.0000	579.583
746.0000	579.184
747.0000	576.638
748.0000	578.944
749.0000	584.572
750.0000	586.082
751.0000	584.498
752.0000	583.445
753.0000	582.389
754.0000	583.025
755.0000	581.669
756.0000	580.803
757.0000	583.975
758.0000	580.478
759.0000	580.56
760.0000	583.479
761.0000	583.652
762.0000	584.059
763.0000	586.55
764.0000	588.219
765.0000	586.157
766.0000	588.11
767.0000	587.928
768.0000	583.958
769.0000	582.06
770.0000	582.525
771.0000	585.162
772.0000	585.004
773.0000	583.963
774.0000	586.43
775.0000	588.912
776.0000	592.934
777.0000	592.84
778.0000	592.027
779.0000	589.511
780.0000	588.902
781.0000	591.188
782.0000	592.319
783.0000	592.077
784.0000	592.01
785.0000	592.4
786.0000	592.584
787.0000	597.238
788.0000	595.312
789.0000	595.106
790.0000	599.532
791.0000	594.435
792.0000	591.739
793.0000	591.864
794.0000	592.763
795.0000	595.854
796.0000	595.818
797.0000	593.084
798.0000	594.198
799.0000	600.38
800.0000	596.447
801.0000	597.463
802.0000	600.666
803.0000	599.018
804.0000	596.199
805.0000	594.541
806.0000	596.69
807.0000	598.338
808.0000	599.617
809.0000	599.568
810.0000	600.955
811.0000	598.085
812.0000	596.271
813.0000	599.345
814.0000	594.925
815.0000	593.523
816.0000	595.234
817.0000	595.685
818.0000	600.059
819.0000	598.734
820.0000	596.579
821.0000	600.961
822.0000	602.662
823.0000	596.861
824.0000	597.607
825.0000	602.57
826.0000	598.539
827.0000	595.807
828.0000	597.855
829.0000	598.756
830.0000	600.887
831.0000	600.269
832.0000	598.729
833.0000	601.414
834.0000	605.078
835.0000	606.609
836.0000	605.614
837.0000	605.802
838.0000	606.801
839.0000	606.58
840.0000	606.236
841.0000	605.755
842.0000	606.241
843.0000	605.675
844.0000	605.054
845.0000	605.021
846.0000	606.214
847.0000	608.424
848.0000	609.106
849.0000	610.565
850.0000	611.354
851.0000	608.936
852.0000	605.43
853.0000	603.791
854.0000	605.265
855.0000	606.787
856.0000	605.943
857.0000	603.588
858.0000	605.669
859.0000	608.831
860.0000	607.702
861.0000	607.993
862.0000	608.945
863.0000	607.482
864.0000	609.307
865.0000	613.868
866.0000	614.456
867.0000	611.39
868.0000	608.13
869.0000	610.596
870.0000	609.813
871.0000	607.683
872.0000	611.544
873.0000	615.016
874.0000	616.298
875.0000	613.001
876.0000	610.585
877.0000	614.656
878.0000	620.443
879.0000	619.908
880.0000	614.344
881.0000	613.619
882.0000	611.43
883.0000	610.708
884.0000	616.511
885.0000	614.471
886.0000	610.62
887.0000	614.712
888.0000	619.33
889.0000	616.643
890.0000	616.681
891.0000	621.487
892.0000	621.243
893.0000	622.496
894.0000	625.961
895.0000	624.984
896.0000	620.887
897.0000	622.818
898.0000	619.916
899.0000	617.578
900.0000	619.639
901.0000	620.337
902.0000	622.854
903.0000	619.186
904.0000	617.729
905.0000	621.715
906.0000	621.011
907.0000	622.315
908.0000	622.51
909.0000	622.934
910.0000	629.44
911.0000	629.568
912.0000	628.094
913.0000	626.555
914.0000	622.668
915.0000	622.367
916.0000	626.909
917.0000	627.74
918.0000	624.175
919.0000	622.915
920.0000	625.402
921.0000	625.42
922.0000	625.123
923.0000	626.877
924.0000	629.125
925.0000	633.023
926.0000	633.215
927.0000	627.037
928.0000	628.131
929.0000	634.751
930.0000	633.91
931.0000	631.475
932.0000	632.02
933.0000	632.121
934.0000	635.018
935.0000	637.973
936.0000	633.13
937.0000	627.544
938.0000	629.992
939.0000	637.537
940.0000	635.819
941.0000	635.206
942.0000	638.259
943.0000	636.392
944.0000	636.258
945.0000	639.336
946.0000	639.151
947.0000	633.18
948.0000	631.127
949.0000	632.582
950.0000	636.479
951.0000	638.879
952.0000	637.05
953.0000	638.843
954.0000	637.992
955.0000	638.57
956.0000	640.343
957.0000	640.398
958.0000	641.804
959.0000	638.446
960.0000	636.226
961.0000	639.345
962.0000	644.557
963.0000	640.593
964.0000	635.635
965.0000	636.344
966.0000	637.073
967.0000	639.914
968.0000	641.84
969.0000	642.241
970.0000	641.673
971.0000	642.113
972.0000	643.792
973.0000	644.174
974.0000	644.376
975.0000	643.175
976.0000	641.195
977.0000	645.682
978.0000	646.864
979.0000	642.987
980.0000	644.99
981.0000	644.29
982.0000	645.867
983.0000	645.109
984.0000	641.294
985.0000	643.005
986.0000	643.073
987.0000	644.007
988.0000	649.633
989.0000	647.696
990.0000	644.841
991.0000	645.097
992.0000	643.658
993.0000	642.898
994.0000	641.394
995.0000	642.149
996.0000	648.911
997.0000	649.236
998.0000	645.133
999.0000	645.745
1000.0000	643.337
1001.0000	641.842
1002.0000	640.039
1003.0000	644.039
1004.0000	649.125
1005.0000	646.233
1006.0000	648.252
1007.0000	647.691
1008.0000	645.531
1009.0000	645.276
1010.0000	645.249
1011.0000	645.479
1012.0000	643.441
1013.0000	642.828
1014.0000	644.908
1015.0000	651.273
1016.0000	654.269
1017.0000	657.136
1018.0000	653.741
1019.0000	652.998
1020.0000	651.644
1021.0000	648.943
1022.0000	652.319
1023.0000	653.477
1024.0000	653.216
1025.0000	652.873
1026.0000	653.204
1027.0000	652.524
1028.0000	652.08
1029.0000	654.155
1030.0000	657.446
1031.0000	655.155
1032.0000	654.642
1033.0000	655.145
1034.0000	656.713
1035.0000	658.386
1036.0000	654.96
1037.0000	652.452
1038.0000	652.706
1039.0000	655.45
1040.0000	658.268
1041.0000	658.224
1042.0000	661.053
1043.0000	657.809
1044.0000	652.702
1045.0000	655.17
1046.0000	653.704
1047.0000	656.041
1048.0000	660.942
1049.0000	660.413
1050.0000	658.87
1051.0000	662.592
1052.0000	666.043
1053.0000	664.939
1054.0000	662.951
1055.0000	662.518
1056.0000	662.119
1057.0000	662.928
1058.0000	659.39
1059.0000	656.229
1060.0000	661.743
1061.0000	662.181
1062.0000	662.875
1063.0000	660.31
1064.0000	653.615
1065.0000	658.364
1066.0000	663.183
1067.0000	664.592
1068.0000	665.312
1069.0000	659.272
1070.0000	659.205
1071.0000	662.718
1072.0000	660.441
1073.0000	660.037
1074.0000	660.114
1075.0000	660.69
1076.0000	660.218
1077.0000	664.903
1078.0000	668.31
1079.0000	661.67
1080.0000	661.296
1081.0000	665.424
1082.0000	667.363
1083.0000	664.949
1084.0000	661.555
1085.0000	665.387
1086.0000	669.548
1087.0000	668.967
1088.0000	668.635
1089.0000	668.926
1090.0000	664.915
1091.0000	666.61
1092.0000	668.635
1093.0000	669.711
1094.0000	674.703
1095.0000	671.898
1096.0000	667.83
1097.0000	671.212
1098.0000	669.583
1099.0000	666.432
1100.0000	667.483
1101.0000	667.023
1102.0000	668.489
1103.0000	670.075
1104.0000	671.414
1105.0000	667.587
1106.0000	667.891
1107.0000	667.852
1108.0000	663.596
1109.0000	665.001
1110.0000	669.378
1111.0000	670.752
1112.0000	670.694
1113.0000	671.442
1114.0000	669.901
1115.0000	664.846
1116.0000	665.45
1117.0000	674.24
1118.0000	673.334
1119.0000	669.221
1120.0000	674.5
1121.0000	676.3
1122.0000	674.564
1123.0000	675.409
1124.0000	673.525
1125.0000	671.65
1126.0000	669.235
1127.0000	674.642
1128.0000	676.923
1129.0000	672.097
1130.0000	674.053
1131.0000	672.621
1132.0000	669.181
1133.0000	673.21
1134.0000	675.255
1135.0000	675.565
1136.0000	680.797
1137.0000	679.539
1138.0000	678.354
1139.0000	677.608
1140.0000	678.362
1141.0000	681.739
1142.0000	674.473
1143.0000	671.01
1144.0000	674.752
1145.0000	678.686
1146.0000	678.356
1147.0000	675.473
1148.0000	675.701
1149.0000	675.166
1150.0000	677.911
1151.0000	682.853
1152.0000	677.055
1153.0000	672.935
1154.0000	678.398
1155.0000	677.073
1156.0000	677.773
1157.0000	682.212
1158.0000	683.798
1159.0000	682.425
1160.0000	679.936
1161.0000	682.11
1162.0000	681.188
1163.0000	675.142
1164.0000	677.166
1165.0000	680.276
1166.0000	678.038
1167.0000	677.917
1168.0000	677.765
1169.0000	681.174
1170.0000	683.039
1171.0000	682.311
1172.0000	680.54
1173.0000	678.847
1174.0000	681.12
1175.0000	682.578
1176.0000	681.451
1177.0000	677.902
1178.0000	679.292
1179.0000	678.636
1180.0000	685.104
1181.0000	682.987
1182.0000	677.691
1183.0000	683.288
1184.0000	682.456
1185.0000	682.506
1186.0000	684.356
1187.0000	682.589
1188.0000	681.877
1189.0000	684.003
1190.0000	684.54
1191.0000	683.101
1192.0000	684.931
1193.0000	687.362
1194.0000	685.585
1195.0000	683.747
1196.0000	681.24
1197.0000	686.016
1198.0000	687.822
1199.0000	689.997
1200.0000	693.453
1201.0000	689.367
1202.0000	690.235
1203.0000	694.649
1204.0000	696.052
1205.0000	692.466
1206.0000	691.682
1207.0000	694.64
1208.0000	691.057
1209.0000	687.305
1210.0000	691.561
1211.0000	693.575
1212.0000	691.992
1213.0000	688.589
1214.0000	685.757
1215.0000	686.985
1216.0000	688.079
1217.0000	692.786
1218.0000	694.786
1219.0000	692.977
1220.0000	694.727
1221.0000	691.415
1222.0000	687.976
1223.0000	693.772
1224.0000	695.408
1225.0000	690.805
1226.0000	693.194
1227.0000	697.562
1228.0000	696.356
1229.0000	695.251
1230.0000	696.49
1231.0000	699.081
1232.0000	693.295
1233.0000	693.038
1234.0000	697.785
1235.0000	696.556
1236.0000	691.438
1237.0000	693.589
1238.0000	698.916
1239.0000	698.84
1240.0000	696.121
1241.0000	694.761
1242.0000	698.981
1243.0000	700.266
1244.0000	696.053
1245.0000	694.221
1246.0000	694.216
1247.0000	693.931
1248.0000	694.514
1249.0000	696.546
1250.0000	697.543
1251.0000	698.763
1252.0000	699.669
1253.0000	696.714
1254.0000	695.749
1255.0000	692.863
1256.0000	692.722
1257.0000	694.679
1258.0000	698.124
1259.0000	702.052
1260.0000	699.533
1261.0000	697.565
1262.0000	695.988
1263.0000	695.047
1264.0000	699.822
1265.0000	702.713
1266.0000	700.543
1267.0000	697.968
1268.0000	697.651
1269.0000	696.206
1270.0000	697.461
1271.0000	698.36
1272.0000	698.979
1273.0000	701.203
1274.0000	701.387
1275.0000	697.932
1276.0000	693.344
1277.0000	696.686
1278.0000	702.711
1279.0000	703.118
1280.0000	701.531
1281.0000	702.604
1282.0000	703.851
1283.0000	704.06
1284.0000	701.493
1285.0000	699.06
1286.0000	703.75
1287.0000	702.87
1288.0000	701.392
1289.0000	704.806
1290.0000	700.622
1291.0000	698.081
1292.0000	700.104
1293.0000	700.557
1294.0000	699.305
1295.0000	697.348
1296.0000	696.194
1297.0000	700.757
1298.0000	702.557
1299.0000	706.503
1300.0000	706.313
1301.0000	703.091
1302.0000	707.629
1303.0000	706.887
1304.0000	707.359
1305.0000	706.813
1306.0000	701.361
1307.0000	701.031
1308.0000	702.544
1309.0000	702.051
1310.0000	706.101
1311.0000	703.482
1312.0000	702.333
1313.0000	708.785
1314.0000	709.465
1315.0000	706.302
1316.0000	701.359
1317.0000	701.313
1318.0000	703.807
1319.0000	705.563
1320.0000	706.311
1321.0000	701.001
1322.0000	701.233
1323.0000	705.064
1324.0000	701.355
1325.0000	703.965
1326.0000	704.455
1327.0000	705.1
1328.0000	706.208
1329.0000	706.092
1330.0000	707.51
1331.0000	701.009
1332.0000	699.163
1333.0000	705.472
1334.0000	710.087
1335.0000	707.623
1336.0000	706.866
1337.0000	705.993
1338.0000	702.914
1339.0000	704.873
1340.0000	706.835
1341.0000	703.063
1342.0000	698.759
1343.0000	702.53
1344.0000	707.77
1345.0000	711.849
1346.0000	712.255
1347.0000	709.623
1348.0000	708.383
1349.0000	706.694
1350.0000	706.021
1351.0000	703.744
1352.0000	707.584
1353.0000	711.233
1354.0000	707.704
1355.0000	703.695
1356.0000	704.853
1357.0000	710.428
1358.0000	712.089
1359.0000	707.276
1360.0000	705.969
1361.0000	708.864
1362.0000	711.057
1363.0000	707.94
1364.0000	705.182
1365.0000	707.548
1366.0000	706.505
1367.0000	710.802
1368.0000	711.341
1369.0000	709.888
1370.0000	711.011
1371.0000	705.305
1372.0000	702.287
1373.0000	705.238
1374.0000	709.166
1375.0000	710.709
1376.0000	710.367
1377.0000	710.422
1378.0000	713.808
1379.0000	712.377
1380.0000	708.991
1381.0000	708.337
1382.0000	708.067
1383.0000	709.666
1384.0000	708.767
1385.0000	711.282
1386.0000	717.092
1387.0000	715.823
1388.0000	710.421
1389.0000	706.421
1390.0000	712.148
1391.0000	713.913
1392.0000	708.627
1393.0000	713.8
1394.0000	716.296
1395.0000	714.053
1396.0000	714.547
1397.0000	717.906
1398.0000	713.724
1399.0000	706.217
1400.0000	709.575
1401.0000	716.127
1402.0000	714.153
1403.0000	713.055
1404.0000	714.459
1405.0000	714.404
1406.0000	713.558
1407.0000	713.262
1408.0000	715.164
1409.0000	715.447
1410.0000	716.348
1411.0000	714.735
1412.0000	711.142
1413.0000	709.644
1414.0000	712.666
1415.0000	716.381
1416.0000	716.909
1417.0000	716.877
1418.0000	716.969
1419.0000	716.503
1420.0000	711.135
1421.0000	711.994
1422.0000	716.602
1423.0000	717.334
1424.0000	719.93
1425.0000	719.1
1426.0000	718.982
1427.0000	720.037
1428.0000	718.941
1429.0000	715.411
1430.0000	715.021
1431.0000	715.367
1432.0000	715.349
1433.0000	713.637
1434.0000	711.109
1435.0000	714.678
1436.0000	715.584
1437.0000	714.763
1438.0000	713.644
1439.0000	711.713
1440.0000	716.532
1441.0000	717.714
1442.0000	716.496
1443.0000	712.834
1444.0000	712.535
1445.0000	717.815
1446.0000	716.04
1447.0000	713.593
1448.0000	714.598
1449.0000	718.085
1450.0000	717.473
1451.0000	715.784
1452.0000	715.243
1453.0000	717.034
1454.0000	721.167
1455.0000	723.003
1456.0000	723.074
1457.0000	717.82
1458.0000	714.28
1459.0000	717.004
1460.0000	717.258
1461.0000	720.197
1462.0000	721.214
1463.0000	717.925
1464.0000	712.632
1465.0000	711.23
1466.0000	716.242
1467.0000	718.65
1468.0000	720.348
1469.0000	724.062
1470.0000	720.727
1471.0000	719.305
1472.0000	722.243
1473.0000	719.028
1474.0000	718.962
1475.0000	723.474
1476.0000	723.622
1477.0000	717.359
1478.0000	717.965
1479.0000	721.74
1480.0000	721.864
1481.0000	715.981
1482.0000	712.825
1483.0000	716.208
1484.0000	718.317
1485.0000	717.797
1486.0000	719.051
1487.0000	720.885
1488.0000	719.561
1489.0000	720.269
1490.0000	722.118
1491.0000	719.265
1492.0000	712.573
1493.0000	714.822
1494.0000	721.613
1495.0000	721.039
1496.0000	720.003
1497.0000	723.07
1498.0000	717.387
1499.0000	714.215
1500.0000	722.485
1501.0000	723.243
1502.0000	719.939
1503.0000	722.667
1504.0000	726.693
1505.0000	724.37
1506.0000	719.246
1507.0000	721.009
1508.0000	717.646
1509.0000	715.387
1510.0000	720.628
1511.0000	720.677
1512.0000	715.524
1513.0000	718.77
1514.0000	722.239
1515.0000	720.446
1516.0000	721.636
1517.0000	720.098
1518.0000	721.711
1519.0000	720.961
1520.0000	719.394
1521.0000	722.42
1522.0000	721.02
1523.0000	720.893
1524.0000	724.629
1525.0000	723.085
1526.0000	718.164
1527.0000	714.098
1528.0000	716.245
1529.0000	720.75
1530.0000	718.801
1531.0000	718.305
1532.0000	721.605
1533.0000	716.355
1534.0000	714.622
1535.0000	722.019
1536.0000	719.526
1537.0000	718.157
1538.0000	723.848
1539.0000	724.963
1540.0000	724.171
1541.0000	723.42
1542.0000	728.602
1543.0000	724.454
1544.0000	719.894
1545.0000	727.515
1546.0000	725.309
1547.0000	721.034
1548.0000	722.818
1549.0000	727.723
1550.0000	725.831
1551.0000	723.383
1552.0000	727.736
1553.0000	726.102
1554.0000	719.137
1555.0000	724.334
1556.0000	734.121
1557.0000	728.872
1558.0000	729.19
1559.0000	732.048
1560.0000	727.901
1561.0000	725.114
1562.0000	723.03
1563.0000	726.094
1564.0000	726.854
1565.0000	722.012
1566.0000	722.834
1567.0000	723.425
1568.0000	725.003
1569.0000	728.771
1570.0000	725.304
1571.0000	725.593
1572.0000	723.172
1573.0000	719.579
1574.0000	724.271
1575.0000	726.704
1576.0000	724.528
1577.0000	724.317
1578.0000	723.955
1579.0000	725.009
1580.0000	728.454
1581.0000	727.94
1582.0000	725.046
1583.0000	724.531
1584.0000	726.348
1585.0000	728.62
1586.0000	727.741
1587.0000	729.154
1588.0000	729.932
1589.0000	721.564
1590.0000	720.863
1591.0000	725.92
1592.0000	729.59
1593.0000	729.909
1594.0000	725.182
1595.0000	726.407
1596.0000	733.083
1597.0000	728.459
1598.0000	722.127
1599.0000	722.296
1600.0000	725.984
1601.0000	726.287
1602.0000	724.124
1603.0000	727.228
1604.0000	726.419
1605.0000	724.773
1606.0000	721.888
1607.0000	726.234
1608.0000	729.85
1609.0000	727.886
1610.0000	728.102
1611.0000	724.994
1612.0000	728.521
1613.0000	732.643
1614.0000	730.051
1615.0000	729.322
1616.0000	729.938
1617.0000	725.503
1618.0000	727.637
1619.0000	732.258
1620.0000	729.65
1621.0000	728.943
1622.0000	728.467
1623.0000	727.545
1624.0000	727.644
1625.0000	733.157
1626.0000	731.964
1627.0000	729.379
1628.0000	726.728
1629.0000	725.195
1630.0000	729.925
1631.0000	727.331
1632.0000	726.906
1633.0000	727.972
1634.0000	728.07
1635.0000	728.879
1636.0000	731.093
1637.0000	732.892
1638.0000	727.792
1639.0000	723.452
1640.0000	727.037
1641.0000	728.472
1642.0000	728.804
1643.0000	729.145
1644.0000	723.197
1645.0000	724.489
1646.0000	730.077
1647.0000	732.285
1648.0000	732.431
1649.0000	729.837
1650.0000	728.005
1651.0000	728.55
1652.0000	729.538
1653.0000	728.304
1654.0000	730.34
1655.0000	734.14
1656.0000	733.299
1657.0000	730.894
1658.0000	730.309
1659.0000	732.251
1660.0000	732.033
1661.0000	730.067
1662.0000	729.788
1663.0000	729.935
1664.0000	726.591
1665.0000	723.011
1666.0000	714.998
1667.0000	694.901
1668.0000	687.294
1669.0000	699.146
1670.0000	710.771
1671.0000	716.221
1672.0000	718.526
1673.0000	720.278
1674.0000	718.099
1675.0000	710.528
1676.0000	701.778
1677.0000	713.033
1678.0000	727.548
1679.0000	730.626
1680.0000	729.099
1681.0000	728.396
1682.0000	732.387
1683.0000	728.874
1684.0000	727.176
1685.0000	724.742
1686.0000	726.137
1687.0000	727.194
1688.0000	724.789
1689.0000	722.825
1690.0000	726.019
1691.0000	730.679
1692.0000	732.086
1693.0000	732.697
1694.0000	727.692
1695.0000	728.814
1696.0000	731.104
1697.0000	728.672
1698.0000	727.795
1699.0000	730.31
1700.0000	732.322
1701.0000	727.142
1702.0000	728.244
1703.0000	731.821
1704.0000	731.606
1705.0000	729.979
1706.0000	730.59
1707.0000	731.515
1708.0000	730.779
1709.0000	733.634
1710.0000	732.021
1711.0000	729.233
1712.0000	729.27
1713.0000	727.818
1714.0000	730.168
1715.0000	734.184
1716.0000	734.946
1717.0000	731.441
1718.0000	728.431
1719.0000	729.54
1720.0000	728.155
1721.0000	728.977
1722.0000	734.334
1723.0000	734.865
1724.0000	729.325
1725.0000	730.25
1726.0000	733.627
1727.0000	736.382
1728.0000	730.588
1729.0000	727.532
1730.0000	726.909
1731.0000	729.503
1732.0000	736.016
1733.0000	735.541
1734.0000	732.296
1735.0000	725.441
1736.0000	729.337
1737.0000	736.521
1738.0000	734.047
1739.0000	733.29
1740.0000	730.702
1741.0000	727.646
1742.0000	733.566
1743.0000	733.512
1744.0000	730.952
1745.0000	733.532
1746.0000	733.757
1747.0000	730.128
1748.0000	732.809
1749.0000	733.835
1750.0000	732.514
1751.0000	734.849
1752.0000	731.453
1753.0000	731.907
1754.0000	738.484
1755.0000	739.612
1756.0000	735.757
1757.0000	735.336
1758.0000	730.184
1759.0000	728.706
1760.0000	736.549
1761.0000	740.664
1762.0000	739.04
1763.0000	735.905
1764.0000	734.098
1765.0000	730.121
1766.0000	731.756
1767.0000	733.525
1768.0000	728.851
1769.0000	727.426
1770.0000	728.43
1771.0000	730.318
1772.0000	734.108
1773.0000	734.202
1774.0000	735.197
1775.0000	738.364
1776.0000	737.661
1777.0000	737.013
1778.0000	735.445
1779.0000	737.376
1780.0000	740.82
1781.0000	739.354
1782.0000	734.665
1783.0000	730.418
1784.0000	729.814
1785.0000	731.104
1786.0000	732.367
1787.0000	734.244
1788.0000	739.497
1789.0000	735.049
1790.0000	730.496
1791.0000	736.322
1792.0000	739.459
1793.0000	737.683
1794.0000	735.523
1795.0000	734.452
1796.0000	732.99
1797.0000	731.373
1798.0000	734.56
1799.0000	733.868
1800.0000	733.264
1801.0000	735.474
1802.0000	734.205
1803.0000	735.861
1804.0000	736.735
1805.0000	734.813
1806.0000	731.547
1807.0000	729.215
1808.0000	730.949
1809.0000	734.343
1810.0000	735.974
1811.0000	734.937
1812.0000	735.935
1813.0000	738.9
1814.0000	736.524
1815.0000	733.821
1816.0000	730.886
1817.0000	733.858
1818.0000	735.655
1819.0000	732.108
1820.0000	734.678
1821.0000	734.679
1822.0000	733.544
1823.0000	737.552
1824.0000	738.498
1825.0000	736.161
1826.0000	741.108
1827.0000	738.433
1828.0000	734.445
1829.0000	737.977
1830.0000	738.971
1831.0000	737.106
1832.0000	738.138
1833.0000	739.882
1834.0000	736.609
1835.0000	733.335
1836.0000	733.963
1837.0000	738.373
1838.0000	737.552
1839.0000	737.077
1840.0000	738.343
1841.0000	737.692
1842.0000	737.665
1843.0000	739.29
1844.0000	736.517
1845.0000	733.571
1846.0000	734.441
1847.0000	736.385
1848.0000	735.227
1849.0000	730.24
1850.0000	730.596
1851.0000	735.469
1852.0000	736.31
1853.0000	733.536
1854.0000	738.07
1855.0000	735.06
1856.0000	730.971
1857.0000	734.665
1858.0000	734.588
1859.0000	737.55
1860.0000	741.866
1861.0000	743.388
1862.0000	741.462
1863.0000	739.482
1864.0000	738.68
1865.0000	738.505
1866.0000	735.643
1867.0000	733.105
1868.0000	737.539
1869.0000	735.492
1870.0000	731.818
1871.0000	734.387
1872.0000	735.388
1873.0000	736.073
1874.0000	737.561
1875.0000	737.128
1876.0000	736.23
1877.0000	738.254
1878.0000	738.475
1879.0000	734.31
1880.0000	737.281
1881.0000	743.06
1882.0000	744.256
1883.0000	742.328
1884.0000	737.017
1885.0000	735.792
1886.0000	733.066
1887.0000	730.255
1888.0000	735.48
1889.0000	737.912
1890.0000	738.191
1891.0000	743.031
1892.0000	736.761
1893.0000	730.681
1894.0000	734.383
1895.0000	736.879
1896.0000	744.541
1897.0000	746.262
1898.0000	738
1899.0000	733.806
1900.0000	737.597
1901.0000	738.124
1902.0000	735.335
1903.0000	733.897
1904.0000	735.531
1905.0000	738.65
1906.0000	741.114
1907.0000	741.623
1908.0000	738.844
1909.0000	739.815
1910.0000	738.64
1911.0000	736.934
1912.0000	738.452
1913.0000	735.945
1914.0000	732.632
1915.0000	734.465
1916.0000	736.873
1917.0000	740.813
1918.0000	738.789
1919.0000	737.477
1920.0000	741.706
1921.0000	738.345
1922.0000	735.757
1923.0000	737.268
1924.0000	739.234
1925.0000	744.745
1926.0000	746.444
1927.0000	743.624
1928.0000	742.062
1929.0000	740.4
1930.0000	736.696
1931.0000	739.33
1932.0000	743.909
1933.0000	742.078
1934.0000	739.461
1935.0000	738.481
1936.0000	742.083
1937.0000	745.127
1938.0000	740.277
1939.0000	734.785
1940.0000	737.306
1941.0000	738.787
1942.0000	737.938
1943.0000	738.147
1944.0000	739.88
1945.0000	740.275
1946.0000	737.918
1947.0000	735.212
1948.0000	734.424
1949.0000	734.504
1950.0000	735.383
1951.0000	736.919
1952.0000	738.959
1953.0000	740.98
1954.0000	740.981
1955.0000	742.862
1956.0000	739.304
1957.0000	735.037
1958.0000	734.629
1959.0000	739.322
1960.0000	741.612
1961.0000	739.314
1962.0000	740.638
1963.0000	745.151
1964.0000	740.354
1965.0000	740.493
1966.0000	746.393
1967.0000	740.453
1968.0000	738.209
1969.0000	741.021
1970.0000	741.277
1971.0000	742.656
1972.0000	743.849
1973.0000	743.792
1974.0000	740.106
1975.0000	737.724
1976.0000	743.513
1977.0000	746.559
1978.0000	740.73
1979.0000	739.905
1980.0000	743.997
1981.0000	741.645
1982.0000	743.505
1983.0000	745.413
1984.0000	738.579
1985.0000	737.376
1986.0000	737.629
1987.0000	737.436
1988.0000	737.955
1989.0000	733.476
1990.0000	740.964
1991.0000	747.077
1992.0000	744.046
1993.0000	741.671
1994.0000	737.56
1995.0000	738.522
1996.0000	736.837
1997.0000	734.284
1998.0000	737.256
1999.0000	737.926
2000.0000	737.717
2001.0000	740.488
2002.0000	739.987
2003.0000	739.099
2004.0000	742.298
2005.0000	743.399
2006.0000	745.461
2007.0000	744.768
2008.0000	741.777
2009.0000	742.279
2010.0000	741.307
2011.0000	739.897
2012.0000	742.398
2013.0000	738.257
2014.0000	741.292
2015.0000	749.425
2016.0000	736.572
2017.0000	734.683
2018.0000	743.935
2019.0000	746.953
2020.0000	745.927
2021.0000	742.421
2022.0000	741.816
2023.0000	737.869
2024.0000	741.264
2025.0000	740.681
2026.0000	738.05
2027.0000	741.351
2028.0000	738.585
2029.0000	738.389
2030.0000	741.327
2031.0000	740.244
2032.0000	738.929
2033.0000	739.849
2034.0000	743.099
2035.0000	740.977
2036.0000	743.676
2037.0000	747.15
2038.0000	746.205
2039.0000	743.986
2040.0000	739.947
2041.0000	738.165
2042.0000	736.92
2043.0000	741.377
2044.0000	742.328
2045.0000	738.434
2046.0000	736.277
2047.0000	737.224
2048.0000	738.695
2049.0000	737.339
2050.0000	735.204
2051.0000	739.975
2052.0000	744.051
2053.0000	740.328
2054.0000	740.161
2055.0000	742.487
2056.0000	738.295
2057.0000	740.173
2058.0000	744.705
2059.0000	743.447
2060.0000	743.769
2061.0000	740.232
2062.0000	735.95
2063.0000	737.935
2064.0000	739.907
2065.0000	739.013
2066.0000	743.261
2067.0000	744.367
2068.0000	738.75
2069.0000	740.224
2070.0000	744.329
2071.0000	741.785
2072.0000	737.544
2073.0000	741.711
2074.0000	746.578
2075.0000	742.352
2076.0000	740.753
2077.0000	740.867
2078.0000	740.073
2079.0000	740.537
2080.0000	739.449
2081.0000	737.744
2082.0000	742.801
2083.0000	745.373
2084.0000	739.817
2085.0000	741.26
2086.0000	744.964
2087.0000	744.519
2088.0000	743.062
2089.0000	739.143
2090.0000	737.468
2091.0000	743.244
2092.0000	746.281
2093.0000	744.914
2094.0000	741.339
2095.0000	741.896
2096.0000	741.01
2097.0000	736.914
2098.0000	734.341
2099.0000	740.749
2100.0000	746.757
2101.0000	740.169
2102.0000	736.195
2103.0000	738.872
2104.0000	741.625
2105.0000	738.251
2106.0000	735.556
2107.0000	738.883
2108.0000	741.658
2109.0000	745.482
2110.0000	744.469
2111.0000	741.647
2112.0000	742.986
2113.0000	742.39
2114.0000	745.911
2115.0000	748.165
2116.0000	745.702
2117.0000	741.115
2118.0000	740.978
2119.0000	744.174
2120.0000	742.291
2121.0000	741.493
2122.0000	743.472
2123.0000	742.599
2124.0000	742.013
2125.0000	741.653
2126.0000	743.88
2127.0000	742.833
2128.0000	741.247
2129.0000	744.463
2130.0000	743.334
2131.0000	736.89
2132.0000	735.229
2133.0000	743.595
2134.0000	746.281
2135.0000	742.334
2136.0000	738.616
2137.0000	741.251
2138.0000	747.026
2139.0000	745.298
2140.0000	740.138
2141.0000	738.327
2142.0000	741.183
2143.0000	742.781
2144.0000	744.257
2145.0000	745.138
2146.0000	739.845
2147.0000	737.59
2148.0000	739.259
2149.0000	740.788
2150.0000	740.962
2151.0000	739.027
2152.0000	739.74
2153.0000	740.504
2154.0000	739.446
2155.0000	740.075
2156.0000	742.461
2157.0000	744.346
2158.0000	745.593
2159.0000	741.51
2160.0000	739.49
2161.0000	743.753
2162.0000	743.71
2163.0000	743.315
2164.0000	743.758
2165.0000	742.315
2166.0000	744.879
2167.0000	746.536
2168.0000	746.081
2169.0000	737.162
2170.0000	738.662
2171.0000	741.951
2172.0000	741.698
2173.0000	744.267
2174.0000	741.071
2175.0000	740.68
2176.0000	740.35
2177.0000	738.485
2178.0000	736.818
2179.0000	742.373
2180.0000	747.244
2181.0000	743.203
2182.0000	740.442
2183.0000	741.091
2184.0000	740.823
2185.0000	742.083
2186.0000	745.773
2187.0000	746.2
2188.0000	742.731
2189.0000	742.243
2190.0000	742.959
2191.0000	741.674
2192.0000	741.645
2193.0000	742.401
2194.0000	739.092
2195.0000	738.472
2196.0000	746.01
2197.0000	751.667
2198.0000	747.393
2199.0000	741.493
2200.0000	742.631
2201.0000	744.157
2202.0000	742.179
2203.0000	741.395
2204.0000	738.337
2205.0000	744.615
2206.0000	745.657
2207.0000	740.066
2208.0000	745.214
2209.0000	748.078
2210.0000	745.905
2211.0000	745.53
2212.0000	746.74
2213.0000	746.54
2214.0000	743.259
2215.0000	743.878
2216.0000	749.267
2217.0000	747.933
2218.0000	744.778
2219.0000	747.443
2220.0000	748.366
2221.0000	745.421
2222.0000	742.731
2223.0000	740.232
2224.0000	742.016
2225.0000	740.92
2226.0000	740.795
2227.0000	741.805
2228.0000	739.116
2229.0000	738.778
2230.0000	743.489
2231.0000	748.372
2232.0000	751.432
2233.0000	749.091
2234.0000	741.783
2235.0000	743.167
2236.0000	744.415
2237.0000	741.719
2238.0000	745.043
2239.0000	748.382
2240.0000	746.827
2241.0000	749.076
2242.0000	745.966
2243.0000	742.962
2244.0000	746.398
2245.0000	742.821
2246.0000	744.185
2247.0000	748.322
2248.0000	745.909
2249.0000	741.966
2250.0000	741.17
2251.0000	742.953
2252.0000	743.552
2253.0000	747.126
2254.0000	742.563
2255.0000	743.378
2256.0000	747.621
2257.0000	742.316
2258.0000	742.267
2259.0000	745.302
2260.0000	746.096
2261.0000	747.022
2262.0000	749.675
2263.0000	748.011
2264.0000	751.135
2265.0000	749.373
2266.0000	741.775
2267.0000	742.117
2268.0000	743.81
2269.0000	748.094
2270.0000	752.847
2271.0000	747.814
2272.0000	741.429
2273.0000	741.317
2274.0000	746.022
2275.0000	748.829
2276.0000	745.086
2277.0000	744.487
2278.0000	744.25
2279.0000	742.209
2280.0000	738.827
2281.0000	737.647
2282.0000	743.039
2283.0000	748.131
2284.0000	744.986
2285.0000	742.876
2286.0000	746.687
2287.0000	747.719
2288.0000	748.012
2289.0000	748.555
2290.0000	744.85
2291.0000	741.885
2292.0000	740.769
2293.0000	745.451
2294.0000	746.211
2295.0000	748.375
2296.0000	747.938
2297.0000	740.833
2298.0000	744.927
2299.0000	746.851
2300.0000	746.397
2301.0000	745.264
2302.0000	745.425
2303.0000	749.307
2304.0000	745.374
2305.0000	745.004
2306.0000	749.536
2307.0000	745.533
2308.0000	744.043
2309.0000	749.557
2310.0000	747.059
2311.0000	743.149
2312.0000	746.245
2313.0000	749.899
2314.0000	747.023
2315.0000	742.597
2316.0000	747.382
2317.0000	747.181
2318.0000	744.598
2319.0000	743.205
2320.0000	741.803
2321.0000	747.432
2322.0000	748.571
2323.0000	745.444
2324.0000	747.471
2325.0000	747.104
2326.0000	743.52
2327.0000	743.709
2328.0000	742.645
2329.0000	745.12
2330.0000	749.4
2331.0000	748.496
2332.0000	749.855
2333.0000	748.372
2334.0000	746.499
2335.0000	746.997
2336.0000	743.348
2337.0000	744.729
2338.0000	744.626
2339.0000	745.538
2340.0000	749.382
2341.0000	747.07
2342.0000	748.399
2343.0000	749.01
2344.0000	750.613
2345.0000	747.253
2346.0000	744.227
2347.0000	746.782
2348.0000	746.361
2349.0000	744.014
2350.0000	743.187
2351.0000	741.791
2352.0000	739.965
2353.0000	746.042
2354.0000	748.741
2355.0000	747.611
2356.0000	744.857
2357.0000	740.399
2358.0000	744.174
2359.0000	753.294
2360.0000	754.999
2361.0000	752.238
2362.0000	754.724
2363.0000	748.868
2364.0000	745.12
2365.0000	750.898
2366.0000	749.812
2367.0000	745.971
2368.0000	746.272
2369.0000	744.234
2370.0000	740.831
2371.0000	743.85
2372.0000	745.789
2373.0000	742.909
2374.0000	748.079
2375.0000	752.788
2376.0000	746.453
2377.0000	748.059
2378.0000	749.711
2379.0000	744.663
2380.0000	745.284
2381.0000	743.615
2382.0000	743.473
2383.0000	749.166
2384.0000	749.788
2385.0000	746.744
2386.0000	745.244
2387.0000	747.159
2388.0000	747.959
2389.0000	747.437
2390.0000	749.823
2391.0000	751.326
2392.0000	746.688
2393.0000	746.052
2394.0000	748.37
2395.0000	750.8
2396.0000	749.793
2397.0000	746.467
2398.0000	747.18
2399.0000	745.414
2400.0000	748.922
2401.0000	751.724
2402.0000	748.526
2403.0000	748.057
2404.0000	749.893
2405.0000	747.952
2406.0000	747.066
2407.0000	751.836
2408.0000	750.767
2409.0000	744.128
2410.0000	738.23
2411.0000	736.367
2412.0000	746.726
2413.0000	754.651
2414.0000	750.054
2415.0000	747.947
2416.0000	744.586
2417.0000	744.678
2418.0000	750.539
2419.0000	747.053
2420.0000	745.25
2421.0000	748.539
2422.0000	744.746
2423.0000	741.655
2424.0000	745.045
2425.0000	745.863
2426.0000	747.512
2427.0000	754.368
2428.0000	752.894
2429.0000	746.664
2430.0000	743.161
2431.0000	744.77
2432.0000	750.496
2433.0000	752.207
2434.0000	746.943
2435.0000	744.01
2436.0000	746.102
2437.0000	748.556
2438.0000	752.614
2439.0000	751.88
2440.0000	749.662
2441.0000	746.411
2442.0000	748.106
2443.0000	748.685
2444.0000	745.141
2445.0000	741.941
2446.0000	745.723
2447.0000	755.045
2448.0000	751.546
2449.0000	747.671
2450.0000	749.52
2451.0000	747.381
2452.0000	746.044
2453.0000	748.251
2454.0000	745.605
2455.0000	745.417
2456.0000	747.39
2457.0000	744.539
2458.0000	748.801
2459.0000	748.277
2460.0000	748.02
2461.0000	752.796
2462.0000	750.298
2463.0000	748.518
2464.0000	747.259
2465.0000	745.302
2466.0000	749.662
2467.0000	750.906
2468.0000	752.408
2469.0000	752.618
2470.0000	746.469
2471.0000	744.733
2472.0000	746.669
2473.0000	753.493
2474.0000	751.549
2475.0000	750.191
2476.0000	751.496
2477.0000	746.939
2478.0000	745.773
2479.0000	747.482
2480.0000	750.031
2481.0000	749.705
2482.0000	750.206
2483.0000	752.343
2484.0000	754.784
2485.0000	755.391
2486.0000	754.732
2487.0000	749.538
2488.0000	747.576
2489.0000	749.224
2490.0000	751.557
2491.0000	750.312
2492.0000	746.417
2493.0000	744.832
2494.0000	741.48
2495.0000	741.942
2496.0000	741.105
2497.0000	741.478
2498.0000	744.396
2499.0000	746.773
2500.0000	746.874
2501.0000	749.017
2502.0000	749.158
2503.0000	748.551
2504.0000	754.523
2505.0000	752.838
2506.0000	749.741
2507.0000	751.171
2508.0000	749.911
2509.0000	748.541
2510.0000	748.606
2511.0000	746.359
2512.0000	747.909
2513.0000	751.6
2514.0000	751.003
2515.0000	748.52
2516.0000	747.232
2517.0000	751.278
2518.0000	747.183
2519.0000	748.756
2520.0000	750.635
2521.0000	747.985
2522.0000	751.92
2523.0000	750.587
2524.0000	752.008
2525.0000	751.394
2526.0000	749.865
2527.0000	749.395
2528.0000	747.241
2529.0000	750.004
2530.0000	753.512
2531.0000	748.971
2532.0000	749.748
2533.0000	752.659
2534.0000	749.531
2535.0000	750.75
2536.0000	749.521
2537.0000	748.704
2538.0000	750.313
2539.0000	751.961
2540.0000	752.624
2541.0000	749.557
2542.0000	747.684
2543.0000	750.113
2544.0000	751.338
2545.0000	753.619
2546.0000	751.609
2547.0000	749.756
2548.0000	750.986
2549.0000	751.783
2550.0000	758.491
2551.0000	758.056
2552.0000	752.334
2553.0000	747.872
2554.0000	747.259
2555.0000	746.456
2556.0000	750.443
2557.0000	756.552
2558.0000	748.225
2559.0000	742.799
2560.0000	745.627
2561.0000	749.386
2562.0000	747.522
2563.0000	746.995
2564.0000	750.507
2565.0000	748.649
2566.0000	747.371
2567.0000	745.363
2568.0000	746.448
2569.0000	751.807
2570.0000	753.363
2571.0000	749.035
2572.0000	749.876
2573.0000	757.59
2574.0000	756.339
2575.0000	751.074
2576.0000	748.112
2577.0000	745.083
2578.0000	744.083
2579.0000	746.763
2580.0000	748.557
2581.0000	748.883
2582.0000	752.319
2583.0000	750.643
2584.0000	744.42
2585.0000	747.339
2586.0000	748.64
2587.0000	749.825
2588.0000	753.262
2589.0000	750.74
2590.0000	752.817
2591.0000	752.949
2592.0000	753.378
2593.0000	755.721
2594.0000	749.016
2595.0000	747.845
2596.0000	754.528
2597.0000	754.249
2598.0000	748.93
2599.0000	747.341
2600.0000	747.495
2601.0000	748.939
2602.0000	750.545
2603.0000	750.913
2604.0000	754.578
2605.0000	755.39
2606.0000	751.046
2607.0000	747.052
2608.0000	749.831
2609.0000	747.328
2610.0000	742.912
2611.0000	746.617
2612.0000	746.648
2613.0000	747.723
2614.0000	751.239
2615.0000	750.889
2616.0000	749.877
2617.0000	745.484
2618.0000	744.574
2619.0000	749.332
2620.0000	751.373
2621.0000	753.08
2622.0000	749.742
2623.0000	743.519
2624.0000	744.377
2625.0000	749.071
2626.0000	745.979
2627.0000	741.824
2628.0000	743.527
2629.0000	742.212
2630.0000	747.025
2631.0000	755.381
2632.0000	753.367
2633.0000	752.6
2634.0000	755.515
2635.0000	754.011
2636.0000	747.973
2637.0000	747.449
2638.0000	747.938
2639.0000	745.406
2640.0000	753.564
2641.0000	754.596
2642.0000	748.511
2643.0000	752.669
2644.0000	754.224
2645.0000	751.83
2646.0000	750.811
2647.0000	751.526
2648.0000	754.007
2649.0000	751.464
2650.0000	749.065
2651.0000	753.299
2652.0000	751.065
2653.0000	750.047
2654.0000	753.633
2655.0000	752.942
2656.0000	753.867
2657.0000	752.103
2658.0000	748.908
2659.0000	749.349
2660.0000	750.4
2661.0000	749.801
2662.0000	750.25
2663.0000	752.113
2664.0000	749.155
2665.0000	746.668
2666.0000	748.344
2667.0000	750.586
2668.0000	755.021
2669.0000	756.791
2670.0000	754.145
2671.0000	757.826
2672.0000	758.896
2673.0000	752.985
2674.0000	746.66
2675.0000	743.808
2676.0000	750.085
2677.0000	750.924
2678.0000	753.048
2679.0000	754.268
2680.0000	747.855
2681.0000	748.904
2682.0000	749.563
2683.0000	748.114
2684.0000	749.534
2685.0000	750.244
2686.0000	751.56
2687.0000	751.404
2688.0000	748.259
2689.0000	746.774
2690.0000	746.442
2691.0000	750.173
2692.0000	754.723
2693.0000	753.321
2694.0000	754.306
2695.0000	753.159
2696.0000	751.49
2697.0000	754.526
2698.0000	754.54
2699.0000	754.24
2700.0000	753.88
2701.0000	753.027
