TITLE	
DATA TYPE	
ORIGIN	JASCO
OWNER	
DATE	22/04/20
TIME	13:17:30
SPECTROMETER/DATA SYSTEM	
RESOLUTION	
DELTAX	0.5
XUNITS	SEC
YUNITS	INTENSITY
FIRSTX	0.0000
LASTX	2724.5000
NPOINTS	5450
FIRSTY	502.92780
MAXY	645.95105
MINY	-60.48330
XYDATA
0.0000	502.928
0.5000	502.903
1.0000	502.729
1.5000	502.813
2.0000	502.752
2.5000	502.7
3.0000	502.818
3.5000	502.787
4.0000	502.706
4.5000	502.913
5.0000	503.011
5.5000	503.113
6.0000	503.204
6.5000	503.144
7.0000	503.096
7.5000	503.105
8.0000	503.128
8.5000	503.171
9.0000	503.214
9.5000	503.2
10.0000	503.171
10.5000	503.147
11.0000	503.121
11.5000	503.247
12.0000	503.249
12.5000	503.245
13.0000	503.214
13.5000	503.222
14.0000	503.244
14.5000	503.221
15.0000	503.209
15.5000	503.129
16.0000	503.203
16.5000	503.27
17.0000	503.401
17.5000	503.463
18.0000	503.527
18.5000	503.529
19.0000	503.516
19.5000	503.446
20.0000	503.448
20.5000	503.455
21.0000	503.521
21.5000	503.578
22.0000	503.552
22.5000	503.554
23.0000	503.573
23.5000	503.546
24.0000	503.548
24.5000	503.622
25.0000	503.557
25.5000	503.624
26.0000	503.684
26.5000	503.694
27.0000	503.74
27.5000	503.731
28.0000	503.787
28.5000	503.764
29.0000	503.735
29.5000	503.799
30.0000	503.929
30.5000	503.977
31.0000	504.103
31.5000	504.182
32.0000	504.073
32.5000	504.043
33.0000	504.102
33.5000	504.084
34.0000	504.062
34.5000	504.121
35.0000	504.058
35.5000	504.072
36.0000	504.09
36.5000	504.079
37.0000	504.125
37.5000	504.098
38.0000	504.045
38.5000	504.087
39.0000	504.018
39.5000	504.052
40.0000	504.085
40.5000	504.117
41.0000	504.194
41.5000	504.196
42.0000	504.267
42.5000	504.259
43.0000	504.233
43.5000	504.284
44.0000	504.274
44.5000	504.223
45.0000	504.329
45.5000	504.318
46.0000	504.346
46.5000	504.35
47.0000	504.226
47.5000	504.193
48.0000	504.23
48.5000	504.265
49.0000	504.351
49.5000	504.365
50.0000	504.295
50.5000	504.248
51.0000	504.229
51.5000	504.296
52.0000	504.309
52.5000	504.437
53.0000	504.419
53.5000	504.361
54.0000	504.393
54.5000	504.424
55.0000	504.345
55.5000	504.422
56.0000	504.414
56.5000	504.318
57.0000	504.406
57.5000	504.315
58.0000	504.314
58.5000	504.4
59.0000	504.532
59.5000	504.659
60.0000	504.655
60.5000	504.767
61.0000	504.642
61.5000	504.561
62.0000	504.601
62.5000	504.404
63.0000	504.416
63.5000	504.544
64.0000	504.583
64.5000	487.757
65.0000	464.278
65.5000	407.619
66.0000	-15.2961
66.5000	-60.4833
67.0000	-37.1663
67.5000	-32.109
68.0000	-30.0928
68.5000	-28.8619
69.0000	-28.0978
69.5000	-27.4289
70.0000	-27.0239
70.5000	-26.8662
71.0000	-26.5801
71.5000	-26.3518
72.0000	-26.0678
72.5000	-25.9289
73.0000	-25.7334
73.5000	-25.7572
74.0000	315.47
74.5000	295.057
75.0000	290.127
75.5000	287.91
76.0000	263.95
76.5000	264.274
77.0000	264.337
77.5000	264.499
78.0000	264.744
78.5000	265.008
79.0000	265.287
79.5000	265.581
80.0000	265.897
80.5000	266.2
81.0000	266.588
81.5000	266.89
82.0000	267.217
82.5000	267.507
83.0000	267.897
83.5000	268.308
84.0000	268.727
84.5000	269.206
85.0000	269.584
85.5000	269.883
86.0000	270.222
86.5000	270.48
87.0000	270.72
87.5000	271.073
88.0000	271.409
88.5000	271.716
89.0000	272.066
89.5000	272.383
90.0000	272.771
90.5000	273.127
91.0000	273.512
91.5000	273.842
92.0000	274.143
92.5000	274.525
93.0000	274.827
93.5000	275.199
94.0000	275.588
94.5000	275.923
95.0000	276.278
95.5000	276.594
96.0000	276.863
96.5000	277.171
97.0000	277.496
97.5000	277.795
98.0000	278.175
98.5000	278.523
99.0000	278.879
99.5000	279.274
100.0000	279.57
100.5000	279.898
101.0000	280.229
101.5000	280.609
102.0000	280.971
102.5000	281.321
103.0000	281.627
103.5000	281.915
104.0000	282.267
104.5000	282.587
105.0000	282.971
105.5000	283.3
106.0000	283.589
106.5000	283.912
107.0000	284.225
107.5000	284.588
108.0000	284.913
108.5000	285.272
109.0000	285.567
109.5000	285.824
110.0000	286.14
110.5000	286.474
111.0000	286.899
111.5000	287.291
112.0000	287.693
112.5000	288.056
113.0000	288.298
113.5000	288.551
114.0000	288.772
114.5000	289.005
115.0000	289.359
115.5000	289.712
116.0000	290.065
116.5000	290.405
117.0000	290.728
117.5000	291.192
118.0000	291.645
118.5000	292.143
119.0000	292.629
119.5000	292.926
120.0000	293.235
120.5000	293.512
121.0000	293.743
121.5000	294.073
122.0000	294.331
122.5000	294.59
123.0000	294.896
123.5000	295.11
124.0000	295.439
124.5000	295.76
125.0000	296.042
125.5000	296.472
126.0000	296.808
126.5000	297.141
127.0000	297.479
127.5000	297.757
128.0000	298.112
128.5000	298.471
129.0000	298.81
129.5000	299.219
130.0000	299.549
130.5000	299.89
131.0000	300.231
131.5000	300.575
132.0000	300.864
132.5000	301.166
133.0000	301.525
133.5000	301.82
134.0000	302.191
134.5000	302.506
135.0000	302.842
135.5000	303.196
136.0000	303.517
136.5000	303.813
137.0000	304.044
137.5000	304.331
138.0000	304.708
138.5000	305.104
139.0000	305.457
139.5000	305.798
140.0000	306.117
140.5000	306.485
141.0000	306.916
141.5000	307.211
142.0000	307.579
142.5000	307.884
143.0000	308.178
143.5000	308.471
144.0000	308.77
144.5000	309.087
145.0000	309.439
145.5000	309.875
146.0000	310.156
146.5000	310.497
147.0000	310.853
147.5000	311.149
148.0000	311.509
148.5000	311.849
149.0000	312.172
149.5000	312.55
150.0000	312.887
150.5000	313.192
151.0000	313.46
151.5000	313.77
152.0000	314.116
152.5000	314.511
153.0000	314.904
153.5000	315.242
154.0000	315.54
154.5000	315.853
155.0000	316.208
155.5000	316.507
156.0000	316.885
156.5000	317.206
157.0000	317.473
157.5000	317.85
158.0000	318.205
158.5000	318.537
159.0000	318.865
159.5000	319.204
160.0000	319.515
160.5000	319.857
161.0000	320.266
161.5000	320.605
162.0000	320.975
162.5000	321.317
163.0000	321.619
163.5000	321.953
164.0000	322.279
164.5000	322.571
165.0000	322.849
165.5000	323.167
166.0000	323.451
166.5000	323.799
167.0000	324.179
167.5000	324.467
168.0000	324.77
168.5000	325.034
169.0000	325.364
169.5000	325.713
170.0000	326.099
170.5000	326.478
171.0000	326.82
171.5000	327.136
172.0000	327.444
172.5000	327.79
173.0000	328.091
173.5000	328.431
174.0000	328.708
174.5000	329.079
175.0000	329.46
175.5000	329.777
176.0000	330.117
176.5000	330.421
177.0000	330.698
177.5000	330.972
178.0000	331.362
178.5000	331.611
179.0000	331.861
179.5000	332.242
180.0000	332.53
180.5000	332.835
181.0000	333.248
181.5000	333.568
182.0000	333.828
182.5000	334.255
183.0000	334.491
183.5000	334.742
184.0000	335.108
184.5000	335.414
185.0000	335.77
185.5000	336.14
186.0000	336.417
186.5000	336.654
187.0000	336.9
187.5000	337.188
188.0000	337.526
188.5000	337.879
189.0000	338.301
189.5000	338.637
190.0000	338.921
190.5000	339.195
191.0000	339.461
191.5000	339.748
192.0000	340.039
192.5000	340.375
193.0000	340.676
193.5000	340.972
194.0000	341.317
194.5000	341.582
195.0000	341.875
195.5000	342.218
196.0000	342.487
196.5000	342.874
197.0000	343.138
197.5000	343.391
198.0000	343.702
198.5000	343.88
199.0000	344.2
199.5000	344.461
200.0000	344.752
200.5000	345.155
201.0000	345.379
201.5000	345.721
202.0000	346.029
202.5000	346.346
203.0000	346.646
203.5000	346.954
204.0000	347.292
204.5000	347.527
205.0000	347.882
205.5000	348.14
206.0000	348.317
206.5000	348.571
207.0000	348.904
207.5000	349.221
208.0000	349.591
208.5000	349.902
209.0000	350.152
209.5000	350.443
210.0000	350.717
210.5000	351.04
211.0000	351.326
211.5000	351.689
212.0000	351.963
212.5000	352.231
213.0000	352.583
213.5000	352.691
214.0000	352.946
214.5000	353.188
215.0000	353.36
215.5000	353.724
216.0000	354.036
216.5000	354.31
217.0000	354.61
217.5000	354.87
218.0000	355.129
218.5000	355.444
219.0000	355.723
219.5000	356.026
220.0000	356.294
220.5000	356.501
221.0000	356.769
221.5000	357.038
222.0000	357.341
222.5000	357.692
223.0000	358.054
223.5000	358.393
224.0000	358.745
224.5000	358.988
225.0000	359.282
225.5000	359.575
226.0000	359.794
226.5000	360.047
227.0000	360.291
227.5000	360.528
228.0000	360.816
228.5000	361.122
229.0000	361.385
229.5000	361.652
230.0000	361.909
230.5000	362.239
231.0000	362.51
231.5000	362.794
232.0000	363.105
232.5000	363.427
233.0000	363.694
233.5000	363.938
234.0000	364.164
234.5000	364.363
235.0000	364.711
235.5000	365.04
236.0000	365.417
236.5000	365.734
237.0000	366.011
237.5000	366.294
238.0000	366.546
238.5000	366.793
239.0000	367.048
239.5000	367.361
240.0000	367.635
240.5000	367.905
241.0000	368.159
241.5000	368.408
242.0000	368.688
242.5000	368.986
243.0000	369.312
243.5000	369.665
244.0000	369.971
244.5000	370.296
245.0000	370.583
245.5000	370.779
246.0000	371.082
246.5000	371.352
247.0000	371.585
247.5000	371.903
248.0000	372.097
248.5000	372.319
249.0000	372.629
249.5000	372.916
250.0000	373.162
250.5000	373.516
251.0000	373.746
251.5000	373.964
252.0000	374.299
252.5000	374.511
253.0000	374.773
253.5000	375.047
254.0000	375.277
254.5000	375.583
255.0000	375.873
255.5000	376.201
256.0000	376.485
256.5000	376.754
257.0000	376.961
257.5000	377.108
258.0000	377.37
258.5000	377.613
259.0000	377.899
259.5000	378.222
260.0000	378.453
260.5000	378.719
261.0000	378.978
261.5000	379.267
262.0000	379.572
262.5000	379.831
263.0000	380.113
263.5000	380.358
264.0000	380.641
264.5000	380.946
265.0000	381.278
265.5000	381.528
266.0000	381.752
266.5000	381.935
267.0000	382.183
267.5000	382.438
268.0000	382.72
268.5000	383.047
269.0000	383.365
269.5000	383.619
270.0000	383.859
270.5000	384.13
271.0000	384.3
271.5000	384.534
272.0000	384.742
272.5000	384.952
273.0000	385.194
273.5000	385.577
274.0000	385.933
274.5000	386.197
275.0000	386.446
275.5000	386.584
276.0000	386.833
276.5000	387.133
277.0000	387.407
277.5000	387.679
278.0000	387.934
278.5000	388.179
279.0000	388.459
279.5000	388.774
280.0000	388.984
280.5000	389.202
281.0000	389.44
281.5000	389.699
282.0000	389.954
282.5000	390.172
283.0000	390.436
283.5000	390.639
284.0000	390.881
284.5000	391.128
285.0000	391.327
285.5000	391.497
286.0000	391.752
286.5000	391.972
287.0000	392.28
287.5000	392.558
288.0000	392.919
288.5000	393.234
289.0000	393.496
289.5000	393.807
290.0000	393.924
290.5000	394.187
291.0000	394.437
291.5000	394.667
292.0000	394.882
292.5000	395.03
293.0000	395.19
293.5000	395.452
294.0000	395.724
294.5000	396.04
295.0000	396.402
295.5000	396.607
296.0000	396.896
296.5000	397.162
297.0000	397.384
297.5000	397.607
298.0000	397.859
298.5000	398.037
299.0000	398.206
299.5000	398.444
300.0000	398.683
300.5000	398.925
301.0000	399.153
301.5000	399.401
302.0000	399.67
302.5000	399.972
303.0000	400.253
303.5000	400.535
304.0000	400.764
304.5000	400.957
305.0000	401.235
305.5000	401.448
306.0000	401.649
306.5000	401.913
307.0000	402.152
307.5000	402.415
308.0000	402.686
308.5000	402.892
309.0000	403.072
309.5000	403.303
310.0000	403.585
310.5000	403.786
311.0000	404.021
311.5000	404.23
312.0000	404.325
312.5000	404.619
313.0000	404.837
313.5000	405.07
314.0000	405.358
314.5000	405.53
315.0000	405.865
315.5000	406.14
316.0000	406.388
316.5000	406.68
317.0000	406.881
317.5000	407.102
318.0000	407.34
318.5000	407.54
319.0000	407.722
319.5000	407.908
320.0000	408.12
320.5000	408.47
321.0000	408.675
321.5000	408.973
322.0000	409.146
322.5000	409.286
323.0000	409.515
323.5000	409.673
324.0000	409.946
324.5000	410.161
325.0000	410.363
325.5000	410.645
326.0000	410.86
326.5000	411.13
327.0000	411.397
327.5000	411.6
328.0000	411.873
328.5000	412.029
329.0000	412.226
329.5000	412.476
330.0000	412.64
330.5000	412.925
331.0000	413.139
331.5000	413.322
332.0000	413.561
332.5000	413.772
333.0000	414.09
333.5000	414.389
334.0000	414.631
334.5000	414.863
335.0000	415.013
335.5000	415.225
336.0000	415.468
336.5000	415.619
337.0000	415.813
337.5000	415.929
338.0000	416.045
338.5000	416.275
339.0000	416.594
339.5000	416.852
340.0000	417.216
340.5000	417.514
341.0000	417.674
341.5000	417.938
342.0000	418.115
342.5000	418.407
343.0000	418.608
343.5000	418.805
344.0000	418.992
344.5000	419.126
345.0000	419.421
345.5000	419.581
346.0000	419.84
346.5000	420.029
347.0000	420.268
347.5000	420.582
348.0000	420.798
348.5000	421.028
349.0000	421.119
349.5000	421.277
350.0000	421.515
350.5000	421.686
351.0000	421.983
351.5000	422.233
352.0000	422.392
352.5000	422.627
353.0000	422.83
353.5000	423.086
354.0000	423.314
354.5000	423.539
355.0000	423.705
355.5000	423.863
356.0000	424.074
356.5000	424.342
357.0000	424.594
357.5000	424.754
358.0000	424.925
358.5000	425.097
359.0000	425.35
359.5000	425.617
360.0000	425.907
360.5000	426.059
361.0000	426.226
361.5000	426.432
362.0000	426.549
362.5000	426.784
363.0000	427.016
363.5000	427.261
364.0000	427.472
364.5000	427.709
365.0000	427.879
365.5000	428.021
366.0000	428.234
366.5000	428.419
367.0000	428.666
367.5000	428.846
368.0000	429.113
368.5000	429.367
369.0000	429.495
369.5000	429.78
370.0000	429.993
370.5000	430.109
371.0000	430.338
371.5000	430.551
372.0000	430.782
372.5000	430.992
373.0000	431.21
373.5000	431.37
374.0000	431.508
374.5000	431.795
375.0000	432.037
375.5000	432.22
376.0000	432.385
376.5000	432.523
377.0000	432.744
377.5000	432.972
378.0000	433.162
378.5000	433.421
379.0000	433.581
379.5000	433.881
380.0000	434.105
380.5000	434.318
381.0000	434.537
381.5000	434.688
382.0000	434.914
382.5000	435.046
383.0000	435.258
383.5000	435.424
384.0000	435.681
384.5000	435.966
385.0000	436.195
385.5000	436.45
386.0000	436.566
386.5000	436.752
387.0000	436.939
387.5000	437.098
388.0000	437.376
388.5000	437.516
389.0000	437.619
389.5000	437.751
390.0000	437.87
390.5000	438.022
391.0000	438.286
391.5000	438.574
392.0000	438.811
392.5000	439.005
393.0000	439.265
393.5000	439.394
394.0000	439.529
394.5000	439.83
395.0000	439.933
395.5000	440.171
396.0000	440.432
396.5000	440.603
397.0000	440.817
397.5000	440.901
398.0000	441.029
398.5000	441.169
399.0000	441.427
399.5000	441.712
400.0000	441.913
400.5000	442.151
401.0000	442.259
401.5000	442.402
402.0000	442.578
402.5000	442.702
403.0000	442.964
403.5000	443.209
404.0000	443.417
404.5000	443.665
405.0000	443.735
405.5000	443.924
406.0000	444.123
406.5000	444.277
407.0000	444.523
407.5000	444.654
408.0000	444.881
408.5000	445.081
409.0000	445.206
409.5000	445.398
410.0000	445.506
410.5000	445.704
411.0000	446.02
411.5000	446.228
412.0000	446.551
412.5000	446.791
413.0000	446.917
413.5000	447.07
414.0000	447.152
414.5000	447.314
415.0000	447.481
415.5000	447.703
416.0000	447.968
416.5000	448.14
417.0000	448.228
417.5000	448.354
418.0000	448.459
418.5000	448.658
419.0000	448.947
419.5000	449.204
420.0000	449.373
420.5000	449.564
421.0000	449.736
421.5000	449.864
422.0000	450.074
422.5000	450.163
423.0000	450.325
423.5000	450.511
424.0000	450.721
424.5000	450.926
425.0000	451.125
425.5000	451.372
426.0000	451.51
426.5000	451.755
427.0000	452.013
427.5000	452.17
428.0000	452.346
428.5000	452.54
429.0000	452.571
429.5000	452.742
430.0000	453.089
430.5000	453.244
431.0000	453.465
431.5000	453.651
432.0000	453.791
432.5000	453.991
433.0000	454.26
433.5000	454.435
434.0000	454.529
434.5000	454.676
435.0000	454.763
435.5000	454.926
436.0000	455.089
436.5000	455.231
437.0000	455.476
437.5000	455.726
438.0000	455.896
438.5000	456.099
439.0000	456.222
439.5000	456.279
440.0000	456.538
440.5000	456.829
441.0000	456.955
441.5000	457.222
442.0000	457.337
442.5000	457.416
443.0000	457.631
443.5000	457.833
444.0000	458.016
444.5000	458.137
445.0000	458.377
445.5000	458.526
446.0000	458.668
446.5000	458.89
447.0000	459.043
447.5000	459.239
448.0000	459.421
448.5000	459.604
449.0000	459.734
449.5000	459.917
450.0000	460.123
450.5000	460.264
451.0000	460.477
451.5000	460.575
452.0000	460.76
452.5000	461.009
453.0000	461.187
453.5000	461.361
454.0000	461.498
454.5000	461.659
455.0000	461.907
455.5000	462.099
456.0000	462.384
456.5000	462.561
457.0000	462.741
457.5000	462.893
458.0000	462.916
458.5000	463.015
459.0000	463.102
459.5000	463.382
460.0000	463.625
460.5000	463.781
461.0000	463.895
461.5000	464.005
462.0000	464.184
462.5000	464.412
463.0000	464.598
463.5000	464.686
464.0000	464.813
464.5000	465.006
465.0000	465.288
465.5000	465.535
466.0000	465.781
466.5000	465.879
467.0000	465.962
467.5000	466.069
468.0000	466.198
468.5000	466.363
469.0000	466.586
469.5000	466.802
470.0000	467.014
470.5000	467.184
471.0000	467.265
471.5000	467.487
472.0000	467.684
472.5000	467.87
473.0000	468.091
473.5000	468.255
474.0000	468.322
474.5000	468.548
475.0000	468.636
475.5000	468.748
476.0000	468.899
476.5000	469.071
477.0000	469.321
477.5000	469.508
478.0000	469.625
478.5000	469.707
479.0000	469.866
479.5000	469.992
480.0000	470.205
480.5000	470.483
481.0000	470.706
481.5000	470.901
482.0000	471.043
482.5000	471.17
483.0000	471.392
483.5000	471.522
484.0000	471.709
484.5000	471.916
485.0000	471.971
485.5000	472.128
486.0000	472.397
486.5000	472.477
487.0000	472.638
487.5000	472.835
488.0000	473.001
488.5000	473.157
489.0000	473.3
489.5000	473.542
490.0000	473.605
490.5000	473.787
491.0000	473.922
491.5000	473.997
492.0000	474.187
492.5000	474.369
493.0000	474.585
493.5000	474.844
494.0000	475.013
494.5000	475.193
495.0000	475.356
495.5000	475.454
496.0000	475.582
496.5000	475.819
497.0000	475.947
497.5000	476.034
498.0000	476.232
498.5000	476.309
499.0000	476.366
499.5000	476.579
500.0000	476.713
500.5000	476.908
501.0000	477.155
501.5000	477.255
502.0000	477.468
502.5000	477.557
503.0000	477.836
503.5000	478.101
504.0000	478.207
504.5000	478.409
505.0000	478.561
505.5000	478.714
506.0000	478.914
506.5000	479.057
507.0000	479.194
507.5000	479.342
508.0000	479.482
508.5000	479.632
509.0000	479.819
509.5000	479.9
510.0000	480.051
510.5000	480.25
511.0000	480.384
511.5000	480.568
512.0000	480.785
512.5000	481.056
513.0000	481.249
513.5000	481.507
514.0000	481.681
514.5000	481.737
515.0000	481.897
515.5000	482.032
516.0000	482.018
516.5000	482.174
517.0000	482.375
517.5000	482.503
518.0000	482.818
518.5000	482.961
519.0000	483.108
519.5000	483.249
520.0000	483.422
520.5000	483.617
521.0000	483.693
521.5000	483.924
522.0000	484.049
522.5000	484.219
523.0000	484.317
523.5000	484.41
524.0000	484.523
524.5000	484.603
525.0000	484.817
525.5000	485.053
526.0000	485.2
526.5000	485.355
527.0000	485.598
527.5000	485.772
528.0000	485.935
528.5000	486.087
529.0000	486.182
529.5000	486.293
530.0000	486.574
530.5000	486.694
531.0000	486.858
531.5000	487.092
532.0000	487.137
532.5000	487.458
533.0000	487.62
533.5000	487.618
534.0000	487.754
534.5000	487.877
535.0000	488.051
535.5000	488.27
536.0000	488.58
536.5000	488.749
537.0000	488.878
537.5000	489.067
538.0000	489.133
538.5000	489.139
539.0000	489.309
539.5000	489.527
540.0000	489.715
540.5000	489.965
541.0000	490.182
541.5000	490.234
542.0000	490.251
542.5000	490.348
543.0000	490.49
543.5000	490.702
544.0000	490.957
544.5000	491.166
545.0000	491.257
545.5000	491.343
546.0000	491.408
546.5000	491.523
547.0000	491.585
547.5000	491.81
548.0000	492.033
548.5000	492.236
549.0000	492.394
549.5000	492.494
550.0000	492.741
550.5000	492.878
551.0000	493.079
551.5000	493.27
552.0000	493.329
552.5000	493.405
553.0000	493.522
553.5000	493.607
554.0000	493.754
554.5000	493.982
555.0000	494.095
555.5000	494.259
556.0000	494.469
556.5000	494.726
557.0000	494.971
557.5000	495.055
558.0000	495.159
558.5000	495.251
559.0000	495.272
559.5000	495.511
560.0000	495.615
560.5000	495.734
561.0000	496.066
561.5000	496.142
562.0000	496.311
562.5000	496.413
563.0000	496.488
563.5000	496.783
564.0000	496.983
564.5000	497.184
565.0000	497.442
565.5000	497.505
566.0000	497.637
566.5000	497.682
567.0000	497.729
567.5000	497.911
568.0000	498.027
568.5000	498.246
569.0000	498.373
569.5000	498.476
570.0000	498.601
570.5000	498.689
571.0000	498.862
571.5000	498.986
572.0000	499.208
572.5000	499.465
573.0000	499.542
573.5000	499.755
574.0000	499.857
574.5000	499.928
575.0000	500.162
575.5000	500.305
576.0000	500.438
576.5000	500.628
577.0000	500.748
577.5000	500.87
578.0000	501.04
578.5000	501.165
579.0000	501.361
579.5000	501.511
580.0000	501.594
580.5000	501.667
581.0000	501.757
581.5000	502.008
582.0000	502.269
582.5000	502.459
583.0000	502.616
583.5000	502.741
584.0000	502.895
584.5000	503.01
585.0000	503.232
585.5000	503.359
586.0000	503.437
586.5000	503.749
587.0000	503.838
587.5000	503.936
588.0000	504.126
588.5000	504.158
589.0000	504.279
589.5000	504.403
590.0000	504.462
590.5000	504.565
591.0000	504.669
591.5000	504.849
592.0000	504.979
592.5000	505.173
593.0000	505.315
593.5000	505.142
594.0000	505.102
594.5000	504.952
595.0000	504.944
595.5000	505.179
596.0000	505.356
596.5000	505.546
597.0000	505.794
597.5000	505.977
598.0000	506.135
598.5000	506.386
599.0000	506.566
599.5000	506.683
600.0000	506.931
600.5000	507.126
601.0000	507.197
601.5000	507.461
602.0000	507.699
602.5000	507.803
603.0000	508.07
603.5000	508.282
604.0000	508.363
604.5000	508.643
605.0000	508.725
605.5000	508.821
606.0000	508.998
606.5000	509.191
607.0000	509.312
607.5000	509.464
608.0000	509.614
608.5000	509.66
609.0000	509.777
609.5000	509.89
610.0000	510.018
610.5000	510.172
611.0000	510.377
611.5000	510.53
612.0000	510.66
612.5000	510.752
613.0000	510.917
613.5000	511.133
614.0000	511.291
614.5000	511.499
615.0000	511.693
615.5000	511.758
616.0000	511.92
616.5000	512.041
617.0000	512.223
617.5000	512.466
618.0000	512.546
618.5000	512.637
619.0000	512.72
619.5000	512.792
620.0000	512.95
620.5000	513.143
621.0000	513.216
621.5000	513.364
622.0000	513.454
622.5000	513.602
623.0000	513.664
623.5000	513.754
624.0000	513.895
624.5000	513.999
625.0000	514.236
625.5000	514.4
626.0000	514.605
626.5000	514.744
627.0000	514.873
627.5000	514.946
628.0000	515.018
628.5000	515.144
629.0000	515.314
629.5000	515.415
630.0000	515.57
630.5000	515.727
631.0000	515.797
631.5000	515.961
632.0000	516.149
632.5000	516.329
633.0000	516.445
633.5000	516.682
634.0000	516.76
634.5000	516.815
635.0000	516.968
635.5000	517.104
636.0000	517.217
636.5000	517.36
637.0000	517.523
637.5000	517.617
638.0000	517.779
638.5000	517.937
639.0000	518.079
639.5000	518.161
640.0000	518.198
640.5000	518.378
641.0000	518.465
641.5000	518.595
642.0000	518.904
642.5000	518.857
643.0000	518.921
643.5000	519.129
644.0000	519.244
644.5000	519.471
645.0000	519.742
645.5000	519.814
646.0000	519.892
646.5000	520.073
647.0000	520.114
647.5000	520.205
648.0000	520.379
648.5000	520.464
649.0000	520.594
649.5000	520.776
650.0000	520.91
650.5000	520.993
651.0000	521.139
651.5000	521.358
652.0000	521.46
652.5000	521.575
653.0000	521.723
653.5000	521.749
654.0000	521.877
654.5000	522.097
655.0000	522.2
655.5000	522.319
656.0000	522.42
656.5000	522.498
657.0000	522.527
657.5000	522.707
658.0000	522.864
658.5000	523.015
659.0000	523.254
659.5000	523.361
660.0000	523.459
660.5000	523.555
661.0000	523.598
661.5000	523.715
662.0000	523.893
662.5000	524.026
663.0000	524.244
663.5000	524.373
664.0000	524.471
664.5000	524.549
665.0000	524.684
665.5000	524.73
666.0000	524.799
666.5000	524.972
667.0000	525.189
667.5000	525.333
668.0000	525.354
668.5000	525.478
669.0000	525.524
669.5000	525.616
670.0000	525.845
670.5000	525.935
671.0000	525.971
671.5000	526.161
672.0000	526.201
672.5000	526.363
673.0000	526.595
673.5000	526.725
674.0000	526.931
674.5000	527.057
675.0000	527.083
675.5000	527.151
676.0000	527.361
676.5000	527.396
677.0000	527.54
677.5000	527.634
678.0000	527.668
678.5000	527.836
679.0000	527.895
679.5000	528.09
680.0000	528.239
680.5000	528.352
681.0000	528.457
681.5000	528.633
682.0000	528.711
682.5000	528.884
683.0000	529.032
683.5000	529.027
684.0000	529.153
684.5000	529.226
685.0000	529.366
685.5000	529.532
686.0000	529.677
686.5000	529.794
687.0000	529.967
687.5000	530.115
688.0000	530.177
688.5000	530.289
689.0000	530.396
689.5000	530.545
690.0000	530.663
690.5000	530.76
691.0000	530.872
691.5000	530.95
692.0000	531.009
692.5000	531.137
693.0000	531.247
693.5000	531.297
694.0000	531.444
694.5000	531.585
695.0000	531.65
695.5000	531.734
696.0000	531.867
696.5000	531.969
697.0000	532.101
697.5000	532.241
698.0000	532.355
698.5000	532.458
699.0000	532.583
699.5000	532.698
700.0000	532.884
700.5000	533.003
701.0000	533.112
701.5000	533.293
702.0000	533.373
702.5000	533.573
703.0000	533.674
703.5000	533.617
704.0000	533.671
704.5000	533.711
705.0000	533.818
705.5000	533.957
706.0000	534.026
706.5000	533.974
707.0000	534.116
707.5000	534.233
708.0000	534.366
708.5000	534.615
709.0000	534.632
709.5000	534.817
710.0000	534.9
710.5000	534.899
711.0000	535.001
711.5000	535.075
712.0000	535.138
712.5000	535.306
713.0000	535.432
713.5000	535.543
714.0000	535.64
714.5000	535.788
715.0000	535.97
715.5000	536.088
716.0000	536.339
716.5000	536.411
717.0000	536.401
717.5000	536.429
718.0000	536.434
718.5000	536.543
719.0000	536.661
719.5000	536.783
720.0000	536.871
720.5000	537.044
721.0000	537.258
721.5000	537.339
722.0000	537.514
722.5000	537.582
723.0000	537.567
723.5000	537.692
724.0000	537.777
724.5000	537.767
725.0000	537.909
725.5000	538.066
726.0000	538.07
726.5000	538.135
727.0000	538.204
727.5000	538.274
728.0000	538.45
728.5000	538.557
729.0000	538.683
729.5000	538.685
730.0000	538.688
730.5000	538.879
731.0000	538.959
731.5000	539.09
732.0000	539.251
732.5000	539.366
733.0000	539.565
733.5000	539.57
734.0000	539.741
734.5000	539.812
735.0000	539.776
735.5000	540.082
736.0000	540.1
736.5000	540.137
737.0000	540.185
737.5000	540.15
738.0000	540.299
738.5000	540.409
739.0000	540.538
739.5000	540.621
740.0000	540.699
740.5000	540.828
741.0000	540.958
741.5000	541.093
742.0000	541.265
742.5000	541.305
743.0000	541.453
743.5000	541.534
744.0000	541.533
744.5000	541.614
745.0000	541.616
745.5000	541.727
746.0000	541.853
746.5000	542.019
747.0000	542.148
747.5000	542.17
748.0000	542.235
748.5000	542.393
749.0000	542.452
749.5000	542.621
750.0000	542.763
750.5000	542.736
751.0000	542.817
751.5000	542.963
752.0000	542.964
752.5000	543.129
753.0000	543.22
753.5000	543.205
754.0000	543.372
754.5000	543.424
755.0000	543.623
755.5000	543.737
756.0000	543.789
756.5000	543.899
757.0000	543.921
757.5000	543.989
758.0000	544.054
758.5000	544.126
759.0000	544.185
759.5000	544.321
760.0000	544.474
760.5000	544.613
761.0000	544.72
761.5000	544.68
762.0000	544.798
762.5000	544.85
763.0000	544.908
763.5000	545.112
764.0000	545.123
764.5000	545.214
765.0000	545.389
765.5000	545.498
766.0000	545.724
766.5000	545.851
767.0000	545.866
767.5000	545.952
768.0000	545.929
768.5000	545.947
769.0000	546.081
769.5000	546.154
770.0000	546.174
770.5000	546.312
771.0000	546.342
771.5000	546.393
772.0000	546.59
772.5000	546.643
773.0000	546.692
773.5000	546.805
774.0000	546.88
774.5000	546.953
775.0000	547.141
775.5000	547.349
776.0000	547.418
776.5000	547.464
777.0000	547.548
777.5000	547.538
778.0000	547.657
778.5000	547.751
779.0000	547.766
779.5000	547.827
780.0000	547.877
780.5000	547.98
781.0000	548.194
781.5000	548.282
782.0000	548.313
782.5000	548.427
783.0000	548.478
783.5000	548.705
784.0000	548.848
784.5000	549.017
785.0000	549.128
785.5000	549.095
786.0000	549.115
786.5000	549.137
787.0000	549.153
787.5000	549.249
788.0000	549.425
788.5000	549.476
789.0000	549.571
789.5000	549.563
790.0000	549.682
790.5000	549.715
791.0000	549.805
791.5000	549.99
792.0000	549.976
792.5000	550.165
793.0000	550.248
793.5000	550.361
794.0000	550.447
794.5000	550.449
795.0000	550.493
795.5000	550.579
796.0000	550.607
796.5000	550.806
797.0000	550.838
797.5000	550.791
798.0000	550.932
798.5000	551.023
799.0000	551.246
799.5000	551.566
800.0000	551.644
800.5000	551.599
801.0000	551.571
801.5000	551.469
802.0000	551.571
802.5000	551.604
803.0000	551.752
803.5000	551.914
804.0000	551.956
804.5000	552.084
805.0000	552.202
805.5000	552.164
806.0000	552.311
806.5000	552.479
807.0000	552.558
807.5000	552.77
808.0000	552.796
808.5000	552.933
809.0000	552.983
809.5000	552.988
810.0000	553.114
810.5000	553.08
811.0000	553.148
811.5000	553.307
812.0000	553.393
812.5000	553.5
813.0000	553.667
813.5000	553.721
814.0000	553.897
814.5000	554.047
815.0000	554.023
815.5000	554.118
816.0000	554.038
816.5000	554.033
817.0000	554.197
817.5000	554.301
818.0000	554.384
818.5000	554.473
819.0000	554.577
819.5000	554.609
820.0000	554.744
820.5000	554.824
821.0000	554.831
821.5000	554.898
822.0000	554.924
822.5000	555.055
823.0000	555.185
823.5000	555.248
824.0000	555.374
824.5000	555.492
825.0000	555.604
825.5000	555.744
826.0000	555.79
826.5000	555.897
827.0000	555.931
827.5000	555.979
828.0000	556.006
828.5000	555.988
829.0000	556.153
829.5000	556.222
830.0000	556.379
830.5000	556.428
831.0000	556.477
831.5000	556.588
832.0000	556.66
832.5000	556.831
833.0000	556.815
833.5000	556.827
834.0000	556.934
834.5000	556.994
835.0000	557.182
835.5000	557.382
836.0000	557.394
836.5000	557.447
837.0000	557.554
837.5000	557.514
838.0000	557.686
838.5000	557.794
839.0000	557.757
839.5000	557.935
840.0000	558.048
840.5000	558.229
841.0000	558.38
841.5000	558.288
842.0000	558.418
842.5000	558.407
843.0000	558.447
843.5000	558.59
844.0000	558.617
844.5000	558.666
845.0000	558.785
845.5000	558.867
846.0000	558.922
846.5000	559.021
847.0000	559.117
847.5000	559.229
848.0000	559.318
848.5000	559.473
849.0000	559.328
849.5000	559.452
850.0000	559.56
850.5000	559.61
851.0000	559.856
851.5000	559.878
852.0000	559.944
852.5000	559.915
853.0000	559.982
853.5000	560.155
854.0000	560.205
854.5000	560.335
855.0000	560.458
855.5000	560.452
856.0000	560.496
856.5000	560.532
857.0000	560.56
857.5000	560.699
858.0000	560.905
858.5000	561.075
859.0000	561.176
859.5000	561.321
860.0000	561.287
860.5000	561.349
861.0000	561.526
861.5000	561.507
862.0000	561.593
862.5000	561.617
863.0000	561.548
863.5000	561.774
864.0000	561.919
864.5000	562.123
865.0000	562.426
865.5000	562.366
866.0000	562.413
866.5000	562.407
867.0000	562.375
867.5000	562.384
868.0000	562.423
868.5000	562.437
869.0000	562.365
869.5000	562.526
870.0000	562.671
870.5000	562.782
871.0000	563.031
871.5000	563.183
872.0000	563.194
872.5000	563.382
873.0000	563.435
873.5000	563.417
874.0000	563.57
874.5000	563.517
875.0000	563.521
875.5000	563.575
876.0000	563.594
876.5000	563.649
877.0000	563.694
877.5000	563.805
878.0000	563.914
878.5000	564.065
879.0000	564.169
879.5000	564.256
880.0000	564.287
880.5000	564.359
881.0000	564.407
881.5000	564.477
882.0000	564.631
882.5000	564.727
883.0000	564.754
883.5000	564.952
884.0000	564.976
884.5000	564.966
885.0000	565.178
885.5000	565.16
886.0000	565.086
886.5000	565.132
887.0000	565.222
887.5000	565.226
888.0000	565.503
888.5000	565.78
889.0000	565.784
889.5000	565.857
890.0000	565.953
890.5000	565.862
891.0000	565.847
891.5000	565.94
892.0000	565.91
892.5000	565.961
893.0000	566.136
893.5000	566.266
894.0000	566.342
894.5000	566.492
895.0000	566.497
895.5000	566.604
896.0000	566.64
896.5000	566.713
897.0000	567.022
897.5000	567.002
898.0000	567.035
898.5000	567.209
899.0000	567.061
899.5000	567.144
900.0000	567.278
900.5000	567.336
901.0000	567.509
901.5000	567.729
902.0000	567.808
902.5000	567.783
903.0000	567.777
903.5000	567.739
904.0000	567.824
904.5000	568.039
905.0000	568.111
905.5000	568.086
906.0000	568.134
906.5000	568.088
907.0000	568.145
907.5000	568.327
908.0000	568.412
908.5000	568.491
909.0000	568.666
909.5000	568.666
910.0000	568.673
910.5000	568.73
911.0000	568.727
911.5000	568.82
912.0000	568.941
912.5000	569.091
913.0000	569.262
913.5000	569.325
914.0000	569.464
914.5000	569.427
915.0000	569.446
915.5000	569.545
916.0000	569.612
916.5000	569.75
917.0000	569.74
917.5000	569.854
918.0000	569.977
918.5000	569.984
919.0000	570.016
919.5000	570.059
920.0000	570.054
920.5000	570.162
921.0000	570.256
921.5000	570.197
922.0000	570.311
922.5000	570.394
923.0000	570.518
923.5000	570.697
924.0000	570.738
924.5000	570.754
925.0000	570.851
925.5000	570.824
926.0000	570.805
926.5000	570.802
927.0000	570.907
927.5000	571.028
928.0000	571.144
928.5000	571.231
929.0000	571.278
929.5000	571.424
930.0000	571.449
930.5000	571.687
931.0000	571.706
931.5000	571.699
932.0000	571.901
932.5000	571.893
933.0000	571.974
933.5000	572.189
934.0000	572.24
934.5000	572.299
935.0000	572.381
935.5000	572.312
936.0000	572.334
936.5000	572.364
937.0000	572.432
937.5000	572.5
938.0000	572.63
938.5000	572.698
939.0000	572.726
939.5000	572.81
940.0000	572.781
940.5000	572.917
941.0000	572.998
941.5000	573.142
942.0000	573.212
942.5000	573.264
943.0000	573.323
943.5000	573.365
944.0000	573.38
944.5000	573.477
945.0000	573.561
945.5000	573.557
946.0000	573.741
946.5000	573.691
947.0000	573.711
947.5000	573.875
948.0000	573.88
948.5000	574.136
949.0000	574.222
949.5000	574.231
950.0000	574.304
950.5000	574.217
951.0000	574.369
951.5000	574.402
952.0000	574.621
952.5000	574.698
953.0000	574.699
953.5000	574.808
954.0000	574.823
954.5000	575.013
955.0000	575.069
955.5000	575.038
956.0000	575.065
956.5000	575.05
957.0000	575.085
957.5000	575.235
958.0000	575.322
958.5000	575.341
959.0000	575.384
959.5000	575.587
960.0000	575.686
960.5000	575.74
961.0000	575.91
961.5000	575.926
962.0000	575.883
962.5000	576.017
963.0000	576.015
963.5000	575.932
964.0000	576.001
964.5000	575.954
965.0000	576.11
965.5000	576.334
966.0000	576.363
966.5000	576.421
967.0000	576.465
967.5000	576.427
968.0000	576.537
968.5000	576.725
969.0000	576.813
969.5000	576.915
970.0000	576.951
970.5000	577.028
971.0000	577.151
971.5000	577.266
972.0000	577.318
972.5000	577.279
973.0000	577.234
973.5000	577.274
974.0000	577.303
974.5000	577.407
975.0000	577.479
975.5000	577.509
976.0000	577.767
976.5000	577.848
977.0000	577.855
977.5000	577.929
978.0000	577.935
978.5000	577.93
979.0000	578.045
979.5000	578.132
980.0000	578.109
980.5000	578.254
981.0000	578.361
981.5000	578.363
982.0000	578.382
982.5000	578.486
983.0000	578.441
983.5000	578.5
984.0000	578.615
984.5000	578.662
985.0000	578.796
985.5000	578.849
986.0000	578.979
986.5000	579.028
987.0000	579.112
987.5000	579.251
988.0000	579.396
988.5000	579.425
989.0000	579.43
989.5000	579.424
990.0000	579.415
990.5000	579.467
991.0000	579.543
991.5000	579.701
992.0000	579.867
992.5000	580.043
993.0000	580.108
993.5000	580.103
994.0000	580.061
994.5000	580.004
995.0000	580.074
995.5000	580.202
996.0000	580.253
996.5000	580.273
997.0000	580.472
997.5000	580.596
998.0000	580.624
998.5000	580.844
999.0000	580.866
999.5000	580.901
1000.0000	580.967
1000.5000	581.004
1001.0000	580.991
1001.5000	580.93
1002.0000	581.075
1002.5000	581.176
1003.0000	581.307
1003.5000	581.469
1004.0000	581.495
1004.5000	581.443
1005.0000	581.351
1005.5000	581.396
1006.0000	581.414
1006.5000	581.533
1007.0000	581.644
1007.5000	581.668
1008.0000	581.761
1008.5000	581.814
1009.0000	581.967
1009.5000	582.136
1010.0000	582.212
1010.5000	582.268
1011.0000	582.252
1011.5000	582.182
1012.0000	582.196
1012.5000	582.185
1013.0000	582.319
1013.5000	582.401
1014.0000	582.521
1014.5000	582.622
1015.0000	582.645
1015.5000	582.74
1016.0000	582.848
1016.5000	582.947
1017.0000	582.973
1017.5000	583.029
1018.0000	582.962
1018.5000	583.07
1019.0000	583.16
1019.5000	583.145
1020.0000	583.383
1020.5000	583.352
1021.0000	583.4
1021.5000	583.509
1022.0000	583.484
1022.5000	583.573
1023.0000	583.738
1023.5000	583.828
1024.0000	583.946
1024.5000	584.033
1025.0000	584.009
1025.5000	584.04
1026.0000	584.087
1026.5000	584.1
1027.0000	584.203
1027.5000	584.388
1028.0000	584.38
1028.5000	584.467
1029.0000	584.446
1029.5000	584.474
1030.0000	584.522
1030.5000	584.507
1031.0000	584.577
1031.5000	584.576
1032.0000	584.574
1032.5000	584.689
1033.0000	584.769
1033.5000	584.772
1034.0000	584.951
1034.5000	585.106
1035.0000	585.263
1035.5000	585.326
1036.0000	585.354
1036.5000	585.264
1037.0000	585.298
1037.5000	585.272
1038.0000	585.351
1038.5000	585.47
1039.0000	585.516
1039.5000	585.764
1040.0000	585.706
1040.5000	585.712
1041.0000	585.698
1041.5000	585.742
1042.0000	585.939
1042.5000	586.026
1043.0000	586.147
1043.5000	586.274
1044.0000	586.179
1044.5000	586.201
1045.0000	586.173
1045.5000	586.055
1046.0000	586.138
1046.5000	586.297
1047.0000	586.456
1047.5000	586.602
1048.0000	586.686
1048.5000	586.713
1049.0000	586.703
1049.5000	586.685
1050.0000	586.841
1050.5000	586.862
1051.0000	586.96
1051.5000	587.062
1052.0000	587.049
1052.5000	587.117
1053.0000	587.166
1053.5000	587.224
1054.0000	587.285
1054.5000	587.389
1055.0000	587.435
1055.5000	587.533
1056.0000	587.622
1056.5000	587.71
1057.0000	587.714
1057.5000	587.687
1058.0000	587.621
1058.5000	587.551
1059.0000	587.667
1059.5000	587.798
1060.0000	588.071
1060.5000	588.198
1061.0000	588.186
1061.5000	588.172
1062.0000	588.024
1062.5000	588.064
1063.0000	588.173
1063.5000	588.294
1064.0000	588.42
1064.5000	588.528
1065.0000	588.649
1065.5000	588.648
1066.0000	588.736
1066.5000	588.693
1067.0000	588.725
1067.5000	588.8
1068.0000	588.811
1068.5000	588.858
1069.0000	588.745
1069.5000	588.786
1070.0000	588.841
1070.5000	588.989
1071.0000	589.152
1071.5000	589.271
1072.0000	589.327
1072.5000	589.399
1073.0000	589.376
1073.5000	589.382
1074.0000	589.461
1074.5000	589.423
1075.0000	589.619
1075.5000	589.664
1076.0000	589.658
1076.5000	589.661
1077.0000	589.599
1077.5000	589.623
1078.0000	589.648
1078.5000	589.914
1079.0000	590.08
1079.5000	590.152
1080.0000	590.189
1080.5000	590.138
1081.0000	590.144
1081.5000	590.212
1082.0000	590.374
1082.5000	590.453
1083.0000	590.55
1083.5000	590.593
1084.0000	590.548
1084.5000	590.461
1085.0000	590.481
1085.5000	590.433
1086.0000	590.541
1086.5000	590.811
1087.0000	590.885
1087.5000	591.047
1088.0000	591.105
1088.5000	591.014
1089.0000	590.967
1089.5000	591.013
1090.0000	590.958
1090.5000	590.901
1091.0000	591.039
1091.5000	591.026
1092.0000	591.231
1092.5000	591.472
1093.0000	591.485
1093.5000	591.498
1094.0000	591.502
1094.5000	591.473
1095.0000	591.476
1095.5000	591.677
1096.0000	591.771
1096.5000	591.807
1097.0000	591.971
1097.5000	592.04
1098.0000	592.081
1098.5000	592.128
1099.0000	592.169
1099.5000	592.169
1100.0000	592.183
1100.5000	592.358
1101.0000	592.214
1101.5000	592.247
1102.0000	592.288
1102.5000	592.21
1103.0000	592.422
1103.5000	592.529
1104.0000	592.552
1104.5000	592.548
1105.0000	592.593
1105.5000	592.622
1106.0000	592.664
1106.5000	592.853
1107.0000	592.859
1107.5000	592.941
1108.0000	593.058
1108.5000	593.01
1109.0000	593.016
1109.5000	592.939
1110.0000	592.927
1110.5000	593.007
1111.0000	593.142
1111.5000	593.223
1112.0000	593.268
1112.5000	593.361
1113.0000	593.357
1113.5000	593.407
1114.0000	593.404
1114.5000	593.397
1115.0000	593.45
1115.5000	593.476
1116.0000	593.686
1116.5000	593.687
1117.0000	593.696
1117.5000	593.759
1118.0000	593.74
1118.5000	593.846
1119.0000	593.91
1119.5000	594.006
1120.0000	594.105
1120.5000	594.168
1121.0000	594.264
1121.5000	594.327
1122.0000	594.293
1122.5000	594.317
1123.0000	594.376
1123.5000	594.311
1124.0000	594.36
1124.5000	594.371
1125.0000	594.402
1125.5000	594.551
1126.0000	594.653
1126.5000	594.71
1127.0000	594.766
1127.5000	594.813
1128.0000	594.898
1128.5000	594.933
1129.0000	594.909
1129.5000	594.948
1130.0000	594.895
1130.5000	594.963
1131.0000	595.042
1131.5000	595.131
1132.0000	595.208
1132.5000	595.239
1133.0000	595.303
1133.5000	595.281
1134.0000	595.313
1134.5000	595.395
1135.0000	595.466
1135.5000	595.56
1136.0000	595.575
1136.5000	595.496
1137.0000	595.56
1137.5000	595.583
1138.0000	595.589
1138.5000	595.802
1139.0000	595.818
1139.5000	595.78
1140.0000	595.843
1140.5000	595.885
1141.0000	595.919
1141.5000	595.992
1142.0000	596.119
1142.5000	596.153
1143.0000	596.254
1143.5000	596.376
1144.0000	596.364
1144.5000	596.356
1145.0000	596.321
1145.5000	596.355
1146.0000	596.435
1146.5000	596.515
1147.0000	596.631
1147.5000	596.606
1148.0000	596.728
1148.5000	596.784
1149.0000	596.745
1149.5000	596.789
1150.0000	596.681
1150.5000	596.786
1151.0000	596.832
1151.5000	596.878
1152.0000	596.97
1152.5000	596.955
1153.0000	597.156
1153.5000	597.153
1154.0000	597.208
1154.5000	597.194
1155.0000	597.082
1155.5000	597.203
1156.0000	597.243
1156.5000	597.329
1157.0000	597.443
1157.5000	597.386
1158.0000	597.388
1158.5000	597.491
1159.0000	597.416
1159.5000	597.429
1160.0000	597.622
1160.5000	597.608
1161.0000	597.758
1161.5000	598.018
1162.0000	597.911
1162.5000	598.046
1163.0000	598.077
1163.5000	598.022
1164.0000	598.208
1164.5000	598.095
1165.0000	598.144
1165.5000	598.156
1166.0000	598.033
1166.5000	598.191
1167.0000	598.125
1167.5000	598.375
1168.0000	598.585
1168.5000	598.583
1169.0000	598.63
1169.5000	598.415
1170.0000	598.451
1170.5000	598.479
1171.0000	598.625
1171.5000	598.796
1172.0000	598.866
1172.5000	598.897
1173.0000	598.932
1173.5000	599.039
1174.0000	598.947
1174.5000	598.894
1175.0000	598.915
1175.5000	598.84
1176.0000	598.935
1176.5000	599.096
1177.0000	599.229
1177.5000	599.265
1178.0000	599.252
1178.5000	599.266
1179.0000	599.197
1179.5000	599.289
1180.0000	599.299
1180.5000	599.33
1181.0000	599.359
1181.5000	599.382
1182.0000	599.544
1182.5000	599.664
1183.0000	599.795
1183.5000	599.855
1184.0000	599.799
1184.5000	599.752
1185.0000	599.782
1185.5000	599.957
1186.0000	599.974
1186.5000	600.218
1187.0000	600.235
1187.5000	600.145
1188.0000	600.236
1188.5000	600.054
1189.0000	599.993
1189.5000	599.988
1190.0000	599.962
1190.5000	600.016
1191.0000	600.177
1191.5000	600.152
1192.0000	600.229
1192.5000	600.327
1193.0000	600.317
1193.5000	600.38
1194.0000	600.511
1194.5000	600.631
1195.0000	600.701
1195.5000	600.789
1196.0000	600.789
1196.5000	600.692
1197.0000	600.694
1197.5000	600.618
1198.0000	600.547
1198.5000	600.437
1199.0000	600.354
1199.5000	600.515
1200.0000	600.549
1200.5000	600.675
1201.0000	600.782
1201.5000	600.738
1202.0000	600.737
1202.5000	600.745
1203.0000	600.822
1203.5000	600.82
1204.0000	600.944
1204.5000	600.909
1205.0000	600.934
1205.5000	601.13
1206.0000	601.143
1206.5000	601.299
1207.0000	601.346
1207.5000	601.183
1208.0000	601.186
1208.5000	601.312
1209.0000	601.4
1209.5000	601.474
1210.0000	601.594
1210.5000	601.572
1211.0000	601.581
1211.5000	601.73
1212.0000	601.772
1212.5000	601.856
1213.0000	601.966
1213.5000	601.859
1214.0000	601.947
1214.5000	601.899
1215.0000	601.948
1215.5000	602.125
1216.0000	602.04
1216.5000	602.155
1217.0000	602.114
1217.5000	602.221
1218.0000	602.229
1218.5000	602.099
1219.0000	602.111
1219.5000	602.144
1220.0000	602.321
1220.5000	602.479
1221.0000	602.49
1221.5000	602.517
1222.0000	602.529
1222.5000	602.648
1223.0000	602.699
1223.5000	602.572
1224.0000	602.452
1224.5000	602.558
1225.0000	602.631
1225.5000	602.795
1226.0000	602.993
1226.5000	602.958
1227.0000	603.064
1227.5000	603.042
1228.0000	603.099
1228.5000	603.041
1229.0000	602.94
1229.5000	602.93
1230.0000	602.943
1230.5000	603.049
1231.0000	603.238
1231.5000	603.415
1232.0000	603.419
1232.5000	603.413
1233.0000	603.357
1233.5000	603.241
1234.0000	603.33
1234.5000	603.41
1235.0000	603.337
1235.5000	603.39
1236.0000	603.419
1236.5000	603.478
1237.0000	603.686
1237.5000	603.697
1238.0000	603.661
1238.5000	603.72
1239.0000	603.699
1239.5000	603.802
1240.0000	603.833
1240.5000	603.874
1241.0000	603.916
1241.5000	603.815
1242.0000	603.815
1242.5000	603.709
1243.0000	603.799
1243.5000	603.943
1244.0000	603.984
1244.5000	604.08
1245.0000	603.994
1245.5000	604.077
1246.0000	604.114
1246.5000	604.178
1247.0000	604.398
1247.5000	604.507
1248.0000	604.573
1248.5000	604.511
1249.0000	604.442
1249.5000	604.312
1250.0000	604.393
1250.5000	604.453
1251.0000	604.486
1251.5000	604.634
1252.0000	604.686
1252.5000	604.81
1253.0000	604.946
1253.5000	604.913
1254.0000	604.951
1254.5000	604.987
1255.0000	604.936
1255.5000	604.988
1256.0000	605.019
1256.5000	605.052
1257.0000	604.979
1257.5000	605.074
1258.0000	604.982
1258.5000	604.93
1259.0000	605.174
1259.5000	605.137
1260.0000	605.235
1260.5000	605.371
1261.0000	605.293
1261.5000	605.427
1262.0000	605.551
1262.5000	605.6
1263.0000	605.722
1263.5000	605.625
1264.0000	605.727
1264.5000	605.724
1265.0000	605.76
1265.5000	605.814
1266.0000	605.7
1266.5000	605.735
1267.0000	605.672
1267.5000	605.812
1268.0000	605.823
1268.5000	605.778
1269.0000	605.776
1269.5000	605.813
1270.0000	605.878
1270.5000	606.011
1271.0000	606.104
1271.5000	606.088
1272.0000	606.12
1272.5000	606.051
1273.0000	606.013
1273.5000	606.023
1274.0000	606.056
1274.5000	606.061
1275.0000	606.116
1275.5000	606.24
1276.0000	606.337
1276.5000	606.412
1277.0000	606.504
1277.5000	606.531
1278.0000	606.376
1278.5000	606.49
1279.0000	606.58
1279.5000	606.548
1280.0000	606.741
1280.5000	606.792
1281.0000	606.813
1281.5000	606.79
1282.0000	606.813
1282.5000	606.773
1283.0000	606.633
1283.5000	606.737
1284.0000	606.864
1284.5000	606.827
1285.0000	607.062
1285.5000	607.032
1286.0000	607.026
1286.5000	607.139
1287.0000	607.068
1287.5000	607.22
1288.0000	607.31
1288.5000	607.337
1289.0000	607.339
1289.5000	607.34
1290.0000	607.299
1290.5000	607.294
1291.0000	607.389
1291.5000	607.331
1292.0000	607.304
1292.5000	607.395
1293.0000	607.36
1293.5000	607.379
1294.0000	607.364
1294.5000	607.432
1295.0000	607.486
1295.5000	607.527
1296.0000	607.619
1296.5000	607.48
1297.0000	607.516
1297.5000	607.582
1298.0000	607.638
1298.5000	607.906
1299.0000	607.864
1299.5000	607.838
1300.0000	607.801
1300.5000	607.661
1301.0000	607.727
1301.5000	607.754
1302.0000	607.849
1302.5000	607.995
1303.0000	608.12
1303.5000	608.191
1304.0000	608.207
1304.5000	608.166
1305.0000	608.195
1305.5000	608.213
1306.0000	608.254
1306.5000	608.311
1307.0000	608.19
1307.5000	608.299
1308.0000	608.348
1308.5000	608.385
1309.0000	608.495
1309.5000	608.422
1310.0000	608.359
1310.5000	608.373
1311.0000	608.324
1311.5000	608.476
1312.0000	608.563
1312.5000	608.573
1313.0000	608.679
1313.5000	608.671
1314.0000	608.639
1314.5000	608.557
1315.0000	608.642
1315.5000	608.667
1316.0000	608.734
1316.5000	608.863
1317.0000	608.768
1317.5000	608.818
1318.0000	608.859
1318.5000	608.961
1319.0000	609.055
1319.5000	609.007
1320.0000	609.058
1320.5000	609.012
1321.0000	609.072
1321.5000	609.228
1322.0000	609.169
1322.5000	609.219
1323.0000	609.35
1323.5000	609.275
1324.0000	609.335
1324.5000	609.456
1325.0000	609.286
1325.5000	609.353
1326.0000	609.536
1326.5000	609.517
1327.0000	609.612
1327.5000	609.58
1328.0000	609.521
1328.5000	609.514
1329.0000	609.626
1329.5000	609.675
1330.0000	609.646
1330.5000	609.64
1331.0000	609.626
1331.5000	609.733
1332.0000	609.836
1332.5000	610.067
1333.0000	610.016
1333.5000	609.979
1334.0000	610.061
1334.5000	609.923
1335.0000	610.024
1335.5000	610.113
1336.0000	610.053
1336.5000	609.998
1337.0000	610.003
1337.5000	610.024
1338.0000	610.014
1338.5000	610.11
1339.0000	610.21
1339.5000	610.207
1340.0000	610.204
1340.5000	610.251
1341.0000	610.138
1341.5000	610.176
1342.0000	610.288
1342.5000	610.298
1343.0000	610.422
1343.5000	610.501
1344.0000	610.572
1344.5000	610.522
1345.0000	610.404
1345.5000	610.416
1346.0000	610.348
1346.5000	610.421
1347.0000	610.531
1347.5000	610.487
1348.0000	610.454
1348.5000	610.526
1349.0000	610.522
1349.5000	610.593
1350.0000	610.703
1350.5000	610.702
1351.0000	610.816
1351.5000	610.863
1352.0000	610.889
1352.5000	610.986
1353.0000	611.061
1353.5000	611.012
1354.0000	611.063
1354.5000	610.975
1355.0000	610.996
1355.5000	611.114
1356.0000	611.12
1356.5000	611.341
1357.0000	611.345
1357.5000	611.397
1358.0000	611.332
1358.5000	611.242
1359.0000	611.211
1359.5000	611.134
1360.0000	611.311
1360.5000	611.389
1361.0000	611.36
1361.5000	611.39
1362.0000	611.379
1362.5000	611.36
1363.0000	611.438
1363.5000	611.477
1364.0000	611.518
1364.5000	611.501
1365.0000	611.585
1365.5000	611.563
1366.0000	611.612
1366.5000	611.657
1367.0000	611.574
1367.5000	611.698
1368.0000	611.664
1368.5000	611.612
1369.0000	611.939
1369.5000	611.985
1370.0000	612.057
1370.5000	612.098
1371.0000	611.914
1371.5000	611.912
1372.0000	611.813
1372.5000	611.859
1373.0000	611.99
1373.5000	611.985
1374.0000	612.068
1374.5000	612.184
1375.0000	612.124
1375.5000	612.143
1376.0000	612.171
1376.5000	612.166
1377.0000	612.154
1377.5000	612.149
1378.0000	612.221
1378.5000	612.185
1379.0000	612.247
1379.5000	612.351
1380.0000	612.478
1380.5000	612.532
1381.0000	612.483
1381.5000	612.597
1382.0000	612.535
1382.5000	612.508
1383.0000	612.506
1383.5000	612.484
1384.0000	612.564
1384.5000	612.666
1385.0000	612.83
1385.5000	612.781
1386.0000	612.801
1386.5000	612.773
1387.0000	612.707
1387.5000	612.708
1388.0000	612.692
1388.5000	612.777
1389.0000	612.802
1389.5000	612.867
1390.0000	612.898
1390.5000	612.884
1391.0000	612.944
1391.5000	612.984
1392.0000	613.003
1392.5000	613.12
1393.0000	613.179
1393.5000	613.256
1394.0000	613.281
1394.5000	613.252
1395.0000	613.285
1395.5000	613.174
1396.0000	613.136
1396.5000	613.134
1397.0000	613.072
1397.5000	613.166
1398.0000	613.259
1398.5000	613.279
1399.0000	613.349
1399.5000	613.41
1400.0000	613.37
1400.5000	613.521
1401.0000	613.5
1401.5000	613.45
1402.0000	613.503
1402.5000	613.425
1403.0000	613.46
1403.5000	613.632
1404.0000	613.543
1404.5000	613.529
1405.0000	613.665
1405.5000	613.528
1406.0000	613.653
1406.5000	613.766
1407.0000	613.748
1407.5000	613.808
1408.0000	613.938
1408.5000	613.886
1409.0000	613.858
1409.5000	613.874
1410.0000	613.776
1410.5000	613.78
1411.0000	613.882
1411.5000	613.695
1412.0000	613.554
1412.5000	613.346
1413.0000	613.103
1413.5000	613.134
1414.0000	613.22
1414.5000	613.283
1415.0000	613.432
1415.5000	613.562
1416.0000	613.567
1416.5000	613.749
1417.0000	613.89
1417.5000	613.817
1418.0000	613.87
1418.5000	613.908
1419.0000	613.773
1419.5000	613.946
1420.0000	614.034
1420.5000	614.1
1421.0000	614.153
1421.5000	614.189
1422.0000	614.269
1422.5000	614.361
1423.0000	614.51
1423.5000	614.521
1424.0000	614.509
1424.5000	614.474
1425.0000	614.481
1425.5000	614.499
1426.0000	614.647
1426.5000	614.768
1427.0000	614.714
1427.5000	614.69
1428.0000	614.599
1428.5000	614.685
1429.0000	614.761
1429.5000	614.897
1430.0000	614.934
1430.5000	614.837
1431.0000	614.926
1431.5000	614.997
1432.0000	615.161
1432.5000	615.142
1433.0000	615.239
1433.5000	615.173
1434.0000	615.025
1434.5000	615.06
1435.0000	615.021
1435.5000	615.179
1436.0000	615.185
1436.5000	615.193
1437.0000	615.172
1437.5000	615.091
1438.0000	615.242
1438.5000	615.298
1439.0000	615.184
1439.5000	615.282
1440.0000	615.352
1440.5000	615.223
1441.0000	615.484
1441.5000	615.481
1442.0000	615.474
1442.5000	615.677
1443.0000	615.589
1443.5000	615.563
1444.0000	615.544
1444.5000	615.598
1445.0000	615.576
1445.5000	615.723
1446.0000	616
1446.5000	615.944
1447.0000	616.146
1447.5000	616.013
1448.0000	615.669
1448.5000	615.695
1449.0000	615.728
1449.5000	615.854
1450.0000	616.078
1450.5000	616.141
1451.0000	616.077
1451.5000	615.993
1452.0000	615.973
1452.5000	615.961
1453.0000	616.015
1453.5000	616.172
1454.0000	616.18
1454.5000	616.312
1455.0000	616.289
1455.5000	616.217
1456.0000	616.148
1456.5000	615.999
1457.0000	616.039
1457.5000	616.175
1458.0000	616.314
1458.5000	616.595
1459.0000	616.615
1459.5000	616.599
1460.0000	616.576
1460.5000	616.54
1461.0000	616.59
1461.5000	616.545
1462.0000	616.534
1462.5000	616.467
1463.0000	616.388
1463.5000	616.463
1464.0000	616.56
1464.5000	616.649
1465.0000	616.755
1465.5000	616.795
1466.0000	616.792
1466.5000	616.791
1467.0000	616.839
1467.5000	616.872
1468.0000	617.018
1468.5000	617.025
1469.0000	617.049
1469.5000	617.029
1470.0000	616.894
1470.5000	616.932
1471.0000	616.925
1471.5000	616.933
1472.0000	617.054
1472.5000	617.079
1473.0000	617.169
1473.5000	617.136
1474.0000	617.129
1474.5000	617.17
1475.0000	617.105
1475.5000	617.169
1476.0000	617.158
1476.5000	617.155
1477.0000	617.17
1477.5000	617.29
1478.0000	617.26
1478.5000	617.314
1479.0000	617.445
1479.5000	617.408
1480.0000	617.429
1480.5000	617.397
1481.0000	617.31
1481.5000	617.367
1482.0000	617.423
1482.5000	617.467
1483.0000	617.56
1483.5000	617.503
1484.0000	617.586
1484.5000	617.585
1485.0000	617.539
1485.5000	617.64
1486.0000	617.599
1486.5000	617.625
1487.0000	617.634
1487.5000	617.609
1488.0000	617.644
1488.5000	617.707
1489.0000	617.782
1489.5000	617.709
1490.0000	617.785
1490.5000	617.685
1491.0000	617.646
1491.5000	617.759
1492.0000	617.808
1492.5000	617.945
1493.0000	617.883
1493.5000	617.834
1494.0000	617.867
1494.5000	617.894
1495.0000	618.033
1495.5000	618.19
1496.0000	618.237
1496.5000	618.248
1497.0000	618.251
1497.5000	618.382
1498.0000	618.283
1498.5000	618.285
1499.0000	618.333
1499.5000	618.255
1500.0000	618.339
1500.5000	618.375
1501.0000	618.49
1501.5000	618.558
1502.0000	618.473
1502.5000	618.473
1503.0000	618.374
1503.5000	618.285
1504.0000	618.376
1504.5000	618.379
1505.0000	618.328
1505.5000	618.371
1506.0000	618.419
1506.5000	618.404
1507.0000	618.401
1507.5000	618.493
1508.0000	618.516
1508.5000	618.68
1509.0000	618.841
1509.5000	618.762
1510.0000	618.754
1510.5000	618.665
1511.0000	618.586
1511.5000	618.596
1512.0000	618.57
1512.5000	618.677
1513.0000	618.813
1513.5000	618.895
1514.0000	618.912
1514.5000	618.894
1515.0000	618.896
1515.5000	618.87
1516.0000	618.969
1516.5000	618.853
1517.0000	618.864
1517.5000	618.912
1518.0000	618.924
1518.5000	619.039
1519.0000	618.998
1519.5000	618.92
1520.0000	618.85
1520.5000	618.921
1521.0000	619.037
1521.5000	619.079
1522.0000	619.149
1522.5000	619.188
1523.0000	619.118
1523.5000	619.22
1524.0000	619.313
1524.5000	619.284
1525.0000	619.364
1525.5000	619.332
1526.0000	619.304
1526.5000	619.326
1527.0000	619.321
1527.5000	619.434
1528.0000	619.453
1528.5000	619.52
1529.0000	619.548
1529.5000	619.506
1530.0000	619.546
1530.5000	619.417
1531.0000	619.499
1531.5000	619.472
1532.0000	619.549
1532.5000	619.736
1533.0000	619.656
1533.5000	619.701
1534.0000	619.585
1534.5000	619.553
1535.0000	619.651
1535.5000	619.688
1536.0000	619.695
1536.5000	619.747
1537.0000	619.739
1537.5000	619.779
1538.0000	619.799
1538.5000	619.678
1539.0000	619.704
1539.5000	619.726
1540.0000	619.745
1540.5000	619.838
1541.0000	619.876
1541.5000	619.957
1542.0000	620.123
1542.5000	620.073
1543.0000	620.048
1543.5000	620.008
1544.0000	619.935
1544.5000	620.101
1545.0000	620.098
1545.5000	620.023
1546.0000	620.077
1546.5000	620.073
1547.0000	620.09
1547.5000	620.161
1548.0000	620.225
1548.5000	620.279
1549.0000	620.213
1549.5000	620.229
1550.0000	620.109
1550.5000	620.091
1551.0000	620.185
1551.5000	620.268
1552.0000	620.358
1552.5000	620.4
1553.0000	620.483
1553.5000	620.434
1554.0000	620.437
1554.5000	620.407
1555.0000	620.434
1555.5000	620.523
1556.0000	620.563
1556.5000	620.529
1557.0000	620.553
1557.5000	620.558
1558.0000	620.545
1558.5000	620.518
1559.0000	620.473
1559.5000	620.484
1560.0000	620.497
1560.5000	620.566
1561.0000	620.681
1561.5000	620.708
1562.0000	620.852
1562.5000	620.905
1563.0000	620.727
1563.5000	620.764
1564.0000	620.707
1564.5000	620.95
1565.0000	620.977
1565.5000	620.993
1566.0000	621.041
1566.5000	620.819
1567.0000	620.899
1567.5000	620.859
1568.0000	620.827
1568.5000	620.853
1569.0000	620.967
1569.5000	621.046
1570.0000	621.08
1570.5000	621.075
1571.0000	621.105
1571.5000	621.089
1572.0000	621.047
1572.5000	621.101
1573.0000	621.143
1573.5000	621.145
1574.0000	621.229
1574.5000	621.308
1575.0000	621.362
1575.5000	621.463
1576.0000	621.441
1576.5000	621.502
1577.0000	621.514
1577.5000	621.435
1578.0000	621.499
1578.5000	621.498
1579.0000	621.419
1579.5000	621.547
1580.0000	621.533
1580.5000	621.538
1581.0000	621.515
1581.5000	621.456
1582.0000	621.493
1582.5000	621.517
1583.0000	621.609
1583.5000	621.541
1584.0000	621.563
1584.5000	621.561
1585.0000	621.55
1585.5000	621.739
1586.0000	621.803
1586.5000	621.865
1587.0000	621.924
1587.5000	621.916
1588.0000	621.926
1588.5000	622.009
1589.0000	621.985
1589.5000	621.961
1590.0000	622.058
1590.5000	621.984
1591.0000	622.093
1591.5000	622.181
1592.0000	621.962
1592.5000	622.033
1593.0000	621.974
1593.5000	621.856
1594.0000	622.095
1594.5000	622.026
1595.0000	622.005
1595.5000	622.233
1596.0000	622.229
1596.5000	622.226
1597.0000	622.322
1597.5000	622.183
1598.0000	622.105
1598.5000	622.257
1599.0000	622.168
1599.5000	622.214
1600.0000	622.309
1600.5000	622.249
1601.0000	622.244
1601.5000	622.275
1602.0000	622.306
1602.5000	622.32
1603.0000	622.485
1603.5000	622.528
1604.0000	622.513
1604.5000	622.509
1605.0000	622.496
1605.5000	622.552
1606.0000	622.615
1606.5000	622.737
1607.0000	622.684
1607.5000	622.644
1608.0000	622.638
1608.5000	622.614
1609.0000	622.806
1609.5000	622.893
1610.0000	623.02
1610.5000	623.028
1611.0000	622.962
1611.5000	622.866
1612.0000	622.793
1612.5000	622.852
1613.0000	622.762
1613.5000	622.793
1614.0000	622.86
1614.5000	622.811
1615.0000	622.962
1615.5000	622.955
1616.0000	622.846
1616.5000	623.02
1617.0000	623.009
1617.5000	623.141
1618.0000	623.144
1618.5000	623.05
1619.0000	623.169
1619.5000	623.181
1620.0000	623.26
1620.5000	623.26
1621.0000	623.254
1621.5000	623.191
1622.0000	623.256
1622.5000	623.357
1623.0000	623.303
1623.5000	623.383
1624.0000	623.401
1624.5000	623.288
1625.0000	623.311
1625.5000	623.362
1626.0000	623.326
1626.5000	623.417
1627.0000	623.486
1627.5000	623.345
1628.0000	623.351
1628.5000	623.443
1629.0000	623.439
1629.5000	623.616
1630.0000	623.695
1630.5000	623.632
1631.0000	623.623
1631.5000	623.709
1632.0000	623.777
1632.5000	623.823
1633.0000	623.834
1633.5000	623.715
1634.0000	623.767
1634.5000	623.821
1635.0000	623.96
1635.5000	623.978
1636.0000	623.967
1636.5000	623.924
1637.0000	623.88
1637.5000	623.881
1638.0000	623.941
1638.5000	623.986
1639.0000	623.967
1639.5000	624.006
1640.0000	623.954
1640.5000	623.9
1641.0000	624.01
1641.5000	624.194
1642.0000	624.279
1642.5000	624.409
1643.0000	624.414
1643.5000	624.383
1644.0000	624.441
1644.5000	624.319
1645.0000	624.333
1645.5000	624.295
1646.0000	624.169
1646.5000	624.311
1647.0000	624.322
1647.5000	624.369
1648.0000	624.386
1648.5000	624.336
1649.0000	624.247
1649.5000	624.269
1650.0000	624.337
1650.5000	624.464
1651.0000	624.529
1651.5000	624.572
1652.0000	624.503
1652.5000	624.487
1653.0000	624.561
1653.5000	624.512
1654.0000	624.655
1654.5000	624.631
1655.0000	624.665
1655.5000	624.752
1656.0000	624.684
1656.5000	624.746
1657.0000	624.802
1657.5000	624.805
1658.0000	624.862
1658.5000	624.877
1659.0000	624.938
1659.5000	624.934
1660.0000	624.977
1660.5000	624.933
1661.0000	624.966
1661.5000	624.93
1662.0000	624.927
1662.5000	624.995
1663.0000	624.921
1663.5000	625.065
1664.0000	625.089
1664.5000	625.137
1665.0000	625.223
1665.5000	625.186
1666.0000	625.365
1666.5000	625.487
1667.0000	625.433
1667.5000	625.415
1668.0000	625.336
1668.5000	625.226
1669.0000	625.257
1669.5000	625.366
1670.0000	625.448
1670.5000	625.424
1671.0000	625.374
1671.5000	625.491
1672.0000	625.379
1672.5000	625.52
1673.0000	625.557
1673.5000	625.405
1674.0000	625.679
1674.5000	625.667
1675.0000	625.798
1675.5000	625.9
1676.0000	625.599
1676.5000	625.611
1677.0000	625.524
1677.5000	625.386
1678.0000	625.475
1678.5000	625.505
1679.0000	625.532
1679.5000	625.654
1680.0000	625.664
1680.5000	625.699
1681.0000	625.715
1681.5000	625.733
1682.0000	625.87
1682.5000	625.917
1683.0000	626.056
1683.5000	626.07
1684.0000	626.069
1684.5000	626.052
1685.0000	626.013
1685.5000	626.025
1686.0000	625.982
1686.5000	626.045
1687.0000	626.103
1687.5000	626.088
1688.0000	626.152
1688.5000	626.139
1689.0000	626.068
1689.5000	626.185
1690.0000	626.302
1690.5000	626.231
1691.0000	626.404
1691.5000	626.408
1692.0000	626.253
1692.5000	626.351
1693.0000	626.21
1693.5000	626.137
1694.0000	626.28
1694.5000	626.318
1695.0000	626.419
1695.5000	626.483
1696.0000	626.388
1696.5000	626.397
1697.0000	626.538
1697.5000	626.598
1698.0000	626.696
1698.5000	626.576
1699.0000	626.478
1699.5000	626.582
1700.0000	626.624
1700.5000	626.756
1701.0000	626.778
1701.5000	626.708
1702.0000	626.601
1702.5000	626.688
1703.0000	626.582
1703.5000	626.53
1704.0000	626.575
1704.5000	626.566
1705.0000	626.62
1705.5000	626.707
1706.0000	626.792
1706.5000	626.694
1707.0000	626.696
1707.5000	626.692
1708.0000	626.656
1708.5000	626.741
1709.0000	626.785
1709.5000	626.829
1710.0000	626.878
1710.5000	626.926
1711.0000	627.068
1711.5000	627.192
1712.0000	627.316
1712.5000	627.311
1713.0000	627.324
1713.5000	627.117
1714.0000	627.148
1714.5000	627.152
1715.0000	627.029
1715.5000	627.162
1716.0000	627.082
1716.5000	627.121
1717.0000	627.243
1717.5000	627.228
1718.0000	627.202
1718.5000	627.198
1719.0000	627.229
1719.5000	627.323
1720.0000	627.407
1720.5000	627.425
1721.0000	627.372
1721.5000	627.404
1722.0000	627.452
1722.5000	627.47
1723.0000	627.446
1723.5000	627.489
1724.0000	627.489
1724.5000	627.506
1725.0000	627.56
1725.5000	627.496
1726.0000	627.468
1726.5000	627.601
1727.0000	627.653
1727.5000	627.734
1728.0000	627.84
1728.5000	627.733
1729.0000	627.759
1729.5000	627.758
1730.0000	627.72
1730.5000	627.85
1731.0000	627.867
1731.5000	627.933
1732.0000	628.023
1732.5000	628.11
1733.0000	628.067
1733.5000	628.044
1734.0000	627.904
1734.5000	627.802
1735.0000	627.979
1735.5000	627.966
1736.0000	628.004
1736.5000	628.127
1737.0000	628.064
1737.5000	628.033
1738.0000	628.303
1738.5000	628.26
1739.0000	628.222
1739.5000	628.321
1740.0000	628.123
1740.5000	628.084
1741.0000	628.17
1741.5000	628.174
1742.0000	628.227
1742.5000	628.227
1743.0000	628.266
1743.5000	628.231
1744.0000	628.232
1744.5000	628.288
1745.0000	628.236
1745.5000	628.29
1746.0000	628.253
1746.5000	628.359
1747.0000	628.454
1747.5000	628.345
1748.0000	628.365
1748.5000	628.351
1749.0000	628.398
1749.5000	628.621
1750.0000	628.62
1750.5000	628.605
1751.0000	628.579
1751.5000	628.599
1752.0000	628.763
1752.5000	628.75
1753.0000	628.75
1753.5000	628.881
1754.0000	628.982
1754.5000	628.943
1755.0000	629.025
1755.5000	628.911
1756.0000	628.714
1756.5000	628.853
1757.0000	628.745
1757.5000	628.784
1758.0000	628.955
1758.5000	628.926
1759.0000	629.06
1759.5000	629.098
1760.0000	629.117
1760.5000	629.067
1761.0000	629.007
1761.5000	629.023
1762.0000	629.037
1762.5000	629.103
1763.0000	629.174
1763.5000	629.134
1764.0000	629.138
1764.5000	629.284
1765.0000	629.287
1765.5000	629.372
1766.0000	629.412
1766.5000	629.333
1767.0000	629.367
1767.5000	629.372
1768.0000	629.347
1768.5000	629.404
1769.0000	629.428
1769.5000	629.427
1770.0000	629.492
1770.5000	629.489
1771.0000	629.573
1771.5000	629.656
1772.0000	629.658
1772.5000	629.679
1773.0000	629.63
1773.5000	629.558
1774.0000	629.504
1774.5000	629.469
1775.0000	629.523
1775.5000	629.691
1776.0000	629.811
1776.5000	629.914
1777.0000	629.996
1777.5000	629.814
1778.0000	629.713
1778.5000	629.819
1779.0000	629.694
1779.5000	629.756
1780.0000	629.765
1780.5000	629.656
1781.0000	629.688
1781.5000	629.783
1782.0000	629.806
1782.5000	629.952
1783.0000	630.039
1783.5000	629.989
1784.0000	630.081
1784.5000	630.119
1785.0000	630.058
1785.5000	630.134
1786.0000	630.139
1786.5000	630.092
1787.0000	630.177
1787.5000	630.261
1788.0000	630.319
1788.5000	630.312
1789.0000	630.377
1789.5000	630.286
1790.0000	630.286
1790.5000	630.15
1791.0000	630.159
1791.5000	630.161
1792.0000	630.105
1792.5000	630.217
1793.0000	630.205
1793.5000	630.271
1794.0000	630.387
1794.5000	630.348
1795.0000	630.386
1795.5000	630.483
1796.0000	630.51
1796.5000	630.518
1797.0000	630.562
1797.5000	630.535
1798.0000	630.57
1798.5000	630.675
1799.0000	630.728
1799.5000	630.674
1800.0000	630.543
1800.5000	630.651
1801.0000	630.504
1801.5000	630.586
1802.0000	630.799
1802.5000	630.774
1803.0000	630.851
1803.5000	630.823
1804.0000	630.734
1804.5000	630.858
1805.0000	630.861
1805.5000	630.976
1806.0000	631.071
1806.5000	630.969
1807.0000	631.097
1807.5000	630.95
1808.0000	630.879
1808.5000	630.822
1809.0000	630.863
1809.5000	630.923
1810.0000	630.945
1810.5000	631.139
1811.0000	631.084
1811.5000	631.056
1812.0000	631.154
1812.5000	631.086
1813.0000	631.188
1813.5000	631.31
1814.0000	631.178
1814.5000	631.24
1815.0000	631.248
1815.5000	631.183
1816.0000	631.399
1816.5000	631.469
1817.0000	631.412
1817.5000	631.436
1818.0000	631.391
1818.5000	631.287
1819.0000	631.26
1819.5000	631.327
1820.0000	631.281
1820.5000	631.311
1821.0000	631.352
1821.5000	631.306
1822.0000	631.273
1822.5000	631.349
1823.0000	631.444
1823.5000	631.588
1824.0000	631.695
1824.5000	631.683
1825.0000	631.501
1825.5000	631.488
1826.0000	631.424
1826.5000	631.296
1827.0000	631.493
1827.5000	631.477
1828.0000	631.593
1828.5000	631.675
1829.0000	631.662
1829.5000	631.646
1830.0000	631.672
1830.5000	631.817
1831.0000	631.834
1831.5000	631.862
1832.0000	631.807
1832.5000	631.743
1833.0000	631.793
1833.5000	631.904
1834.0000	631.93
1834.5000	631.941
1835.0000	631.891
1835.5000	631.821
1836.0000	631.868
1836.5000	631.859
1837.0000	631.839
1837.5000	631.99
1838.0000	632.018
1838.5000	632.061
1839.0000	632.109
1839.5000	632.03
1840.0000	632.062
1840.5000	632.078
1841.0000	632.182
1841.5000	632.242
1842.0000	632.295
1842.5000	632.351
1843.0000	632.335
1843.5000	632.266
1844.0000	632.206
1844.5000	632.134
1845.0000	632.149
1845.5000	632.341
1846.0000	632.45
1846.5000	632.525
1847.0000	632.577
1847.5000	632.386
1848.0000	632.299
1848.5000	632.338
1849.0000	632.27
1849.5000	632.342
1850.0000	632.527
1850.5000	632.645
1851.0000	632.76
1851.5000	632.793
1852.0000	632.658
1852.5000	632.558
1853.0000	632.451
1853.5000	632.498
1854.0000	632.581
1854.5000	632.525
1855.0000	632.704
1855.5000	632.753
1856.0000	632.782
1856.5000	632.793
1857.0000	632.656
1857.5000	632.656
1858.0000	632.691
1858.5000	632.746
1859.0000	632.852
1859.5000	632.863
1860.0000	632.807
1860.5000	632.84
1861.0000	632.729
1861.5000	632.798
1862.0000	632.868
1862.5000	633.006
1863.0000	633.082
1863.5000	632.977
1864.0000	632.989
1864.5000	633.002
1865.0000	633.002
1865.5000	633.127
1866.0000	633.054
1866.5000	632.961
1867.0000	633.041
1867.5000	633.074
1868.0000	633.143
1868.5000	633.276
1869.0000	633.331
1869.5000	633.243
1870.0000	633.244
1870.5000	633.197
1871.0000	633.244
1871.5000	633.281
1872.0000	633.352
1872.5000	633.281
1873.0000	633.262
1873.5000	633.322
1874.0000	633.234
1874.5000	633.328
1875.0000	633.319
1875.5000	633.369
1876.0000	633.481
1876.5000	633.376
1877.0000	633.358
1877.5000	633.285
1878.0000	633.358
1878.5000	633.522
1879.0000	633.435
1879.5000	633.556
1880.0000	633.497
1880.5000	633.503
1881.0000	633.589
1881.5000	633.61
1882.0000	633.613
1882.5000	633.643
1883.0000	633.67
1883.5000	633.567
1884.0000	633.575
1884.5000	633.533
1885.0000	633.592
1885.5000	633.837
1886.0000	633.878
1886.5000	633.796
1887.0000	633.966
1887.5000	633.783
1888.0000	633.743
1888.5000	633.965
1889.0000	633.791
1889.5000	633.874
1890.0000	633.944
1890.5000	633.863
1891.0000	633.939
1891.5000	633.87
1892.0000	633.914
1892.5000	633.884
1893.0000	633.888
1893.5000	634.058
1894.0000	634.026
1894.5000	634.097
1895.0000	634.233
1895.5000	634.076
1896.0000	634.131
1896.5000	634.255
1897.0000	634.092
1897.5000	634.151
1898.0000	634.113
1898.5000	634.044
1899.0000	634.131
1899.5000	634.1
1900.0000	634.114
1900.5000	634.123
1901.0000	634.054
1901.5000	634.12
1902.0000	634.125
1902.5000	634.232
1903.0000	634.373
1903.5000	634.324
1904.0000	634.439
1904.5000	634.269
1905.0000	634.255
1905.5000	634.425
1906.0000	634.459
1906.5000	634.571
1907.0000	634.503
1907.5000	634.519
1908.0000	634.483
1908.5000	634.438
1909.0000	634.5
1909.5000	634.539
1910.0000	634.545
1910.5000	634.602
1911.0000	634.719
1911.5000	634.658
1912.0000	634.581
1912.5000	634.656
1913.0000	634.635
1913.5000	634.655
1914.0000	634.718
1914.5000	634.674
1915.0000	634.641
1915.5000	634.733
1916.0000	634.777
1916.5000	634.809
1917.0000	634.802
1917.5000	634.717
1918.0000	634.769
1918.5000	634.824
1919.0000	634.828
1919.5000	634.965
1920.0000	634.866
1920.5000	634.976
1921.0000	635.016
1921.5000	634.921
1922.0000	635.05
1922.5000	634.888
1923.0000	634.86
1923.5000	634.917
1924.0000	634.83
1924.5000	634.912
1925.0000	634.979
1925.5000	634.91
1926.0000	634.986
1926.5000	635.018
1927.0000	634.995
1927.5000	635.022
1928.0000	635.062
1928.5000	634.96
1929.0000	634.938
1929.5000	634.965
1930.0000	634.984
1930.5000	635.108
1931.0000	635.204
1931.5000	635.129
1932.0000	634.994
1932.5000	635.071
1933.0000	635.183
1933.5000	635.221
1934.0000	635.447
1934.5000	635.327
1935.0000	635.177
1935.5000	635.361
1936.0000	635.309
1936.5000	635.351
1937.0000	635.307
1937.5000	635.237
1938.0000	635.135
1938.5000	635.185
1939.0000	635.344
1939.5000	635.324
1940.0000	635.441
1940.5000	635.345
1941.0000	635.385
1941.5000	635.539
1942.0000	635.559
1942.5000	635.645
1943.0000	635.777
1943.5000	635.692
1944.0000	635.628
1944.5000	635.695
1945.0000	635.619
1945.5000	635.601
1946.0000	635.783
1946.5000	635.74
1947.0000	635.766
1947.5000	635.773
1948.0000	635.662
1948.5000	635.765
1949.0000	635.627
1949.5000	635.757
1950.0000	635.774
1950.5000	635.786
1951.0000	635.955
1951.5000	635.772
1952.0000	635.915
1952.5000	635.77
1953.0000	635.661
1953.5000	635.794
1954.0000	635.715
1954.5000	635.893
1955.0000	635.862
1955.5000	635.888
1956.0000	635.933
1956.5000	636.013
1957.0000	636.149
1957.5000	636.087
1958.0000	636.184
1958.5000	636.123
1959.0000	636.094
1959.5000	636.23
1960.0000	636.105
1960.5000	636.078
1961.0000	636.06
1961.5000	636.1
1962.0000	636.265
1962.5000	636.321
1963.0000	636.372
1963.5000	636.346
1964.0000	636.249
1964.5000	636.297
1965.0000	636.29
1965.5000	636.258
1966.0000	636.296
1966.5000	636.407
1967.0000	636.441
1967.5000	636.479
1968.0000	636.484
1968.5000	636.245
1969.0000	636.334
1969.5000	636.366
1970.0000	636.4
1970.5000	636.532
1971.0000	636.471
1971.5000	636.421
1972.0000	636.45
1972.5000	636.506
1973.0000	636.511
1973.5000	636.409
1974.0000	636.414
1974.5000	636.389
1975.0000	636.322
1975.5000	636.44
1976.0000	636.533
1976.5000	636.46
1977.0000	636.568
1977.5000	636.711
1978.0000	636.541
1978.5000	636.567
1979.0000	636.718
1979.5000	636.646
1980.0000	636.661
1980.5000	636.726
1981.0000	636.628
1981.5000	636.483
1982.0000	636.545
1982.5000	636.589
1983.0000	636.645
1983.5000	636.886
1984.0000	636.883
1984.5000	636.749
1985.0000	636.716
1985.5000	636.701
1986.0000	636.778
1986.5000	636.873
1987.0000	636.973
1987.5000	636.957
1988.0000	636.989
1988.5000	636.958
1989.0000	636.823
1989.5000	636.893
1990.0000	636.867
1990.5000	637.006
1991.0000	637.087
1991.5000	637.073
1992.0000	637.122
1992.5000	637.169
1993.0000	637.163
1993.5000	637.256
1994.0000	637.105
1994.5000	636.994
1995.0000	637.105
1995.5000	637.048
1996.0000	637.198
1996.5000	637.266
1997.0000	637.195
1997.5000	637.164
1998.0000	637.268
1998.5000	637.266
1999.0000	637.377
1999.5000	637.39
2000.0000	637.346
2000.5000	637.483
2001.0000	637.363
2001.5000	637.472
2002.0000	637.513
2002.5000	637.487
2003.0000	637.619
2003.5000	637.699
2004.0000	637.617
2004.5000	637.576
2005.0000	637.584
2005.5000	637.357
2006.0000	637.392
2006.5000	637.473
2007.0000	637.559
2007.5000	637.576
2008.0000	637.643
2008.5000	637.53
2009.0000	637.248
2009.5000	637.351
2010.0000	637.347
2010.5000	637.481
2011.0000	637.541
2011.5000	637.47
2012.0000	637.5
2012.5000	637.342
2013.0000	637.297
2013.5000	637.546
2014.0000	637.572
2014.5000	637.618
2015.0000	637.804
2015.5000	637.662
2016.0000	637.703
2016.5000	637.791
2017.0000	637.756
2017.5000	637.754
2018.0000	637.623
2018.5000	637.532
2019.0000	637.655
2019.5000	637.648
2020.0000	637.699
2020.5000	637.771
2021.0000	637.711
2021.5000	637.797
2022.0000	637.877
2022.5000	637.992
2023.0000	637.924
2023.5000	637.908
2024.0000	637.873
2024.5000	637.784
2025.0000	637.853
2025.5000	637.885
2026.0000	637.871
2026.5000	637.96
2027.0000	637.913
2027.5000	637.835
2028.0000	638.02
2028.5000	638.022
2029.0000	638.102
2029.5000	638.211
2030.0000	638.07
2030.5000	637.943
2031.0000	638.009
2031.5000	637.917
2032.0000	637.866
2032.5000	637.962
2033.0000	637.998
2033.5000	638.06
2034.0000	638.194
2034.5000	638.219
2035.0000	638.235
2035.5000	638.362
2036.0000	638.254
2036.5000	638.214
2037.0000	638.198
2037.5000	638.173
2038.0000	638.3
2038.5000	638.284
2039.0000	638.127
2039.5000	638.017
2040.0000	638.198
2040.5000	638.212
2041.0000	638.289
2041.5000	638.452
2042.0000	638.32
2042.5000	638.319
2043.0000	638.497
2043.5000	638.448
2044.0000	638.387
2044.5000	638.545
2045.0000	638.412
2045.5000	638.347
2046.0000	638.276
2046.5000	638.3
2047.0000	638.392
2047.5000	638.526
2048.0000	638.559
2048.5000	638.362
2049.0000	638.38
2049.5000	638.369
2050.0000	638.521
2050.5000	638.616
2051.0000	638.617
2051.5000	638.549
2052.0000	638.475
2052.5000	638.542
2053.0000	638.497
2053.5000	638.625
2054.0000	638.692
2054.5000	638.661
2055.0000	638.757
2055.5000	638.773
2056.0000	638.75
2056.5000	638.873
2057.0000	638.796
2057.5000	638.78
2058.0000	638.837
2058.5000	638.829
2059.0000	638.815
2059.5000	638.815
2060.0000	638.731
2060.5000	638.666
2061.0000	638.807
2061.5000	638.808
2062.0000	638.832
2062.5000	638.863
2063.0000	638.816
2063.5000	638.796
2064.0000	638.933
2064.5000	638.942
2065.0000	638.96
2065.5000	638.924
2066.0000	638.863
2066.5000	638.936
2067.0000	638.878
2067.5000	638.898
2068.0000	639.017
2068.5000	639.038
2069.0000	639.111
2069.5000	639.049
2070.0000	638.926
2070.5000	638.824
2071.0000	638.805
2071.5000	638.923
2072.0000	638.979
2072.5000	639.141
2073.0000	639.277
2073.5000	639.323
2074.0000	639.423
2074.5000	639.435
2075.0000	639.411
2075.5000	639.44
2076.0000	639.303
2076.5000	639.167
2077.0000	639.179
2077.5000	639.248
2078.0000	639.241
2078.5000	639.217
2079.0000	639.221
2079.5000	639.249
2080.0000	639.338
2080.5000	639.46
2081.0000	639.47
2081.5000	639.263
2082.0000	639.211
2082.5000	639.251
2083.0000	639.146
2083.5000	639.307
2084.0000	639.377
2084.5000	639.35
2085.0000	639.455
2085.5000	639.438
2086.0000	639.381
2086.5000	639.276
2087.0000	639.177
2087.5000	639.156
2088.0000	639.199
2088.5000	639.337
2089.0000	639.363
2089.5000	639.392
2090.0000	639.287
2090.5000	639.258
2091.0000	639.338
2091.5000	639.393
2092.0000	639.351
2092.5000	639.326
2093.0000	639.347
2093.5000	639.362
2094.0000	639.518
2094.5000	639.459
2095.0000	639.533
2095.5000	639.357
2096.0000	639.38
2096.5000	639.505
2097.0000	639.423
2097.5000	639.659
2098.0000	639.709
2098.5000	639.625
2099.0000	639.687
2099.5000	639.563
2100.0000	639.638
2100.5000	639.787
2101.0000	639.721
2101.5000	639.906
2102.0000	639.865
2102.5000	639.844
2103.0000	639.86
2103.5000	639.626
2104.0000	639.639
2104.5000	639.65
2105.0000	639.756
2105.5000	639.889
2106.0000	639.876
2106.5000	639.917
2107.0000	639.878
2107.5000	639.808
2108.0000	639.811
2108.5000	639.76
2109.0000	639.822
2109.5000	639.878
2110.0000	639.885
2110.5000	639.932
2111.0000	639.878
2111.5000	639.877
2112.0000	639.897
2112.5000	639.837
2113.0000	639.933
2113.5000	640.018
2114.0000	639.994
2114.5000	639.995
2115.0000	639.988
2115.5000	639.984
2116.0000	639.991
2116.5000	639.961
2117.0000	639.972
2117.5000	640.035
2118.0000	640.076
2118.5000	640.32
2119.0000	640.323
2119.5000	640.303
2120.0000	640.412
2120.5000	640.433
2121.0000	640.404
2121.5000	640.312
2122.0000	640.249
2122.5000	640.13
2123.0000	639.971
2123.5000	639.92
2124.0000	639.828
2124.5000	639.859
2125.0000	639.883
2125.5000	640.157
2126.0000	640.295
2126.5000	640.267
2127.0000	640.425
2127.5000	640.345
2128.0000	640.314
2128.5000	640.355
2129.0000	640.409
2129.5000	640.385
2130.0000	640.435
2130.5000	640.406
2131.0000	640.266
2131.5000	640.18
2132.0000	640.214
2132.5000	640.135
2133.0000	640.138
2133.5000	640.303
2134.0000	640.189
2134.5000	640.277
2135.0000	640.365
2135.5000	640.297
2136.0000	640.357
2136.5000	640.403
2137.0000	640.517
2137.5000	640.505
2138.0000	640.501
2138.5000	640.545
2139.0000	640.589
2139.5000	640.594
2140.0000	640.56
2140.5000	640.549
2141.0000	640.418
2141.5000	640.376
2142.0000	640.329
2142.5000	640.385
2143.0000	640.426
2143.5000	640.343
2144.0000	640.466
2144.5000	640.519
2145.0000	640.426
2145.5000	640.46
2146.0000	640.515
2146.5000	640.384
2147.0000	640.527
2147.5000	640.545
2148.0000	640.448
2148.5000	640.497
2149.0000	640.617
2149.5000	640.736
2150.0000	640.805
2150.5000	640.778
2151.0000	640.607
2151.5000	640.581
2152.0000	640.508
2152.5000	640.468
2153.0000	640.519
2153.5000	640.598
2154.0000	640.581
2154.5000	640.739
2155.0000	640.747
2155.5000	640.741
2156.0000	640.719
2156.5000	640.655
2157.0000	640.668
2157.5000	640.763
2158.0000	640.811
2158.5000	640.963
2159.0000	640.947
2159.5000	640.825
2160.0000	640.868
2160.5000	640.755
2161.0000	640.755
2161.5000	640.673
2162.0000	640.771
2162.5000	640.776
2163.0000	640.75
2163.5000	640.884
2164.0000	640.78
2164.5000	640.77
2165.0000	640.802
2165.5000	640.735
2166.0000	640.81
2166.5000	640.794
2167.0000	640.758
2167.5000	640.814
2168.0000	640.814
2168.5000	640.782
2169.0000	640.862
2169.5000	640.921
2170.0000	640.876
2170.5000	640.962
2171.0000	640.844
2171.5000	640.798
2172.0000	640.823
2172.5000	640.71
2173.0000	640.822
2173.5000	640.799
2174.0000	640.813
2174.5000	640.9
2175.0000	640.798
2175.5000	640.834
2176.0000	640.81
2176.5000	640.733
2177.0000	640.884
2177.5000	640.779
2178.0000	640.667
2178.5000	640.826
2179.0000	640.692
2179.5000	640.793
2180.0000	641.005
2180.5000	640.937
2181.0000	640.988
2181.5000	641.066
2182.0000	641.126
2182.5000	641.071
2183.0000	641.152
2183.5000	641.031
2184.0000	640.823
2184.5000	640.934
2185.0000	640.955
2185.5000	641.021
2186.0000	641.047
2186.5000	640.97
2187.0000	640.93
2187.5000	640.917
2188.0000	641.039
2188.5000	641.016
2189.0000	640.979
2189.5000	641.012
2190.0000	641.105
2190.5000	641.143
2191.0000	641.128
2191.5000	641.18
2192.0000	641.117
2192.5000	641.059
2193.0000	641.165
2193.5000	641.198
2194.0000	641.115
2194.5000	641.228
2195.0000	641.103
2195.5000	640.977
2196.0000	641.04
2196.5000	641.072
2197.0000	641.203
2197.5000	641.12
2198.0000	641.12
2198.5000	641.086
2199.0000	640.996
2199.5000	641.16
2200.0000	641.238
2200.5000	641.178
2201.0000	641.261
2201.5000	641.292
2202.0000	641.2
2202.5000	641.244
2203.0000	641.191
2203.5000	641.201
2204.0000	641.293
2204.5000	641.367
2205.0000	641.483
2205.5000	641.446
2206.0000	641.473
2206.5000	641.383
2207.0000	641.214
2207.5000	641.177
2208.0000	641.148
2208.5000	641.083
2209.0000	641.121
2209.5000	641.147
2210.0000	641.048
2210.5000	641.153
2211.0000	641.211
2211.5000	641.183
2212.0000	641.324
2212.5000	641.369
2213.0000	641.435
2213.5000	641.518
2214.0000	641.44
2214.5000	641.378
2215.0000	641.231
2215.5000	641.143
2216.0000	641.123
2216.5000	641.182
2217.0000	641.402
2217.5000	641.426
2218.0000	641.492
2218.5000	641.477
2219.0000	641.424
2219.5000	641.537
2220.0000	641.485
2220.5000	641.534
2221.0000	641.439
2221.5000	641.454
2222.0000	641.469
2222.5000	641.482
2223.0000	641.546
2223.5000	641.447
2224.0000	641.442
2224.5000	641.323
2225.0000	641.315
2225.5000	641.424
2226.0000	641.491
2226.5000	641.473
2227.0000	641.477
2227.5000	641.493
2228.0000	641.444
2228.5000	641.528
2229.0000	641.555
2229.5000	641.519
2230.0000	641.516
2230.5000	641.57
2231.0000	641.678
2231.5000	641.532
2232.0000	641.658
2232.5000	641.533
2233.0000	641.422
2233.5000	641.6
2234.0000	641.5
2234.5000	641.559
2235.0000	641.569
2235.5000	641.61
2236.0000	641.553
2236.5000	641.572
2237.0000	641.542
2237.5000	641.53
2238.0000	641.451
2238.5000	641.507
2239.0000	641.539
2239.5000	641.555
2240.0000	641.706
2240.5000	641.631
2241.0000	641.705
2241.5000	641.638
2242.0000	641.62
2242.5000	641.714
2243.0000	641.603
2243.5000	641.623
2244.0000	641.732
2244.5000	641.774
2245.0000	641.868
2245.5000	641.804
2246.0000	641.778
2246.5000	641.838
2247.0000	641.766
2247.5000	641.731
2248.0000	641.651
2248.5000	641.557
2249.0000	641.636
2249.5000	641.672
2250.0000	641.724
2250.5000	641.726
2251.0000	641.713
2251.5000	641.829
2252.0000	641.968
2252.5000	642.048
2253.0000	642.121
2253.5000	642.043
2254.0000	641.925
2254.5000	641.781
2255.0000	641.599
2255.5000	641.71
2256.0000	641.789
2256.5000	641.818
2257.0000	641.956
2257.5000	642.028
2258.0000	642.093
2258.5000	642.228
2259.0000	642.209
2259.5000	642.033
2260.0000	642.052
2260.5000	641.975
2261.0000	642.02
2261.5000	642.114
2262.0000	642.144
2262.5000	642.236
2263.0000	642.213
2263.5000	642.256
2264.0000	642.085
2264.5000	642.03
2265.0000	642.074
2265.5000	642.066
2266.0000	642.042
2266.5000	642.156
2267.0000	642.132
2267.5000	641.957
2268.0000	641.944
2268.5000	641.824
2269.0000	641.873
2269.5000	641.975
2270.0000	642.034
2270.5000	642.041
2271.0000	641.964
2271.5000	641.989
2272.0000	642.155
2272.5000	642.168
2273.0000	642.268
2273.5000	642.144
2274.0000	642.103
2274.5000	642.028
2275.0000	641.891
2275.5000	642.031
2276.0000	641.87
2276.5000	641.98
2277.0000	642.049
2277.5000	641.933
2278.0000	641.96
2278.5000	641.897
2279.0000	641.963
2279.5000	642.099
2280.0000	642.273
2280.5000	642.305
2281.0000	642.325
2281.5000	642.396
2282.0000	642.282
2282.5000	642.344
2283.0000	642.39
2283.5000	642.264
2284.0000	642.185
2284.5000	642.16
2285.0000	642.086
2285.5000	642.206
2286.0000	642.29
2286.5000	642.285
2287.0000	642.324
2287.5000	642.203
2288.0000	642.245
2288.5000	642.329
2289.0000	642.332
2289.5000	642.45
2290.0000	642.489
2290.5000	642.387
2291.0000	642.387
2291.5000	642.508
2292.0000	642.436
2292.5000	642.427
2293.0000	642.471
2293.5000	642.301
2294.0000	642.299
2294.5000	642.402
2295.0000	642.214
2295.5000	642.176
2296.0000	642.295
2296.5000	642.257
2297.0000	642.395
2297.5000	642.421
2298.0000	642.449
2298.5000	642.478
2299.0000	642.447
2299.5000	642.512
2300.0000	642.367
2300.5000	642.331
2301.0000	642.469
2301.5000	642.509
2302.0000	642.575
2302.5000	642.591
2303.0000	642.534
2303.5000	642.418
2304.0000	642.388
2304.5000	642.414
2305.0000	642.39
2305.5000	642.421
2306.0000	642.498
2306.5000	642.604
2307.0000	642.662
2307.5000	642.799
2308.0000	642.894
2308.5000	642.786
2309.0000	642.666
2309.5000	642.568
2310.0000	642.468
2310.5000	642.532
2311.0000	642.601
2311.5000	642.754
2312.0000	642.696
2312.5000	642.662
2313.0000	642.656
2313.5000	642.558
2314.0000	642.611
2314.5000	642.595
2315.0000	642.643
2315.5000	642.468
2316.0000	642.514
2316.5000	642.586
2317.0000	642.551
2317.5000	642.77
2318.0000	642.804
2318.5000	642.839
2319.0000	642.917
2319.5000	642.779
2320.0000	642.706
2320.5000	642.634
2321.0000	642.632
2321.5000	642.746
2322.0000	642.873
2322.5000	642.838
2323.0000	642.707
2323.5000	642.626
2324.0000	642.576
2324.5000	642.65
2325.0000	642.772
2325.5000	642.867
2326.0000	642.811
2326.5000	642.858
2327.0000	642.945
2327.5000	643.017
2328.0000	642.876
2328.5000	642.825
2329.0000	642.781
2329.5000	642.699
2330.0000	642.855
2330.5000	642.936
2331.0000	642.887
2331.5000	642.929
2332.0000	642.889
2332.5000	642.974
2333.0000	643.041
2333.5000	643.15
2334.0000	643.167
2334.5000	643.142
2335.0000	643.085
2335.5000	642.962
2336.0000	642.988
2336.5000	642.979
2337.0000	642.972
2337.5000	643.08
2338.0000	643.173
2338.5000	643.093
2339.0000	643.166
2339.5000	643.011
2340.0000	642.974
2340.5000	642.944
2341.0000	642.846
2341.5000	642.991
2342.0000	642.875
2342.5000	642.954
2343.0000	642.973
2343.5000	642.892
2344.0000	642.994
2344.5000	642.934
2345.0000	643.046
2345.5000	643.082
2346.0000	643.02
2346.5000	643.042
2347.0000	643.075
2347.5000	643.069
2348.0000	643.186
2348.5000	643.309
2349.0000	643.324
2349.5000	643.316
2350.0000	643.426
2350.5000	643.319
2351.0000	643.306
2351.5000	643.393
2352.0000	643.162
2352.5000	643.189
2353.0000	643.084
2353.5000	642.999
2354.0000	643.05
2354.5000	643.035
2355.0000	643.083
2355.5000	643.154
2356.0000	643.189
2356.5000	643.234
2357.0000	643.27
2357.5000	643.224
2358.0000	643.149
2358.5000	643.107
2359.0000	643.014
2359.5000	643.021
2360.0000	643.149
2360.5000	643.169
2361.0000	643.169
2361.5000	643.162
2362.0000	643.109
2362.5000	643.188
2363.0000	643.117
2363.5000	643.191
2364.0000	643.242
2364.5000	643.084
2365.0000	643.179
2365.5000	643.152
2366.0000	643.162
2366.5000	643.193
2367.0000	643.392
2367.5000	643.367
2368.0000	643.284
2368.5000	643.316
2369.0000	643.172
2369.5000	643.255
2370.0000	643.37
2370.5000	643.408
2371.0000	643.399
2371.5000	643.468
2372.0000	643.353
2372.5000	643.39
2373.0000	643.433
2373.5000	643.381
2374.0000	643.432
2374.5000	643.394
2375.0000	643.43
2375.5000	643.395
2376.0000	643.34
2376.5000	643.268
2377.0000	643.323
2377.5000	643.234
2378.0000	643.362
2378.5000	643.475
2379.0000	643.386
2379.5000	643.441
2380.0000	643.556
2380.5000	643.567
2381.0000	643.524
2381.5000	643.51
2382.0000	643.416
2382.5000	643.369
2383.0000	643.304
2383.5000	643.395
2384.0000	643.386
2384.5000	643.397
2385.0000	643.419
2385.5000	643.436
2386.0000	643.427
2386.5000	643.429
2387.0000	643.555
2387.5000	643.576
2388.0000	643.508
2388.5000	643.527
2389.0000	643.471
2389.5000	643.419
2390.0000	643.462
2390.5000	643.484
2391.0000	643.542
2391.5000	643.51
2392.0000	643.47
2392.5000	643.458
2393.0000	643.493
2393.5000	643.497
2394.0000	643.577
2394.5000	643.555
2395.0000	643.445
2395.5000	643.486
2396.0000	643.531
2396.5000	643.409
2397.0000	643.475
2397.5000	643.477
2398.0000	643.404
2398.5000	643.521
2399.0000	643.515
2399.5000	643.519
2400.0000	643.65
2400.5000	643.645
2401.0000	643.521
2401.5000	643.561
2402.0000	643.489
2402.5000	643.496
2403.0000	643.634
2403.5000	643.581
2404.0000	643.675
2404.5000	643.824
2405.0000	643.785
2405.5000	643.749
2406.0000	643.729
2406.5000	643.652
2407.0000	643.731
2407.5000	643.624
2408.0000	643.441
2408.5000	643.463
2409.0000	643.367
2409.5000	643.509
2410.0000	643.586
2410.5000	643.534
2411.0000	643.5
2411.5000	643.485
2412.0000	643.453
2412.5000	643.518
2413.0000	643.675
2413.5000	643.803
2414.0000	643.9
2414.5000	643.89
2415.0000	643.877
2415.5000	643.734
2416.0000	643.807
2416.5000	643.694
2417.0000	643.659
2417.5000	643.688
2418.0000	643.664
2418.5000	643.665
2419.0000	643.618
2419.5000	643.706
2420.0000	643.625
2420.5000	643.662
2421.0000	643.796
2421.5000	643.65
2422.0000	643.626
2422.5000	643.665
2423.0000	643.721
2423.5000	643.725
2424.0000	643.786
2424.5000	643.846
2425.0000	643.723
2425.5000	643.872
2426.0000	643.812
2426.5000	643.836
2427.0000	643.83
2427.5000	643.768
2428.0000	643.769
2428.5000	643.755
2429.0000	643.823
2429.5000	643.794
2430.0000	643.891
2430.5000	643.881
2431.0000	643.743
2431.5000	643.797
2432.0000	643.826
2432.5000	643.802
2433.0000	643.939
2433.5000	644.047
2434.0000	644.021
2434.5000	644.01
2435.0000	644.051
2435.5000	643.965
2436.0000	643.863
2436.5000	643.838
2437.0000	643.847
2437.5000	643.889
2438.0000	643.976
2438.5000	643.955
2439.0000	643.891
2439.5000	643.863
2440.0000	643.887
2440.5000	643.973
2441.0000	644.103
2441.5000	644.077
2442.0000	643.923
2442.5000	643.951
2443.0000	643.878
2443.5000	643.919
2444.0000	644.115
2444.5000	644.141
2445.0000	644.168
2445.5000	644.254
2446.0000	644.21
2446.5000	644.223
2447.0000	644.261
2447.5000	644.103
2448.0000	644.034
2448.5000	644.027
2449.0000	644.022
2449.5000	644.015
2450.0000	644.15
2450.5000	644.19
2451.0000	644.107
2451.5000	644.328
2452.0000	644.261
2452.5000	644.193
2453.0000	644.285
2453.5000	644.101
2454.0000	644.11
2454.5000	644.19
2455.0000	644.105
2455.5000	644.047
2456.0000	643.983
2456.5000	643.979
2457.0000	644.023
2457.5000	644.174
2458.0000	644.277
2458.5000	644.155
2459.0000	644.125
2459.5000	644.083
2460.0000	644.068
2460.5000	644.154
2461.0000	644.211
2461.5000	644.339
2462.0000	644.328
2462.5000	644.265
2463.0000	644.216
2463.5000	644.104
2464.0000	644.054
2464.5000	643.977
2465.0000	643.902
2465.5000	643.956
2466.0000	644.016
2466.5000	644.084
2467.0000	644.112
2467.5000	644.142
2468.0000	644.086
2468.5000	644.339
2469.0000	644.485
2469.5000	644.493
2470.0000	644.714
2470.5000	644.495
2471.0000	644.441
2471.5000	644.357
2472.0000	644.256
2472.5000	644.268
2473.0000	644.273
2473.5000	644.357
2474.0000	644.388
2474.5000	644.47
2475.0000	644.523
2475.5000	644.502
2476.0000	644.382
2476.5000	644.425
2477.0000	644.383
2477.5000	644.343
2478.0000	644.461
2478.5000	644.447
2479.0000	644.448
2479.5000	644.495
2480.0000	644.465
2480.5000	644.403
2481.0000	644.453
2481.5000	644.457
2482.0000	644.521
2482.5000	644.583
2483.0000	644.499
2483.5000	644.499
2484.0000	644.281
2484.5000	644.191
2485.0000	644.238
2485.5000	644.23
2486.0000	644.346
2486.5000	644.39
2487.0000	644.383
2487.5000	644.351
2488.0000	644.443
2488.5000	644.511
2489.0000	644.605
2489.5000	644.684
2490.0000	644.622
2490.5000	644.592
2491.0000	644.614
2491.5000	644.549
2492.0000	644.57
2492.5000	644.475
2493.0000	644.398
2493.5000	644.336
2494.0000	644.497
2494.5000	644.467
2495.0000	644.439
2495.5000	644.631
2496.0000	644.489
2496.5000	644.533
2497.0000	644.55
2497.5000	644.548
2498.0000	644.564
2498.5000	644.566
2499.0000	644.595
2499.5000	644.558
2500.0000	644.518
2500.5000	644.633
2501.0000	644.538
2501.5000	644.573
2502.0000	644.543
2502.5000	644.48
2503.0000	644.586
2503.5000	644.485
2504.0000	644.51
2504.5000	644.497
2505.0000	644.483
2505.5000	644.507
2506.0000	644.547
2506.5000	644.558
2507.0000	644.48
2507.5000	644.487
2508.0000	644.586
2508.5000	644.585
2509.0000	644.646
2509.5000	644.613
2510.0000	644.533
2510.5000	644.455
2511.0000	644.49
2511.5000	644.561
2512.0000	644.531
2512.5000	644.737
2513.0000	644.749
2513.5000	644.733
2514.0000	644.644
2514.5000	644.444
2515.0000	644.455
2515.5000	644.459
2516.0000	644.578
2516.5000	644.62
2517.0000	644.591
2517.5000	644.557
2518.0000	644.521
2518.5000	644.524
2519.0000	644.452
2519.5000	644.511
2520.0000	644.497
2520.5000	644.558
2521.0000	644.647
2521.5000	644.594
2522.0000	644.676
2522.5000	644.666
2523.0000	644.641
2523.5000	644.709
2524.0000	644.762
2524.5000	644.765
2525.0000	644.758
2525.5000	644.804
2526.0000	644.662
2526.5000	644.694
2527.0000	644.72
2527.5000	644.538
2528.0000	644.665
2528.5000	644.678
2529.0000	644.612
2529.5000	644.762
2530.0000	644.769
2530.5000	644.708
2531.0000	644.749
2531.5000	644.802
2532.0000	644.689
2532.5000	644.706
2533.0000	644.797
2533.5000	644.711
2534.0000	644.728
2534.5000	644.854
2535.0000	644.782
2535.5000	644.781
2536.0000	644.82
2536.5000	644.729
2537.0000	644.807
2537.5000	644.784
2538.0000	644.835
2538.5000	644.89
2539.0000	644.894
2539.5000	644.957
2540.0000	644.857
2540.5000	644.855
2541.0000	644.799
2541.5000	644.836
2542.0000	644.924
2542.5000	644.911
2543.0000	644.82
2543.5000	644.659
2544.0000	644.596
2544.5000	644.693
2545.0000	644.922
2545.5000	645.08
2546.0000	645.133
2546.5000	645.023
2547.0000	644.921
2547.5000	644.85
2548.0000	644.834
2548.5000	644.85
2549.0000	644.945
2549.5000	644.862
2550.0000	644.79
2550.5000	644.851
2551.0000	644.794
2551.5000	644.802
2552.0000	644.968
2552.5000	644.904
2553.0000	644.834
2553.5000	644.997
2554.0000	644.946
2554.5000	644.935
2555.0000	644.957
2555.5000	644.98
2556.0000	644.795
2556.5000	644.747
2557.0000	644.714
2557.5000	644.707
2558.0000	644.869
2558.5000	644.952
2559.0000	644.927
2559.5000	644.853
2560.0000	644.857
2560.5000	644.88
2561.0000	644.967
2561.5000	645.021
2562.0000	644.981
2562.5000	644.874
2563.0000	644.795
2563.5000	644.732
2564.0000	644.76
2564.5000	644.803
2565.0000	644.805
2565.5000	644.802
2566.0000	644.917
2566.5000	645.013
2567.0000	645.085
2567.5000	645.082
2568.0000	644.934
2568.5000	644.91
2569.0000	644.898
2569.5000	644.881
2570.0000	644.93
2570.5000	644.971
2571.0000	644.898
2571.5000	644.955
2572.0000	644.944
2572.5000	644.876
2573.0000	645.052
2573.5000	644.995
2574.0000	645.086
2574.5000	645.067
2575.0000	644.986
2575.5000	645.01
2576.0000	644.888
2576.5000	644.968
2577.0000	644.915
2577.5000	644.993
2578.0000	645.066
2578.5000	644.939
2579.0000	644.951
2579.5000	644.918
2580.0000	644.893
2580.5000	644.963
2581.0000	644.998
2581.5000	645.027
2582.0000	645.037
2582.5000	645.022
2583.0000	645.056
2583.5000	644.995
2584.0000	645.033
2584.5000	645.079
2585.0000	645.003
2585.5000	645.071
2586.0000	645.169
2586.5000	645.114
2587.0000	645.142
2587.5000	645.107
2588.0000	644.918
2588.5000	644.964
2589.0000	645.005
2589.5000	644.947
2590.0000	644.998
2590.5000	644.935
2591.0000	644.903
2591.5000	645.025
2592.0000	645.077
2592.5000	645.185
2593.0000	645.254
2593.5000	645.12
2594.0000	645.044
2594.5000	645.08
2595.0000	645.006
2595.5000	645.15
2596.0000	645.316
2596.5000	645.213
2597.0000	645.271
2597.5000	645.27
2598.0000	645.152
2598.5000	645.154
2599.0000	645.247
2599.5000	645.195
2600.0000	645.161
2600.5000	645.208
2601.0000	645.191
2601.5000	645.286
2602.0000	645.364
2602.5000	645.416
2603.0000	645.324
2603.5000	645.144
2604.0000	645.056
2604.5000	645.065
2605.0000	645.102
2605.5000	645.244
2606.0000	645.321
2606.5000	645.215
2607.0000	645.184
2607.5000	645.161
2608.0000	645.178
2608.5000	645.225
2609.0000	645.167
2609.5000	645.178
2610.0000	645.182
2610.5000	645.129
2611.0000	645.165
2611.5000	645.064
2612.0000	645.018
2612.5000	645.013
2613.0000	644.955
2613.5000	645.034
2614.0000	645.167
2614.5000	645.173
2615.0000	645.272
2615.5000	645.297
2616.0000	645.216
2616.5000	645.233
2617.0000	645.143
2617.5000	645.108
2618.0000	645.003
2618.5000	644.988
2619.0000	645.17
2619.5000	645.135
2620.0000	645.3
2620.5000	645.334
2621.0000	645.213
2621.5000	645.181
2622.0000	645.082
2622.5000	645.121
2623.0000	645.086
2623.5000	645.135
2624.0000	645.203
2624.5000	645.157
2625.0000	645.208
2625.5000	645.19
2626.0000	645.227
2626.5000	645.244
2627.0000	645.183
2627.5000	645.204
2628.0000	645.168
2628.5000	645.124
2629.0000	645.259
2629.5000	645.462
2630.0000	645.429
2630.5000	645.458
2631.0000	645.402
2631.5000	645.123
2632.0000	645.127
2632.5000	645.115
2633.0000	645.124
2633.5000	645.147
2634.0000	645.097
2634.5000	645.228
2635.0000	645.224
2635.5000	645.2
2636.0000	645.185
2636.5000	645.112
2637.0000	645.14
2637.5000	645.3
2638.0000	645.366
2638.5000	645.388
2639.0000	645.32
2639.5000	645.357
2640.0000	645.386
2640.5000	645.293
2641.0000	645.449
2641.5000	645.389
2642.0000	645.447
2642.5000	645.489
2643.0000	645.25
2643.5000	645.221
2644.0000	645.153
2644.5000	645.264
2645.0000	645.366
2645.5000	645.335
2646.0000	645.3
2646.5000	645.133
2647.0000	645.109
2647.5000	645.165
2648.0000	645.289
2648.5000	645.467
2649.0000	645.369
2649.5000	645.395
2650.0000	645.301
2650.5000	645.14
2651.0000	645.277
2651.5000	645.262
2652.0000	645.349
2652.5000	645.489
2653.0000	645.502
2653.5000	645.538
2654.0000	645.501
2654.5000	645.513
2655.0000	645.536
2655.5000	645.547
2656.0000	645.543
2656.5000	645.546
2657.0000	645.614
2657.5000	645.715
2658.0000	645.6
2658.5000	645.608
2659.0000	645.524
2659.5000	645.365
2660.0000	645.448
2660.5000	645.372
2661.0000	645.295
2661.5000	645.292
2662.0000	645.388
2662.5000	645.445
2663.0000	645.463
2663.5000	645.562
2664.0000	645.555
2664.5000	645.517
2665.0000	645.51
2665.5000	645.436
2666.0000	645.456
2666.5000	645.489
2667.0000	645.544
2667.5000	645.636
2668.0000	645.583
2668.5000	645.54
2669.0000	645.627
2669.5000	645.597
2670.0000	645.549
2670.5000	645.506
2671.0000	645.438
2671.5000	645.368
2672.0000	645.392
2672.5000	645.396
2673.0000	645.489
2673.5000	645.499
2674.0000	645.383
2674.5000	645.422
2675.0000	645.393
2675.5000	645.414
2676.0000	645.534
2676.5000	645.594
2677.0000	645.631
2677.5000	645.703
2678.0000	645.806
2678.5000	645.844
2679.0000	645.779
2679.5000	645.713
2680.0000	645.572
2680.5000	645.553
2681.0000	645.591
2681.5000	645.62
2682.0000	645.624
2682.5000	645.66
2683.0000	645.591
2683.5000	645.558
2684.0000	645.56
2684.5000	645.488
2685.0000	645.51
2685.5000	645.486
2686.0000	645.571
2686.5000	645.601
2687.0000	645.703
2687.5000	645.77
2688.0000	645.69
2688.5000	645.589
2689.0000	645.52
2689.5000	645.515
2690.0000	645.515
2690.5000	645.536
2691.0000	645.475
2691.5000	645.465
2692.0000	645.56
2692.5000	645.577
2693.0000	645.525
2693.5000	645.56
2694.0000	645.474
2694.5000	645.608
2695.0000	645.718
2695.5000	645.666
2696.0000	645.741
2696.5000	645.66
2697.0000	645.587
2697.5000	645.672
2698.0000	645.673
2698.5000	645.656
2699.0000	645.725
2699.5000	645.597
2700.0000	645.607
2700.5000	645.709
2701.0000	645.768
2701.5000	645.844
2702.0000	645.817
2702.5000	645.717
2703.0000	645.621
2703.5000	645.594
2704.0000	645.542
2704.5000	645.519
2705.0000	645.612
2705.5000	645.745
2706.0000	645.815
2706.5000	645.789
2707.0000	645.693
2707.5000	645.536
2708.0000	645.542
2708.5000	645.625
2709.0000	645.778
2709.5000	645.846
2710.0000	645.761
2710.5000	645.809
2711.0000	645.711
2711.5000	645.735
2712.0000	645.787
2712.5000	645.788
2713.0000	645.772
2713.5000	645.717
2714.0000	645.681
2714.5000	645.652
2715.0000	645.673
2715.5000	645.633
2716.0000	645.706
2716.5000	645.725
2717.0000	645.773
2717.5000	645.833
2718.0000	645.887
2718.5000	645.883
2719.0000	645.742
2719.5000	645.729
2720.0000	645.678
2720.5000	645.554
2721.0000	645.57
2721.5000	645.602
2722.0000	645.563
2722.5000	645.706
2723.0000	645.797
2723.5000	645.81
2724.0000	645.913
2724.5000	645.951
