TITLE	
DATA TYPE	
ORIGIN	JASCO
OWNER	
DATE	22/04/20
TIME	12:30:22
SPECTROMETER/DATA SYSTEM	
RESOLUTION	
DELTAX	0.5
XUNITS	SEC
YUNITS	INTENSITY
FIRSTX	0.0000
LASTX	1556.0000
NPOINTS	3113
FIRSTY	483.81549
MAXY	612.41260
MINY	-72.52819
XYDATA
0.0000	483.815
0.5000	483.73
1.0000	483.517
1.5000	483.343
2.0000	483.248
2.5000	483.222
3.0000	483.422
3.5000	483.47
4.0000	483.466
4.5000	483.683
5.0000	483.692
5.5000	483.783
6.0000	483.848
6.5000	483.668
7.0000	483.673
7.5000	483.685
8.0000	483.727
8.5000	483.725
9.0000	483.747
9.5000	483.786
10.0000	483.859
10.5000	484.017
11.0000	484.116
11.5000	484.215
12.0000	484.116
12.5000	484.149
13.0000	484.222
13.5000	484.25
14.0000	484.342
14.5000	484.279
15.0000	484.219
15.5000	484.191
16.0000	484.259
16.5000	484.32
17.0000	484.312
17.5000	484.303
18.0000	484.317
18.5000	484.337
19.0000	484.453
19.5000	484.532
20.0000	484.501
20.5000	484.71
21.0000	484.832
21.5000	484.854
22.0000	484.931
22.5000	484.857
23.0000	484.822
23.5000	484.855
24.0000	484.88
24.5000	484.939
25.0000	484.899
25.5000	484.952
26.0000	484.981
26.5000	484.936
27.0000	484.973
27.5000	484.98
28.0000	484.991
28.5000	485.016
29.0000	484.963
29.5000	485.001
30.0000	484.962
30.5000	485.01
31.0000	485.226
31.5000	485.243
32.0000	485.42
32.5000	485.418
33.0000	485.242
33.5000	485.283
34.0000	485.244
34.5000	485.22
35.0000	485.287
35.5000	485.282
36.0000	485.215
36.5000	485.295
37.0000	485.383
37.5000	485.33
38.0000	485.438
38.5000	485.464
39.0000	485.47
39.5000	485.573
40.0000	485.55
40.5000	485.612
41.0000	485.569
41.5000	485.527
42.0000	485.56
42.5000	485.519
43.0000	485.567
43.5000	485.682
44.0000	485.741
44.5000	485.792
45.0000	485.858
45.5000	485.759
46.0000	485.809
46.5000	485.762
47.0000	485.677
47.5000	485.703
48.0000	485.686
48.5000	485.662
49.0000	485.783
49.5000	485.755
50.0000	485.784
50.5000	485.841
51.0000	485.76
51.5000	485.884
52.0000	485.909
52.5000	485.902
53.0000	485.994
53.5000	485.926
54.0000	485.918
54.5000	485.916
55.0000	485.743
55.5000	485.702
56.0000	485.54
56.5000	485.555
57.0000	485.628
57.5000	485.663
58.0000	485.783
58.5000	485.707
59.0000	485.733
59.5000	485.709
60.0000	485.728
60.5000	485.803
61.0000	485.7
61.5000	485.788
62.0000	485.725
62.5000	485.753
63.0000	485.836
63.5000	485.717
64.0000	485.75
64.5000	485.622
65.0000	485.554
65.5000	485.615
66.0000	485.54
66.5000	485.608
67.0000	485.651
67.5000	485.637
68.0000	485.675
68.5000	485.708
69.0000	485.713
69.5000	485.687
70.0000	485.635
70.5000	485.538
71.0000	485.515
71.5000	485.529
72.0000	485.563
72.5000	485.654
73.0000	485.639
73.5000	485.662
74.0000	485.657
74.5000	485.57
75.0000	485.56
75.5000	485.507
76.0000	485.515
76.5000	485.492
77.0000	485.527
77.5000	485.501
78.0000	485.489
78.5000	485.45
79.0000	485.311
79.5000	485.36
80.0000	485.334
80.5000	485.222
81.0000	485.251
81.5000	485.184
82.0000	485.099
82.5000	485.243
83.0000	485.336
83.5000	485.283
84.0000	485.378
84.5000	485.359
85.0000	485.283
85.5000	485.382
86.0000	485.293
86.5000	485.194
87.0000	485.288
87.5000	485.198
88.0000	485.098
88.5000	485.227
89.0000	471.944
89.5000	451.44
90.0000	407.841
90.5000	193.247
91.0000	-72.5282
91.5000	-39.258
92.0000	-32.5999
92.5000	-30.1004
93.0000	-28.9802
93.5000	-28.3533
94.0000	-27.7374
94.5000	-27.601
95.0000	-27.0676
95.5000	-26.672
96.0000	-26.3649
96.5000	-25.9582
97.0000	284.628
97.5000	277.198
98.0000	274.597
98.5000	273.343
99.0000	253.442
99.5000	253.103
100.0000	253.217
100.5000	253.367
101.0000	253.611
101.5000	253.9
102.0000	254.191
102.5000	254.549
103.0000	254.869
103.5000	255.194
104.0000	255.538
104.5000	255.869
105.0000	256.229
105.5000	256.661
106.0000	256.979
106.5000	257.324
107.0000	257.695
107.5000	257.976
108.0000	258.366
108.5000	258.724
109.0000	259.073
109.5000	259.439
110.0000	259.77
110.5000	260.094
111.0000	260.422
111.5000	260.757
112.0000	261.066
112.5000	261.424
113.0000	261.705
113.5000	262.032
114.0000	262.449
114.5000	262.832
115.0000	263.23
115.5000	263.656
116.0000	264.071
116.5000	264.521
117.0000	264.964
117.5000	265.447
118.0000	265.896
118.5000	266.441
119.0000	266.982
119.5000	267.464
120.0000	267.903
120.5000	268.383
121.0000	268.923
121.5000	269.452
122.0000	270.12
122.5000	270.693
123.0000	271.315
123.5000	271.943
124.0000	272.533
124.5000	273.111
125.0000	273.659
125.5000	274.288
126.0000	274.854
126.5000	275.487
127.0000	276.099
127.5000	276.732
128.0000	277.392
128.5000	278.015
129.0000	278.643
129.5000	279.199
130.0000	279.795
130.5000	280.436
131.0000	281.048
131.5000	281.641
132.0000	282.246
132.5000	282.838
133.0000	283.395
133.5000	283.99
134.0000	284.564
134.5000	285.086
135.0000	285.613
135.5000	286.102
136.0000	286.621
136.5000	287.088
137.0000	287.599
137.5000	288.139
138.0000	288.599
138.5000	289.02
139.0000	289.489
139.5000	289.911
140.0000	290.361
140.5000	290.895
141.0000	291.389
141.5000	291.837
142.0000	292.331
142.5000	292.756
143.0000	293.173
143.5000	293.657
144.0000	294.071
144.5000	294.462
145.0000	294.875
145.5000	295.282
146.0000	295.618
146.5000	296.055
147.0000	296.419
147.5000	296.829
148.0000	297.281
148.5000	297.693
149.0000	298.108
149.5000	298.463
150.0000	298.879
150.5000	299.27
151.0000	299.715
151.5000	300.176
152.0000	300.551
152.5000	301
153.0000	301.341
153.5000	301.712
154.0000	302.148
154.5000	302.45
155.0000	302.869
155.5000	303.326
156.0000	303.647
156.5000	304.104
157.0000	304.526
157.5000	304.859
158.0000	305.234
158.5000	305.586
159.0000	305.945
159.5000	306.247
160.0000	306.61
160.5000	307.016
161.0000	307.336
161.5000	307.723
162.0000	308.111
162.5000	308.435
163.0000	308.82
163.5000	309.207
164.0000	309.499
164.5000	309.778
165.0000	310.137
165.5000	310.435
166.0000	310.833
166.5000	311.211
167.0000	311.528
167.5000	311.866
168.0000	312.154
168.5000	312.515
169.0000	312.938
169.5000	313.308
170.0000	313.681
170.5000	313.985
171.0000	314.223
171.5000	314.496
172.0000	314.922
172.5000	315.267
173.0000	315.581
173.5000	315.959
174.0000	316.214
174.5000	316.573
175.0000	316.914
175.5000	317.191
176.0000	317.505
176.5000	317.777
177.0000	318.095
177.5000	318.475
178.0000	318.869
178.5000	319.224
179.0000	319.523
179.5000	319.806
180.0000	320.05
180.5000	320.378
181.0000	320.698
181.5000	321.002
182.0000	321.28
182.5000	321.592
183.0000	321.938
183.5000	322.291
184.0000	322.669
184.5000	322.977
185.0000	323.268
185.5000	323.59
186.0000	323.879
186.5000	324.205
187.0000	324.514
187.5000	324.848
188.0000	325.131
188.5000	325.41
189.0000	325.731
189.5000	325.966
190.0000	326.324
190.5000	326.627
191.0000	326.974
191.5000	327.276
192.0000	327.588
192.5000	327.89
193.0000	328.175
193.5000	328.545
194.0000	328.815
194.5000	329.071
195.0000	329.346
195.5000	329.563
196.0000	329.875
196.5000	330.29
197.0000	330.627
197.5000	331.007
198.0000	331.316
198.5000	331.57
199.0000	331.842
199.5000	332.157
200.0000	332.439
200.5000	332.712
201.0000	333.006
201.5000	333.269
202.0000	333.581
202.5000	333.932
203.0000	334.317
203.5000	334.627
204.0000	334.943
204.5000	335.185
205.0000	335.439
205.5000	335.761
206.0000	336.045
206.5000	336.367
207.0000	336.608
207.5000	336.89
208.0000	337.177
208.5000	337.514
209.0000	337.873
209.5000	338.175
210.0000	338.586
210.5000	338.899
211.0000	339.161
211.5000	339.431
212.0000	339.63
212.5000	339.793
213.0000	340.11
213.5000	340.401
214.0000	340.714
214.5000	341.093
215.0000	341.418
215.5000	341.716
216.0000	341.99
216.5000	342.305
217.0000	342.545
217.5000	342.821
218.0000	343.125
218.5000	343.408
219.0000	343.795
219.5000	344.211
220.0000	344.537
220.5000	344.876
221.0000	345.073
221.5000	345.307
222.0000	345.614
222.5000	345.906
223.0000	346.256
223.5000	346.544
224.0000	346.84
224.5000	347.156
225.0000	347.424
225.5000	347.727
226.0000	347.99
226.5000	348.28
227.0000	348.588
227.5000	348.842
228.0000	349.131
228.5000	349.447
229.0000	349.711
229.5000	350.032
230.0000	350.386
230.5000	350.642
231.0000	350.971
231.5000	351.256
232.0000	351.536
232.5000	351.83
233.0000	352.159
233.5000	352.49
234.0000	352.803
234.5000	353.085
235.0000	353.397
235.5000	353.648
236.0000	353.924
236.5000	354.197
237.0000	354.419
237.5000	354.721
238.0000	354.993
238.5000	355.304
239.0000	355.592
239.5000	355.906
240.0000	356.207
240.5000	356.449
241.0000	356.771
241.5000	357.082
242.0000	357.357
242.5000	357.671
243.0000	357.968
243.5000	358.191
244.0000	358.367
244.5000	358.594
245.0000	358.863
245.5000	359.189
246.0000	359.569
246.5000	359.873
247.0000	360.114
247.5000	360.424
248.0000	360.718
248.5000	361.082
249.0000	361.42
249.5000	361.67
250.0000	361.922
250.5000	362.153
251.0000	362.367
251.5000	362.702
252.0000	362.979
252.5000	363.246
253.0000	363.556
253.5000	363.748
254.0000	364.038
254.5000	364.373
255.0000	364.703
255.5000	364.971
256.0000	365.201
256.5000	365.437
257.0000	365.656
257.5000	365.939
258.0000	366.264
258.5000	366.524
259.0000	366.827
259.5000	367.112
260.0000	367.473
260.5000	367.763
261.0000	368.029
261.5000	368.324
262.0000	368.535
262.5000	368.774
263.0000	368.984
263.5000	369.253
264.0000	369.424
264.5000	369.782
265.0000	370.023
265.5000	370.231
266.0000	370.592
266.5000	370.862
267.0000	371.203
267.5000	371.557
268.0000	371.784
268.5000	371.994
269.0000	372.232
269.5000	372.424
270.0000	372.652
270.5000	372.879
271.0000	373.19
271.5000	373.452
272.0000	373.74
272.5000	373.986
273.0000	374.241
273.5000	374.491
274.0000	374.758
274.5000	375.055
275.0000	375.338
275.5000	375.584
276.0000	375.844
276.5000	376.112
277.0000	376.358
277.5000	376.678
278.0000	376.914
278.5000	377.147
279.0000	377.398
279.5000	377.63
280.0000	377.924
280.5000	378.134
281.0000	378.341
281.5000	378.61
282.0000	378.856
282.5000	379.226
283.0000	379.474
283.5000	379.708
284.0000	379.936
284.5000	380.094
285.0000	380.312
285.5000	380.546
286.0000	380.77
286.5000	381.089
287.0000	381.389
287.5000	381.637
288.0000	381.9
288.5000	382.139
289.0000	382.402
289.5000	382.656
290.0000	382.953
290.5000	383.206
291.0000	383.416
291.5000	383.659
292.0000	383.923
292.5000	384.113
293.0000	384.364
293.5000	384.63
294.0000	384.806
294.5000	385.003
295.0000	385.258
295.5000	385.497
296.0000	385.779
296.5000	385.999
297.0000	386.192
297.5000	386.494
298.0000	386.641
298.5000	386.885
299.0000	387.122
299.5000	387.268
300.0000	387.548
300.5000	387.806
301.0000	388.075
301.5000	388.289
302.0000	388.491
302.5000	388.696
303.0000	388.953
303.5000	389.217
304.0000	389.496
304.5000	389.797
305.0000	390.028
305.5000	390.215
306.0000	390.394
306.5000	390.638
307.0000	390.869
307.5000	391.109
308.0000	391.453
308.5000	391.652
309.0000	391.862
309.5000	392.147
310.0000	392.328
310.5000	392.582
311.0000	392.849
311.5000	393.078
312.0000	393.261
312.5000	393.543
313.0000	393.76
313.5000	393.96
314.0000	394.221
314.5000	394.37
315.0000	394.656
315.5000	394.929
316.0000	395.137
316.5000	395.354
317.0000	395.447
317.5000	395.652
318.0000	395.914
318.5000	396.207
319.0000	396.553
319.5000	396.787
320.0000	396.908
320.5000	397.115
321.0000	397.385
321.5000	397.639
322.0000	397.91
322.5000	398.126
323.0000	398.181
323.5000	398.28
324.0000	398.569
324.5000	398.779
325.0000	399.03
325.5000	399.351
326.0000	399.48
326.5000	399.666
327.0000	399.9
327.5000	400.143
328.0000	400.446
328.5000	400.666
329.0000	400.885
329.5000	401.066
330.0000	401.232
330.5000	401.441
331.0000	401.618
331.5000	401.79
332.0000	402.055
332.5000	402.346
333.0000	402.575
333.5000	402.836
334.0000	403.084
334.5000	403.207
335.0000	403.481
335.5000	403.674
336.0000	403.864
336.5000	404.075
337.0000	404.315
337.5000	404.594
338.0000	404.737
338.5000	404.988
339.0000	405.168
339.5000	405.338
340.0000	405.559
340.5000	405.802
341.0000	406.074
341.5000	406.228
342.0000	406.439
342.5000	406.641
343.0000	406.771
343.5000	406.958
344.0000	407.185
344.5000	407.396
345.0000	407.628
345.5000	407.878
346.0000	408.121
346.5000	408.297
347.0000	408.431
347.5000	408.607
348.0000	408.813
348.5000	409.018
349.0000	409.281
349.5000	409.51
350.0000	409.734
350.5000	410.018
351.0000	410.208
351.5000	410.431
352.0000	410.607
352.5000	410.775
353.0000	410.982
353.5000	411.253
354.0000	411.461
354.5000	411.604
355.0000	411.818
355.5000	411.891
356.0000	412.108
356.5000	412.394
357.0000	412.583
357.5000	412.784
358.0000	412.973
358.5000	413.055
359.0000	413.158
359.5000	413.413
360.0000	413.606
360.5000	413.9
361.0000	414.201
361.5000	414.422
362.0000	414.572
362.5000	414.768
363.0000	414.973
363.5000	415.154
364.0000	415.356
364.5000	415.521
365.0000	415.715
365.5000	415.895
366.0000	416.079
366.5000	416.215
367.0000	416.432
367.5000	416.649
368.0000	416.885
368.5000	417.206
369.0000	417.393
369.5000	417.57
370.0000	417.776
370.5000	417.886
371.0000	418.155
371.5000	418.372
372.0000	418.556
372.5000	418.732
373.0000	418.83
373.5000	419.066
374.0000	419.291
374.5000	419.517
375.0000	419.691
375.5000	419.863
376.0000	420.026
376.5000	420.216
377.0000	420.402
377.5000	420.573
378.0000	420.666
378.5000	420.896
379.0000	421.141
379.5000	421.268
380.0000	421.606
380.5000	421.782
381.0000	421.922
381.5000	422.139
382.0000	422.314
382.5000	422.464
383.0000	422.723
383.5000	422.964
384.0000	423.09
384.5000	423.359
385.0000	423.453
385.5000	423.661
386.0000	423.908
386.5000	424
387.0000	424.238
387.5000	424.325
388.0000	424.445
388.5000	424.667
389.0000	424.827
389.5000	425.053
390.0000	425.211
390.5000	425.355
391.0000	425.536
391.5000	425.689
392.0000	425.971
392.5000	426.123
393.0000	426.316
393.5000	426.462
394.0000	426.512
394.5000	426.795
395.0000	427.045
395.5000	427.34
396.0000	427.601
396.5000	427.757
397.0000	427.847
397.5000	427.964
398.0000	428.189
398.5000	428.267
399.0000	428.464
399.5000	428.628
400.0000	428.735
400.5000	429.042
401.0000	429.242
401.5000	429.454
402.0000	429.71
402.5000	429.837
403.0000	429.996
403.5000	430.242
404.0000	430.432
404.5000	430.562
405.0000	430.801
405.5000	430.931
406.0000	431.046
406.5000	431.279
407.0000	431.374
407.5000	431.575
408.0000	431.791
408.5000	431.946
409.0000	432.202
409.5000	432.345
410.0000	432.552
410.5000	432.709
411.0000	432.789
411.5000	432.95
412.0000	433.024
412.5000	433.213
413.0000	433.531
413.5000	433.679
414.0000	433.849
414.5000	433.983
415.0000	434.116
415.5000	434.302
416.0000	434.523
416.5000	434.679
417.0000	434.745
417.5000	434.988
418.0000	435.072
418.5000	435.295
419.0000	435.584
419.5000	435.664
420.0000	435.87
420.5000	436.104
421.0000	436.335
421.5000	436.527
422.0000	436.807
422.5000	436.939
423.0000	436.944
423.5000	437.101
424.0000	437.128
424.5000	437.233
425.0000	437.441
425.5000	437.664
426.0000	437.832
426.5000	438.089
427.0000	438.239
427.5000	438.431
428.0000	438.722
428.5000	438.887
429.0000	439.067
429.5000	439.191
430.0000	439.292
430.5000	439.44
431.0000	439.585
431.5000	439.777
432.0000	439.979
432.5000	440.234
433.0000	440.375
433.5000	440.532
434.0000	440.703
434.5000	440.834
435.0000	441.018
435.5000	441.181
436.0000	441.275
436.5000	441.434
437.0000	441.589
437.5000	441.682
438.0000	441.867
438.5000	442.039
439.0000	442.214
439.5000	442.394
440.0000	442.512
440.5000	442.624
441.0000	442.671
441.5000	442.846
442.0000	443.05
442.5000	443.158
443.0000	443.349
443.5000	443.51
444.0000	443.657
444.5000	443.855
445.0000	444.121
445.5000	444.297
446.0000	444.52
446.5000	444.603
447.0000	444.673
447.5000	444.844
448.0000	444.937
448.5000	445.114
449.0000	445.306
449.5000	445.445
450.0000	445.584
450.5000	445.743
451.0000	445.833
451.5000	445.946
452.0000	446.259
452.5000	446.374
453.0000	446.582
453.5000	446.749
454.0000	446.707
454.5000	447.033
455.0000	447.267
455.5000	447.367
456.0000	447.598
456.5000	447.598
457.0000	447.71
457.5000	447.956
458.0000	448.018
458.5000	448.159
459.0000	448.358
459.5000	448.512
460.0000	448.678
460.5000	448.89
461.0000	448.963
461.5000	449.03
462.0000	449.366
462.5000	449.613
463.0000	449.8
463.5000	449.996
464.0000	449.972
464.5000	450.102
465.0000	450.231
465.5000	450.402
466.0000	450.587
466.5000	450.696
467.0000	450.824
467.5000	450.983
468.0000	451.141
468.5000	451.174
469.0000	451.366
469.5000	451.509
470.0000	451.63
470.5000	451.855
471.0000	451.964
471.5000	452.193
472.0000	452.32
472.5000	452.504
473.0000	452.707
473.5000	452.701
474.0000	452.904
474.5000	453.032
475.0000	453.216
475.5000	453.425
476.0000	453.612
476.5000	453.734
477.0000	453.854
477.5000	454.015
478.0000	454.047
478.5000	454.231
479.0000	454.338
479.5000	454.429
480.0000	454.681
480.5000	454.793
481.0000	455.015
481.5000	455.186
482.0000	455.309
482.5000	455.487
483.0000	455.492
483.5000	455.603
484.0000	455.69
484.5000	455.757
485.0000	455.933
485.5000	456.042
486.0000	456.17
486.5000	456.349
487.0000	456.504
487.5000	456.643
488.0000	456.86
488.5000	457.012
489.0000	457.08
489.5000	457.365
490.0000	457.526
490.5000	457.647
491.0000	457.846
491.5000	457.918
492.0000	458.028
492.5000	458.162
493.0000	458.299
493.5000	458.371
494.0000	458.461
494.5000	458.615
495.0000	458.715
495.5000	458.916
496.0000	459.084
496.5000	459.147
497.0000	459.417
497.5000	459.601
498.0000	459.805
498.5000	460.026
499.0000	460.065
499.5000	460.152
500.0000	460.263
500.5000	460.358
501.0000	460.487
501.5000	460.684
502.0000	460.806
502.5000	460.996
503.0000	461.137
503.5000	461.162
504.0000	461.258
504.5000	461.488
505.0000	461.632
505.5000	461.815
506.0000	462.01
506.5000	461.963
507.0000	462.1
507.5000	462.283
508.0000	462.362
508.5000	462.574
509.0000	462.726
509.5000	462.829
510.0000	462.94
510.5000	463.051
511.0000	463.203
511.5000	463.276
512.0000	463.406
512.5000	463.551
513.0000	463.588
513.5000	463.768
514.0000	463.921
514.5000	464.086
515.0000	464.28
515.5000	464.355
516.0000	464.458
516.5000	464.549
517.0000	464.665
517.5000	464.833
518.0000	464.992
518.5000	465.067
519.0000	465.172
519.5000	465.265
520.0000	465.474
520.5000	465.631
521.0000	465.768
521.5000	465.999
522.0000	466.067
522.5000	466.258
523.0000	466.354
523.5000	466.417
524.0000	466.526
524.5000	466.581
525.0000	466.752
525.5000	466.892
526.0000	466.988
526.5000	467.086
527.0000	467.201
527.5000	467.362
528.0000	467.397
528.5000	467.563
529.0000	467.685
529.5000	467.703
530.0000	467.968
530.5000	468.121
531.0000	468.282
531.5000	468.376
532.0000	468.498
532.5000	468.575
533.0000	468.741
533.5000	469.021
534.0000	469.182
534.5000	469.377
535.0000	469.507
535.5000	469.615
536.0000	469.628
536.5000	469.587
537.0000	469.695
537.5000	469.791
538.0000	469.974
538.5000	470.27
539.0000	470.389
539.5000	470.454
540.0000	470.63
540.5000	470.763
541.0000	470.759
541.5000	470.917
542.0000	471.013
542.5000	471.136
543.0000	471.421
543.5000	471.507
544.0000	471.544
544.5000	471.632
545.0000	471.67
545.5000	471.883
546.0000	472.073
546.5000	472.165
547.0000	472.285
547.5000	472.296
548.0000	472.378
548.5000	472.573
549.0000	472.772
549.5000	472.913
550.0000	473.072
550.5000	473.115
551.0000	473.138
551.5000	473.321
552.0000	473.424
552.5000	473.519
553.0000	473.625
553.5000	473.747
554.0000	473.886
554.5000	474.04
555.0000	474.188
555.5000	474.247
556.0000	474.268
556.5000	474.405
557.0000	474.462
557.5000	474.619
558.0000	474.81
558.5000	474.878
559.0000	475.023
559.5000	475.121
560.0000	475.256
560.5000	475.324
561.0000	475.472
561.5000	475.513
562.0000	475.567
562.5000	475.72
563.0000	475.779
563.5000	475.884
564.0000	476.06
564.5000	476.206
565.0000	476.362
565.5000	476.546
566.0000	476.649
566.5000	476.777
567.0000	476.872
567.5000	476.991
568.0000	476.982
568.5000	476.954
569.0000	477.046
569.5000	477.14
570.0000	477.376
570.5000	477.592
571.0000	477.78
571.5000	477.88
572.0000	477.98
572.5000	478.125
573.0000	478.182
573.5000	478.348
574.0000	478.345
574.5000	478.403
575.0000	478.61
575.5000	478.669
576.0000	478.764
576.5000	478.955
577.0000	479.029
577.5000	479.127
578.0000	479.396
578.5000	479.417
579.0000	479.462
579.5000	479.602
580.0000	479.631
580.5000	479.758
581.0000	479.997
581.5000	480.072
582.0000	480.138
582.5000	480.332
583.0000	480.388
583.5000	480.474
584.0000	480.67
584.5000	480.687
585.0000	480.738
585.5000	480.952
586.0000	481.073
586.5000	481.195
587.0000	481.318
587.5000	481.294
588.0000	481.395
588.5000	481.45
589.0000	481.512
589.5000	481.643
590.0000	481.667
590.5000	481.785
591.0000	481.939
591.5000	482.121
592.0000	482.204
592.5000	482.348
593.0000	482.494
593.5000	482.505
594.0000	482.699
594.5000	482.8
595.0000	482.818
595.5000	483.005
596.0000	483.032
596.5000	483.194
597.0000	483.301
597.5000	483.354
598.0000	483.529
598.5000	483.63
599.0000	483.705
599.5000	483.821
600.0000	483.894
600.5000	483.973
601.0000	484.172
601.5000	484.236
602.0000	484.312
602.5000	484.419
603.0000	484.506
603.5000	484.648
604.0000	484.841
604.5000	484.898
605.0000	485.074
605.5000	485.212
606.0000	485.325
606.5000	485.405
607.0000	485.427
607.5000	485.431
608.0000	485.481
608.5000	485.582
609.0000	485.639
609.5000	485.848
610.0000	485.96
610.5000	486.061
611.0000	486.146
611.5000	486.234
612.0000	486.304
612.5000	486.48
613.0000	486.523
613.5000	486.658
614.0000	486.89
614.5000	486.926
615.0000	487.097
615.5000	487.13
616.0000	487.105
616.5000	487.233
617.0000	487.376
617.5000	487.489
618.0000	487.64
618.5000	487.789
619.0000	487.831
619.5000	487.901
620.0000	487.952
620.5000	487.987
621.0000	488.112
621.5000	488.305
622.0000	488.372
622.5000	488.552
623.0000	488.689
623.5000	488.711
624.0000	488.806
624.5000	488.835
625.0000	488.871
625.5000	488.93
626.0000	489.083
626.5000	489.179
627.0000	489.355
627.5000	489.512
628.0000	489.594
628.5000	489.71
629.0000	489.721
629.5000	489.781
630.0000	489.803
630.5000	489.848
631.0000	489.878
631.5000	489.928
632.0000	490.028
632.5000	490.146
633.0000	490.391
633.5000	490.527
634.0000	490.556
634.5000	490.685
635.0000	490.708
635.5000	490.741
636.0000	490.889
636.5000	490.945
637.0000	490.995
637.5000	491.164
638.0000	491.437
638.5000	491.545
639.0000	491.66
639.5000	491.742
640.0000	491.784
640.5000	491.857
641.0000	491.941
641.5000	491.976
642.0000	492.002
642.5000	492.08
643.0000	492.205
643.5000	492.321
644.0000	492.36
644.5000	492.489
645.0000	492.606
645.5000	492.683
646.0000	492.826
646.5000	492.833
647.0000	492.908
647.5000	492.998
648.0000	493.1
648.5000	493.242
649.0000	493.243
649.5000	493.382
650.0000	493.485
650.5000	493.615
651.0000	493.774
651.5000	493.845
652.0000	493.91
652.5000	493.939
653.0000	494.073
653.5000	494.263
654.0000	494.319
654.5000	494.398
655.0000	494.478
655.5000	494.451
656.0000	494.576
656.5000	494.673
657.0000	494.798
657.5000	495.004
658.0000	495.15
658.5000	495.281
659.0000	495.302
659.5000	495.263
660.0000	495.276
660.5000	495.346
661.0000	495.434
661.5000	495.555
662.0000	495.668
662.5000	495.845
663.0000	495.915
663.5000	495.95
664.0000	496.044
664.5000	496.037
665.0000	496.128
665.5000	496.307
666.0000	496.411
666.5000	496.52
667.0000	496.607
667.5000	496.625
668.0000	496.784
668.5000	496.918
669.0000	497.058
669.5000	497.22
670.0000	497.108
670.5000	497.193
671.0000	497.344
671.5000	497.365
672.0000	497.563
672.5000	497.562
673.0000	497.562
673.5000	497.699
674.0000	497.711
674.5000	497.825
675.0000	497.957
675.5000	498.06
676.0000	498.239
676.5000	498.316
677.0000	498.467
677.5000	498.445
678.0000	498.499
678.5000	498.688
679.0000	498.597
679.5000	498.82
680.0000	498.948
680.5000	498.969
681.0000	499.207
681.5000	499.263
682.0000	499.408
682.5000	499.404
683.0000	499.396
683.5000	499.487
684.0000	499.47
684.5000	499.665
685.0000	499.829
685.5000	499.872
686.0000	499.99
686.5000	500.019
687.0000	499.893
687.5000	499.995
688.0000	500.069
688.5000	500.159
689.0000	500.38
689.5000	500.553
690.0000	500.61
690.5000	500.745
691.0000	500.846
691.5000	500.842
692.0000	501.017
692.5000	501.038
693.0000	501.135
693.5000	501.273
694.0000	501.196
694.5000	501.292
695.0000	501.336
695.5000	501.423
696.0000	501.645
696.5000	501.753
697.0000	501.909
697.5000	501.919
698.0000	501.982
698.5000	502.131
699.0000	502.248
699.5000	502.268
700.0000	502.299
700.5000	502.281
701.0000	502.349
701.5000	502.528
702.0000	502.691
702.5000	502.788
703.0000	502.835
703.5000	502.941
704.0000	502.916
704.5000	503.02
705.0000	503.161
705.5000	503.249
706.0000	503.404
706.5000	503.468
707.0000	503.428
707.5000	503.473
708.0000	503.531
708.5000	503.618
709.0000	503.755
709.5000	503.806
710.0000	503.827
710.5000	503.896
711.0000	503.867
711.5000	503.92
712.0000	504.046
712.5000	504.134
713.0000	504.314
713.5000	504.44
714.0000	504.419
714.5000	504.516
715.0000	504.611
715.5000	504.633
716.0000	504.737
716.5000	504.887
717.0000	504.911
717.5000	505.084
718.0000	505.234
718.5000	505.258
719.0000	505.306
719.5000	505.277
720.0000	505.414
720.5000	505.587
721.0000	505.707
721.5000	505.882
722.0000	506.013
722.5000	505.924
723.0000	505.969
723.5000	506.103
724.0000	506.138
724.5000	506.338
725.0000	506.516
725.5000	506.548
726.0000	506.579
726.5000	506.649
727.0000	506.693
727.5000	506.71
728.0000	506.836
728.5000	506.887
729.0000	506.959
729.5000	507.042
730.0000	507.148
730.5000	507.198
731.0000	507.384
731.5000	507.538
732.0000	507.56
732.5000	507.615
733.0000	507.643
733.5000	507.738
734.0000	507.777
734.5000	507.906
735.0000	507.949
735.5000	508.041
736.0000	508.145
736.5000	508.242
737.0000	508.26
737.5000	508.286
738.0000	508.357
738.5000	508.404
739.0000	508.5
739.5000	508.582
740.0000	508.755
740.5000	508.796
741.0000	508.88
741.5000	508.918
742.0000	508.818
742.5000	508.951
743.0000	508.994
743.5000	509.127
744.0000	509.29
744.5000	509.371
745.0000	509.569
745.5000	509.608
746.0000	509.83
746.5000	509.851
747.0000	509.842
747.5000	509.975
748.0000	509.994
748.5000	510.182
749.0000	510.272
749.5000	510.347
750.0000	510.297
750.5000	510.256
751.0000	510.295
751.5000	510.307
752.0000	510.605
752.5000	510.906
753.0000	511.043
753.5000	511.236
754.0000	511.177
754.5000	511.136
755.0000	511.275
755.5000	511.245
756.0000	511.224
756.5000	511.312
757.0000	511.342
757.5000	511.466
758.0000	511.673
758.5000	511.683
759.0000	511.735
759.5000	511.741
760.0000	511.856
760.5000	511.955
761.0000	512.092
761.5000	512.199
762.0000	512.239
762.5000	512.341
763.0000	512.35
763.5000	512.365
764.0000	512.434
764.5000	512.449
765.0000	512.665
765.5000	512.826
766.0000	512.887
766.5000	513.048
767.0000	513.06
767.5000	513.183
768.0000	513.264
768.5000	513.327
769.0000	513.401
769.5000	513.428
770.0000	513.424
770.5000	513.484
771.0000	513.531
771.5000	513.599
772.0000	513.788
772.5000	513.838
773.0000	513.89
773.5000	514.042
774.0000	514.141
774.5000	514.204
775.0000	514.296
775.5000	514.312
776.0000	514.276
776.5000	514.375
777.0000	514.473
777.5000	514.608
778.0000	514.698
778.5000	514.843
779.0000	514.834
779.5000	514.809
780.0000	514.99
780.5000	514.968
781.0000	515.121
781.5000	515.264
782.0000	515.211
782.5000	515.399
783.0000	515.46
783.5000	515.569
784.0000	515.631
784.5000	515.573
785.0000	515.585
785.5000	515.678
786.0000	515.816
786.5000	515.827
787.0000	515.976
787.5000	515.972
788.0000	516.077
788.5000	516.264
789.0000	516.362
789.5000	516.451
790.0000	516.494
790.5000	516.579
791.0000	516.6
791.5000	516.615
792.0000	516.714
792.5000	516.764
793.0000	516.939
793.5000	517.08
794.0000	517.187
794.5000	517.26
795.0000	517.28
795.5000	517.392
796.0000	517.396
796.5000	517.586
797.0000	517.692
797.5000	517.784
798.0000	517.883
798.5000	517.836
799.0000	517.891
799.5000	517.866
800.0000	517.929
800.5000	517.999
801.0000	518.017
801.5000	518.119
802.0000	518.286
802.5000	518.361
803.0000	518.52
803.5000	518.676
804.0000	518.644
804.5000	518.662
805.0000	518.786
805.5000	518.919
806.0000	519.053
806.5000	519.204
807.0000	519.27
807.5000	519.153
808.0000	519.229
808.5000	519.285
809.0000	519.253
809.5000	519.407
810.0000	519.457
810.5000	519.555
811.0000	519.677
811.5000	519.753
812.0000	519.838
812.5000	519.976
813.0000	519.977
813.5000	520.114
814.0000	520.305
814.5000	520.379
815.0000	520.511
815.5000	520.54
816.0000	520.445
816.5000	520.599
817.0000	520.646
817.5000	520.666
818.0000	520.825
818.5000	520.763
819.0000	520.858
819.5000	520.91
820.0000	520.985
820.5000	521.121
821.0000	521.127
821.5000	521.316
822.0000	521.359
822.5000	521.422
823.0000	521.611
823.5000	521.703
824.0000	521.797
824.5000	521.802
825.0000	521.809
825.5000	521.91
826.0000	521.986
826.5000	522.044
827.0000	522.134
827.5000	522.127
828.0000	522.249
828.5000	522.394
829.0000	522.438
829.5000	522.491
830.0000	522.616
830.5000	522.71
831.0000	522.933
831.5000	523.03
832.0000	523.036
832.5000	523.05
833.0000	523.074
833.5000	523.181
834.0000	523.139
834.5000	523.257
835.0000	523.303
835.5000	523.266
836.0000	523.522
836.5000	523.544
837.0000	523.635
837.5000	523.771
838.0000	523.812
838.5000	523.992
839.0000	523.99
839.5000	524.04
840.0000	524.111
840.5000	524.208
841.0000	524.412
841.5000	524.516
842.0000	524.622
842.5000	524.653
843.0000	524.654
843.5000	524.812
844.0000	524.903
844.5000	524.992
845.0000	525.134
845.5000	525.176
846.0000	525.174
846.5000	525.223
847.0000	525.292
847.5000	525.323
848.0000	525.41
848.5000	525.571
849.0000	525.653
849.5000	525.737
850.0000	525.86
850.5000	525.941
851.0000	526.009
851.5000	526.179
852.0000	526.332
852.5000	526.332
853.0000	526.432
853.5000	526.565
854.0000	526.531
854.5000	526.59
855.0000	526.711
855.5000	526.679
856.0000	526.769
856.5000	526.994
857.0000	527.031
857.5000	527.128
858.0000	527.207
858.5000	527.167
859.0000	527.188
859.5000	527.223
860.0000	527.247
860.5000	527.308
861.0000	527.513
861.5000	527.708
862.0000	527.901
862.5000	527.999
863.0000	527.999
863.5000	528.017
864.0000	528.068
864.5000	528.215
865.0000	528.229
865.5000	528.319
866.0000	528.418
866.5000	528.418
867.0000	528.508
867.5000	528.618
868.0000	528.735
868.5000	528.844
869.0000	528.976
869.5000	528.976
870.0000	528.947
870.5000	529.012
871.0000	529.161
871.5000	529.288
872.0000	529.386
872.5000	529.512
873.0000	529.553
873.5000	529.552
874.0000	529.667
874.5000	529.697
875.0000	529.682
875.5000	529.861
876.0000	529.874
876.5000	529.998
877.0000	530.142
877.5000	530.145
878.0000	530.275
878.5000	530.333
879.0000	530.326
879.5000	530.442
880.0000	530.511
880.5000	530.602
881.0000	530.76
881.5000	530.897
882.0000	531.014
882.5000	531.067
883.0000	531.235
883.5000	531.234
884.0000	531.338
884.5000	531.488
885.0000	531.57
885.5000	531.688
886.0000	531.69
886.5000	531.743
887.0000	531.713
887.5000	531.873
888.0000	531.969
888.5000	532.096
889.0000	532.176
889.5000	532.138
890.0000	532.28
890.5000	532.272
891.0000	532.375
891.5000	532.512
892.0000	532.606
892.5000	532.724
893.0000	532.724
893.5000	532.784
894.0000	532.794
894.5000	532.862
895.0000	533.018
895.5000	533.101
896.0000	533.18
896.5000	533.278
897.0000	533.335
897.5000	533.435
898.0000	533.618
898.5000	533.653
899.0000	533.738
899.5000	533.837
900.0000	533.888
900.5000	534.023
901.0000	534.159
901.5000	534.241
902.0000	534.34
902.5000	534.365
903.0000	534.387
903.5000	534.424
904.0000	534.448
904.5000	534.597
905.0000	534.722
905.5000	534.786
906.0000	534.835
906.5000	534.974
907.0000	535.058
907.5000	535.199
908.0000	535.32
908.5000	535.348
909.0000	535.462
909.5000	535.541
910.0000	535.71
910.5000	535.781
911.0000	535.882
911.5000	535.951
912.0000	536.027
912.5000	536.098
913.0000	536.072
913.5000	536.192
914.0000	536.113
914.5000	536.307
915.0000	536.486
915.5000	536.512
916.0000	536.749
916.5000	536.784
917.0000	536.861
917.5000	537.053
918.0000	537.099
918.5000	537.202
919.0000	537.299
919.5000	537.34
920.0000	537.385
920.5000	537.411
921.0000	537.508
921.5000	537.584
922.0000	537.737
922.5000	537.775
923.0000	537.837
923.5000	537.895
924.0000	537.882
924.5000	538.094
925.0000	538.191
925.5000	538.297
926.0000	538.549
926.5000	538.542
927.0000	538.627
927.5000	538.74
928.0000	538.773
928.5000	538.885
929.0000	538.893
929.5000	538.932
930.0000	539.043
930.5000	539.104
931.0000	539.306
931.5000	539.459
932.0000	539.448
932.5000	539.555
933.0000	539.595
933.5000	539.785
934.0000	539.954
934.5000	540.06
935.0000	540.216
935.5000	540.326
936.0000	540.382
936.5000	540.432
937.0000	540.439
937.5000	540.351
938.0000	540.364
938.5000	540.546
939.0000	540.66
939.5000	540.778
940.0000	540.872
940.5000	540.921
941.0000	541.024
941.5000	541.123
942.0000	541.289
942.5000	541.347
943.0000	541.446
943.5000	541.537
944.0000	541.615
944.5000	541.804
945.0000	541.807
945.5000	541.883
946.0000	541.942
946.5000	541.896
947.0000	542.059
947.5000	542.193
948.0000	542.279
948.5000	542.447
949.0000	542.504
949.5000	542.638
950.0000	542.676
950.5000	542.761
951.0000	542.846
951.5000	542.775
952.0000	542.96
952.5000	543.101
953.0000	543.244
953.5000	543.439
954.0000	543.445
954.5000	543.405
955.0000	543.522
955.5000	543.469
956.0000	543.701
956.5000	543.859
957.0000	543.815
957.5000	543.923
958.0000	543.962
958.5000	544.039
959.0000	544.203
959.5000	544.351
960.0000	544.481
960.5000	544.583
961.0000	544.648
961.5000	544.792
962.0000	544.746
962.5000	544.788
963.0000	544.925
963.5000	544.994
964.0000	545.121
964.5000	545.253
965.0000	545.369
965.5000	545.44
966.0000	545.541
966.5000	545.575
967.0000	545.454
967.5000	545.392
968.0000	545.392
968.5000	545.433
969.0000	545.47
969.5000	545.679
970.0000	545.796
970.5000	545.913
971.0000	546.187
971.5000	546.224
972.0000	546.369
972.5000	546.545
973.0000	546.65
973.5000	546.805
974.0000	546.943
974.5000	546.985
975.0000	547.126
975.5000	547.205
976.0000	547.24
976.5000	547.398
977.0000	547.407
977.5000	547.475
978.0000	547.59
978.5000	547.617
979.0000	547.695
979.5000	547.779
980.0000	547.967
980.5000	547.987
981.0000	548.135
981.5000	548.359
982.0000	548.392
982.5000	548.562
983.0000	548.727
983.5000	548.697
984.0000	548.677
984.5000	548.778
985.0000	548.834
985.5000	548.9
986.0000	549.024
986.5000	549.11
987.0000	549.06
987.5000	549.187
988.0000	549.329
988.5000	549.45
989.0000	549.543
989.5000	549.751
990.0000	549.734
990.5000	549.71
991.0000	549.817
991.5000	549.755
992.0000	549.9
992.5000	550.076
993.0000	550.108
993.5000	550.257
994.0000	550.452
994.5000	550.542
995.0000	550.696
995.5000	550.847
996.0000	550.9
996.5000	550.967
997.0000	551.121
997.5000	551.203
998.0000	551.188
998.5000	551.289
999.0000	551.349
999.5000	551.341
1000.0000	551.467
1000.5000	551.576
1001.0000	551.552
1001.5000	551.673
1002.0000	551.723
1002.5000	551.759
1003.0000	551.968
1003.5000	551.995
1004.0000	552.18
1004.5000	552.283
1005.0000	552.392
1005.5000	552.6
1006.0000	552.685
1006.5000	552.733
1007.0000	552.798
1007.5000	552.849
1008.0000	552.868
1008.5000	553.094
1009.0000	553.219
1009.5000	553.321
1010.0000	553.377
1010.5000	553.464
1011.0000	553.52
1011.5000	553.51
1012.0000	553.623
1012.5000	553.713
1013.0000	553.763
1013.5000	553.972
1014.0000	554.092
1014.5000	554.058
1015.0000	554.22
1015.5000	554.178
1016.0000	554.293
1016.5000	554.459
1017.0000	554.496
1017.5000	554.597
1018.0000	554.538
1018.5000	554.58
1019.0000	554.755
1019.5000	554.862
1020.0000	555.088
1020.5000	555.166
1021.0000	555.219
1021.5000	555.363
1022.0000	555.368
1022.5000	555.61
1023.0000	555.672
1023.5000	555.74
1024.0000	555.842
1024.5000	555.821
1025.0000	555.925
1025.5000	555.909
1026.0000	556.088
1026.5000	556.136
1027.0000	556.245
1027.5000	556.445
1028.0000	556.448
1028.5000	556.566
1029.0000	556.472
1029.5000	556.494
1030.0000	556.699
1030.5000	556.711
1031.0000	556.883
1031.5000	557.047
1032.0000	556.968
1032.5000	557.187
1033.0000	557.263
1033.5000	557.251
1034.0000	557.462
1034.5000	557.436
1035.0000	557.478
1035.5000	557.579
1036.0000	557.58
1036.5000	557.611
1037.0000	557.757
1037.5000	557.867
1038.0000	558.057
1038.5000	558.233
1039.0000	558.344
1039.5000	558.475
1040.0000	558.471
1040.5000	558.491
1041.0000	558.536
1041.5000	558.601
1042.0000	558.649
1042.5000	558.762
1043.0000	558.85
1043.5000	558.877
1044.0000	559.01
1044.5000	559.097
1045.0000	559.134
1045.5000	559.332
1046.0000	559.398
1046.5000	559.538
1047.0000	559.716
1047.5000	559.722
1048.0000	559.731
1048.5000	559.792
1049.0000	559.828
1049.5000	559.927
1050.0000	560.182
1050.5000	560.203
1051.0000	560.279
1051.5000	560.259
1052.0000	560.296
1052.5000	560.439
1053.0000	560.53
1053.5000	560.769
1054.0000	560.848
1054.5000	560.96
1055.0000	561.017
1055.5000	561.031
1056.0000	561.029
1056.5000	561.119
1057.0000	561.335
1057.5000	561.417
1058.0000	561.511
1058.5000	561.527
1059.0000	561.624
1059.5000	561.737
1060.0000	561.924
1060.5000	562.028
1061.0000	562.041
1061.5000	562.11
1062.0000	562.109
1062.5000	562.2
1063.0000	562.227
1063.5000	562.275
1064.0000	562.391
1064.5000	562.369
1065.0000	562.421
1065.5000	562.432
1066.0000	562.463
1066.5000	562.625
1067.0000	562.711
1067.5000	562.879
1068.0000	562.986
1068.5000	563.038
1069.0000	563.092
1069.5000	563.299
1070.0000	563.368
1070.5000	563.5
1071.0000	563.732
1071.5000	563.768
1072.0000	563.879
1072.5000	563.992
1073.0000	564.025
1073.5000	563.954
1074.0000	564.03
1074.5000	564.069
1075.0000	564.142
1075.5000	564.241
1076.0000	564.284
1076.5000	564.375
1077.0000	564.448
1077.5000	564.549
1078.0000	564.608
1078.5000	564.674
1079.0000	564.766
1079.5000	564.902
1080.0000	564.974
1080.5000	565.08
1081.0000	565.043
1081.5000	565.19
1082.0000	565.351
1082.5000	565.482
1083.0000	565.733
1083.5000	565.81
1084.0000	565.777
1084.5000	565.861
1085.0000	565.875
1085.5000	565.859
1086.0000	565.988
1086.5000	566.026
1087.0000	566.14
1087.5000	566.223
1088.0000	566.322
1088.5000	566.398
1089.0000	566.418
1089.5000	566.544
1090.0000	566.679
1090.5000	566.767
1091.0000	566.918
1091.5000	567.008
1092.0000	567.087
1092.5000	567.119
1093.0000	567.196
1093.5000	567.206
1094.0000	567.307
1094.5000	567.455
1095.0000	567.503
1095.5000	567.615
1096.0000	567.646
1096.5000	567.694
1097.0000	567.753
1097.5000	567.884
1098.0000	567.866
1098.5000	567.979
1099.0000	568.067
1099.5000	568.137
1100.0000	568.427
1100.5000	568.494
1101.0000	568.59
1101.5000	568.682
1102.0000	568.646
1102.5000	568.702
1103.0000	568.703
1103.5000	568.721
1104.0000	568.856
1104.5000	568.903
1105.0000	569.018
1105.5000	569.044
1106.0000	569.069
1106.5000	569.21
1107.0000	569.308
1107.5000	569.489
1108.0000	569.616
1108.5000	569.667
1109.0000	569.841
1109.5000	569.928
1110.0000	570.024
1110.5000	570.095
1111.0000	570.188
1111.5000	570.253
1112.0000	570.306
1112.5000	570.423
1113.0000	570.405
1113.5000	570.424
1114.0000	570.487
1114.5000	570.521
1115.0000	570.682
1115.5000	570.82
1116.0000	570.831
1116.5000	570.865
1117.0000	570.886
1117.5000	571.066
1118.0000	571.288
1118.5000	571.219
1119.0000	571.194
1119.5000	571.219
1120.0000	571.141
1120.5000	571.443
1121.0000	571.701
1121.5000	571.65
1122.0000	571.802
1122.5000	571.9
1123.0000	571.881
1123.5000	572.008
1124.0000	572.125
1124.5000	572.114
1125.0000	572.316
1125.5000	572.429
1126.0000	572.39
1126.5000	572.559
1127.0000	572.483
1127.5000	572.662
1128.0000	572.799
1128.5000	572.78
1129.0000	572.879
1129.5000	572.864
1130.0000	572.986
1130.5000	573.142
1131.0000	573.147
1131.5000	573.238
1132.0000	573.37
1132.5000	573.408
1133.0000	573.581
1133.5000	573.6
1134.0000	573.704
1134.5000	573.788
1135.0000	573.931
1135.5000	574.037
1136.0000	574.015
1136.5000	574.145
1137.0000	574.18
1137.5000	574.248
1138.0000	574.348
1138.5000	574.323
1139.0000	574.349
1139.5000	574.385
1140.0000	574.537
1140.5000	574.746
1141.0000	574.816
1141.5000	574.927
1142.0000	574.942
1142.5000	574.992
1143.0000	575.068
1143.5000	575.233
1144.0000	575.313
1144.5000	575.315
1145.0000	575.369
1145.5000	575.422
1146.0000	575.407
1146.5000	575.577
1147.0000	575.762
1147.5000	575.769
1148.0000	575.91
1148.5000	575.988
1149.0000	576.052
1149.5000	576.211
1150.0000	576.318
1150.5000	576.265
1151.0000	576.263
1151.5000	576.322
1152.0000	576.41
1152.5000	576.643
1153.0000	576.659
1153.5000	576.644
1154.0000	576.747
1154.5000	576.799
1155.0000	576.949
1155.5000	577.047
1156.0000	577.008
1156.5000	577.013
1157.0000	577.01
1157.5000	577.05
1158.0000	577.227
1158.5000	577.288
1159.0000	577.359
1159.5000	577.452
1160.0000	577.434
1160.5000	577.469
1161.0000	577.702
1161.5000	577.76
1162.0000	577.853
1162.5000	577.996
1163.0000	577.904
1163.5000	578.071
1164.0000	578.123
1164.5000	578.251
1165.0000	578.369
1165.5000	578.349
1166.0000	578.442
1166.5000	578.482
1167.0000	578.636
1167.5000	578.683
1168.0000	578.85
1168.5000	578.902
1169.0000	579.043
1169.5000	579.273
1170.0000	579.283
1170.5000	579.42
1171.0000	579.412
1171.5000	579.336
1172.0000	579.49
1172.5000	579.466
1173.0000	579.47
1173.5000	579.643
1174.0000	579.599
1174.5000	579.707
1175.0000	579.799
1175.5000	579.867
1176.0000	580.027
1176.5000	580.072
1177.0000	580.168
1177.5000	580.13
1178.0000	580.139
1178.5000	580.221
1179.0000	580.274
1179.5000	580.433
1180.0000	580.503
1180.5000	580.629
1181.0000	580.763
1181.5000	580.828
1182.0000	580.919
1182.5000	580.936
1183.0000	580.969
1183.5000	580.983
1184.0000	581.127
1184.5000	581.199
1185.0000	581.327
1185.5000	581.479
1186.0000	581.446
1186.5000	581.496
1187.0000	581.61
1187.5000	581.714
1188.0000	581.886
1188.5000	581.909
1189.0000	581.935
1189.5000	581.888
1190.0000	581.881
1190.5000	582.102
1191.0000	582.125
1191.5000	582.233
1192.0000	582.441
1192.5000	582.469
1193.0000	582.511
1193.5000	582.604
1194.0000	582.525
1194.5000	582.545
1195.0000	582.717
1195.5000	582.76
1196.0000	582.799
1196.5000	582.852
1197.0000	582.873
1197.5000	583.039
1198.0000	583.177
1198.5000	583.253
1199.0000	583.182
1199.5000	583.157
1200.0000	583.24
1200.5000	583.342
1201.0000	583.467
1201.5000	583.558
1202.0000	583.526
1202.5000	583.614
1203.0000	583.773
1203.5000	583.811
1204.0000	583.88
1204.5000	583.935
1205.0000	583.904
1205.5000	583.927
1206.0000	583.973
1206.5000	583.995
1207.0000	584.212
1207.5000	584.291
1208.0000	584.388
1208.5000	584.455
1209.0000	584.372
1209.5000	584.413
1210.0000	584.445
1210.5000	584.593
1211.0000	584.728
1211.5000	584.859
1212.0000	584.959
1212.5000	584.934
1213.0000	585
1213.5000	585.211
1214.0000	585.236
1214.5000	585.227
1215.0000	585.316
1215.5000	585.268
1216.0000	585.451
1216.5000	585.587
1217.0000	585.604
1217.5000	585.705
1218.0000	585.759
1218.5000	585.814
1219.0000	585.915
1219.5000	585.855
1220.0000	585.892
1220.5000	585.963
1221.0000	586.025
1221.5000	586.127
1222.0000	586.085
1222.5000	586.177
1223.0000	586.303
1223.5000	586.414
1224.0000	586.558
1224.5000	586.694
1225.0000	586.643
1225.5000	586.69
1226.0000	586.737
1226.5000	586.7
1227.0000	586.798
1227.5000	587.066
1228.0000	587.314
1228.5000	587.487
1229.0000	587.633
1229.5000	587.636
1230.0000	587.557
1230.5000	587.724
1231.0000	587.761
1231.5000	587.727
1232.0000	587.969
1232.5000	587.925
1233.0000	588.003
1233.5000	588.091
1234.0000	587.94
1234.5000	587.99
1235.0000	588.002
1235.5000	588.12
1236.0000	588.259
1236.5000	588.329
1237.0000	588.47
1237.5000	588.404
1238.0000	588.426
1238.5000	588.492
1239.0000	588.582
1239.5000	588.658
1240.0000	588.694
1240.5000	588.796
1241.0000	588.742
1241.5000	588.894
1242.0000	589.14
1242.5000	589.042
1243.0000	589.196
1243.5000	589.215
1244.0000	589.108
1244.5000	589.307
1245.0000	589.278
1245.5000	589.214
1246.0000	589.336
1246.5000	589.301
1247.0000	589.327
1247.5000	589.546
1248.0000	589.435
1248.5000	589.402
1249.0000	589.506
1249.5000	589.479
1250.0000	589.66
1250.5000	589.794
1251.0000	589.834
1251.5000	589.957
1252.0000	590.045
1252.5000	590.139
1253.0000	590.234
1253.5000	590.132
1254.0000	590.135
1254.5000	590.158
1255.0000	590.204
1255.5000	590.41
1256.0000	590.562
1256.5000	590.713
1257.0000	590.774
1257.5000	590.761
1258.0000	590.744
1258.5000	590.837
1259.0000	590.867
1259.5000	590.966
1260.0000	591.02
1260.5000	590.935
1261.0000	591.04
1261.5000	591.063
1262.0000	591.22
1262.5000	591.264
1263.0000	591.243
1263.5000	591.357
1264.0000	591.256
1264.5000	591.391
1265.0000	591.463
1265.5000	591.436
1266.0000	591.507
1266.5000	591.611
1267.0000	591.657
1267.5000	591.79
1268.0000	591.995
1268.5000	591.939
1269.0000	591.974
1269.5000	591.983
1270.0000	591.911
1270.5000	592.035
1271.0000	592.219
1271.5000	592.239
1272.0000	592.449
1272.5000	592.583
1273.0000	592.476
1273.5000	592.575
1274.0000	592.509
1274.5000	592.44
1275.0000	592.587
1275.5000	592.709
1276.0000	592.849
1276.5000	592.924
1277.0000	592.94
1277.5000	593.029
1278.0000	593.022
1278.5000	593.138
1279.0000	593.261
1279.5000	593.335
1280.0000	593.36
1280.5000	593.299
1281.0000	593.201
1281.5000	593.198
1282.0000	593.195
1282.5000	593.387
1283.0000	593.566
1283.5000	593.502
1284.0000	593.725
1284.5000	593.721
1285.0000	593.838
1285.5000	593.905
1286.0000	593.884
1286.5000	593.893
1287.0000	593.925
1287.5000	594.092
1288.0000	594.013
1288.5000	594.055
1289.0000	594.152
1289.5000	594.05
1290.0000	594.17
1290.5000	594.287
1291.0000	594.284
1291.5000	594.479
1292.0000	594.521
1292.5000	594.501
1293.0000	594.458
1293.5000	594.328
1294.0000	594.48
1294.5000	594.544
1295.0000	594.702
1295.5000	594.937
1296.0000	595.022
1296.5000	595.127
1297.0000	595.116
1297.5000	595.168
1298.0000	595.063
1298.5000	595.062
1299.0000	595.138
1299.5000	595.131
1300.0000	595.142
1300.5000	595.296
1301.0000	595.363
1301.5000	595.535
1302.0000	595.707
1302.5000	595.622
1303.0000	595.618
1303.5000	595.583
1304.0000	595.701
1304.5000	595.797
1305.0000	595.827
1305.5000	595.922
1306.0000	595.885
1306.5000	595.903
1307.0000	595.971
1307.5000	595.995
1308.0000	595.955
1308.5000	596.037
1309.0000	596.069
1309.5000	596.019
1310.0000	596.137
1310.5000	596.297
1311.0000	596.34
1311.5000	596.407
1312.0000	596.405
1312.5000	596.409
1313.0000	596.494
1313.5000	596.512
1314.0000	596.605
1314.5000	596.555
1315.0000	596.587
1315.5000	596.726
1316.0000	596.822
1316.5000	596.844
1317.0000	596.933
1317.5000	596.945
1318.0000	596.927
1318.5000	597.09
1319.0000	597.108
1319.5000	597.192
1320.0000	597.291
1320.5000	597.214
1321.0000	597.221
1321.5000	597.162
1322.0000	597.077
1322.5000	597.221
1323.0000	597.328
1323.5000	597.398
1324.0000	597.57
1324.5000	597.624
1325.0000	597.655
1325.5000	597.749
1326.0000	597.852
1326.5000	597.798
1327.0000	597.789
1327.5000	597.75
1328.0000	597.693
1328.5000	597.769
1329.0000	597.833
1329.5000	598.039
1330.0000	598.036
1330.5000	598.071
1331.0000	598.102
1331.5000	598.019
1332.0000	598.169
1332.5000	598.22
1333.0000	598.308
1333.5000	598.336
1334.0000	598.387
1334.5000	598.42
1335.0000	598.555
1335.5000	598.707
1336.0000	598.699
1336.5000	598.814
1337.0000	598.864
1337.5000	598.742
1338.0000	598.78
1338.5000	598.755
1339.0000	598.688
1339.5000	598.841
1340.0000	598.913
1340.5000	598.916
1341.0000	598.872
1341.5000	598.875
1342.0000	598.882
1342.5000	598.939
1343.0000	599.12
1343.5000	599.241
1344.0000	599.223
1344.5000	599.314
1345.0000	599.289
1345.5000	599.416
1346.0000	599.413
1346.5000	599.471
1347.0000	599.582
1347.5000	599.41
1348.0000	599.586
1348.5000	599.661
1349.0000	599.711
1349.5000	599.742
1350.0000	599.665
1350.5000	599.641
1351.0000	599.621
1351.5000	599.776
1352.0000	599.861
1352.5000	600.006
1353.0000	600.025
1353.5000	600.078
1354.0000	600.097
1354.5000	599.987
1355.0000	599.929
1355.5000	599.991
1356.0000	600.096
1356.5000	600.23
1357.0000	600.282
1357.5000	600.299
1358.0000	600.4
1358.5000	600.319
1359.0000	600.388
1359.5000	600.471
1360.0000	600.463
1360.5000	600.654
1361.0000	600.803
1361.5000	600.719
1362.0000	600.764
1362.5000	600.806
1363.0000	600.854
1363.5000	600.92
1364.0000	600.938
1364.5000	600.867
1365.0000	600.988
1365.5000	600.905
1366.0000	600.847
1366.5000	600.868
1367.0000	600.742
1367.5000	600.926
1368.0000	600.999
1368.5000	601.144
1369.0000	601.208
1369.5000	601.204
1370.0000	601.333
1370.5000	601.435
1371.0000	601.485
1371.5000	601.465
1372.0000	601.417
1372.5000	601.305
1373.0000	601.309
1373.5000	601.372
1374.0000	601.406
1374.5000	601.471
1375.0000	601.501
1375.5000	601.571
1376.0000	601.685
1376.5000	601.793
1377.0000	601.9
1377.5000	601.916
1378.0000	601.907
1378.5000	601.821
1379.0000	601.779
1379.5000	601.927
1380.0000	602.075
1380.5000	602.183
1381.0000	602.222
1381.5000	602.188
1382.0000	602.065
1382.5000	602.086
1383.0000	602.237
1383.5000	602.272
1384.0000	602.367
1384.5000	602.391
1385.0000	602.38
1385.5000	602.353
1386.0000	602.407
1386.5000	602.476
1387.0000	602.453
1387.5000	602.503
1388.0000	602.519
1388.5000	602.595
1389.0000	602.638
1389.5000	602.654
1390.0000	602.696
1390.5000	602.643
1391.0000	602.621
1391.5000	602.722
1392.0000	602.862
1392.5000	602.851
1393.0000	602.981
1393.5000	603.041
1394.0000	602.98
1394.5000	602.968
1395.0000	603.039
1395.5000	603.078
1396.0000	603.093
1396.5000	603.27
1397.0000	603.245
1397.5000	603.147
1398.0000	603.211
1398.5000	603.179
1399.0000	603.278
1399.5000	603.367
1400.0000	603.486
1400.5000	603.522
1401.0000	603.547
1401.5000	603.535
1402.0000	603.485
1402.5000	603.587
1403.0000	603.547
1403.5000	603.641
1404.0000	603.574
1404.5000	603.488
1405.0000	603.428
1405.5000	603.442
1406.0000	603.503
1406.5000	603.503
1407.0000	603.654
1407.5000	603.767
1408.0000	603.903
1408.5000	604.049
1409.0000	604.048
1409.5000	604.088
1410.0000	604.022
1410.5000	604.1
1411.0000	604.155
1411.5000	604.12
1412.0000	604.303
1412.5000	604.244
1413.0000	604.285
1413.5000	604.228
1414.0000	604.06
1414.5000	603.983
1415.0000	604.027
1415.5000	604.139
1416.0000	604.186
1416.5000	604.102
1417.0000	604.161
1417.5000	604.239
1418.0000	604.34
1418.5000	604.653
1419.0000	604.618
1419.5000	604.693
1420.0000	604.737
1420.5000	604.707
1421.0000	604.805
1421.5000	604.808
1422.0000	604.849
1422.5000	604.941
1423.0000	604.983
1423.5000	605.001
1424.0000	605.122
1424.5000	605.227
1425.0000	605.237
1425.5000	605.261
1426.0000	605.174
1426.5000	605.113
1427.0000	605.178
1427.5000	605.269
1428.0000	605.262
1428.5000	605.286
1429.0000	605.215
1429.5000	605.041
1430.0000	605.071
1430.5000	605.026
1431.0000	604.938
1431.5000	604.973
1432.0000	605.029
1432.5000	605.092
1433.0000	605.281
1433.5000	605.38
1434.0000	605.406
1434.5000	605.392
1435.0000	605.293
1435.5000	605.377
1436.0000	605.422
1436.5000	605.493
1437.0000	605.681
1437.5000	605.638
1438.0000	605.63
1438.5000	605.692
1439.0000	605.544
1439.5000	605.682
1440.0000	605.691
1440.5000	605.648
1441.0000	605.693
1441.5000	605.601
1442.0000	605.678
1442.5000	605.766
1443.0000	605.85
1443.5000	605.898
1444.0000	605.988
1444.5000	605.927
1445.0000	605.978
1445.5000	606.006
1446.0000	605.986
1446.5000	606.123
1447.0000	606.169
1447.5000	606.28
1448.0000	606.371
1448.5000	606.434
1449.0000	606.451
1449.5000	606.47
1450.0000	606.439
1450.5000	606.376
1451.0000	606.581
1451.5000	606.68
1452.0000	606.69
1452.5000	606.779
1453.0000	606.61
1453.5000	606.643
1454.0000	606.718
1454.5000	606.722
1455.0000	606.852
1455.5000	606.805
1456.0000	606.896
1456.5000	607.003
1457.0000	606.965
1457.5000	606.957
1458.0000	606.782
1458.5000	606.758
1459.0000	606.792
1459.5000	606.893
1460.0000	607.048
1460.5000	607.008
1461.0000	607.03
1461.5000	606.916
1462.0000	606.983
1462.5000	607.041
1463.0000	607.063
1463.5000	607.148
1464.0000	607.116
1464.5000	607.212
1465.0000	607.238
1465.5000	607.313
1466.0000	607.425
1466.5000	607.423
1467.0000	607.564
1467.5000	607.62
1468.0000	607.544
1468.5000	607.52
1469.0000	607.454
1469.5000	607.435
1470.0000	607.464
1470.5000	607.58
1471.0000	607.69
1471.5000	607.688
1472.0000	607.771
1472.5000	607.84
1473.0000	607.801
1473.5000	607.77
1474.0000	607.85
1474.5000	607.8
1475.0000	607.858
1475.5000	608.006
1476.0000	608.045
1476.5000	608.079
1477.0000	608.11
1477.5000	608.103
1478.0000	608.005
1478.5000	608.022
1479.0000	608.022
1479.5000	607.945
1480.0000	607.923
1480.5000	607.969
1481.0000	608.044
1481.5000	608.119
1482.0000	608.156
1482.5000	608.011
1483.0000	607.858
1483.5000	607.893
1484.0000	607.974
1484.5000	608.116
1485.0000	608.291
1485.5000	608.447
1486.0000	608.413
1486.5000	608.505
1487.0000	608.417
1487.5000	608.348
1488.0000	608.343
1488.5000	608.389
1489.0000	608.522
1489.5000	608.531
1490.0000	608.73
1490.5000	608.797
1491.0000	608.779
1491.5000	608.805
1492.0000	608.737
1492.5000	608.704
1493.0000	608.828
1493.5000	608.855
1494.0000	608.961
1494.5000	609.022
1495.0000	609.087
1495.5000	609.268
1496.0000	609.331
1496.5000	609.356
1497.0000	609.15
1497.5000	609.09
1498.0000	609.076
1498.5000	609.045
1499.0000	609.162
1499.5000	609.171
1500.0000	609.169
1500.5000	609.152
1501.0000	609.135
1501.5000	609.24
1502.0000	609.166
1502.5000	609.152
1503.0000	609.154
1503.5000	609.096
1504.0000	609.136
1504.5000	609.192
1505.0000	609.264
1505.5000	609.283
1506.0000	609.34
1506.5000	609.385
1507.0000	609.342
1507.5000	609.469
1508.0000	609.513
1508.5000	609.547
1509.0000	609.723
1509.5000	609.631
1510.0000	609.717
1510.5000	609.933
1511.0000	609.979
1511.5000	610.066
1512.0000	610.104
1512.5000	610.079
1513.0000	610.086
1513.5000	610.17
1514.0000	610.324
1514.5000	610.34
1515.0000	610.338
1515.5000	610.239
1516.0000	610.21
1516.5000	610.177
1517.0000	610.168
1517.5000	610.131
1518.0000	610.053
1518.5000	610.084
1519.0000	610.196
1519.5000	610.387
1520.0000	610.406
1520.5000	610.414
1521.0000	610.311
1521.5000	610.352
1522.0000	610.358
1522.5000	610.324
1523.0000	610.442
1523.5000	610.381
1524.0000	610.463
1524.5000	610.537
1525.0000	610.591
1525.5000	610.624
1526.0000	610.748
1526.5000	610.765
1527.0000	610.8
1527.5000	610.801
1528.0000	610.702
1528.5000	610.746
1529.0000	610.664
1529.5000	610.825
1530.0000	610.834
1530.5000	610.868
1531.0000	610.893
1531.5000	610.924
1532.0000	611.088
1532.5000	611.041
1533.0000	611.041
1533.5000	611.026
1534.0000	611.006
1534.5000	611.062
1535.0000	611.218
1535.5000	611.253
1536.0000	611.199
1536.5000	611.296
1537.0000	611.372
1537.5000	611.225
1538.0000	611.347
1538.5000	611.448
1539.0000	611.51
1539.5000	611.672
1540.0000	611.668
1540.5000	611.513
1541.0000	611.473
1541.5000	611.495
1542.0000	611.486
1542.5000	611.567
1543.0000	611.629
1543.5000	611.616
1544.0000	611.723
1544.5000	611.717
1545.0000	611.697
1545.5000	611.78
1546.0000	611.675
1546.5000	611.727
1547.0000	611.802
1547.5000	611.801
1548.0000	611.898
1548.5000	611.934
1549.0000	611.918
1549.5000	611.93
1550.0000	611.891
1550.5000	611.929
1551.0000	611.927
1551.5000	612
1552.0000	612.043
1552.5000	612.099
1553.0000	612.189
1553.5000	612.098
1554.0000	612.122
1554.5000	612.218
1555.0000	612.185
1555.5000	612.342
1556.0000	612.413
