TITLE	
DATA TYPE	
ORIGIN	JASCO
OWNER	
DATE	22/04/19
TIME	16:20:27
SPECTROMETER/DATA SYSTEM	
RESOLUTION	
DELTAX	0.5
XUNITS	SEC
YUNITS	INTENSITY
FIRSTX	0.0000
LASTX	2419.0000
NPOINTS	4839
FIRSTY	503.18884
MAXY	503.49759
MINY	-126.96399
XYDATA
0.0000	503.189
0.5000	503.157
1.0000	503.071
1.5000	503.022
2.0000	503.042
2.5000	503.133
3.0000	503.31
3.5000	503.239
4.0000	503.376
4.5000	503.355
5.0000	503.301
5.5000	503.335
6.0000	503.23
6.5000	503.171
7.0000	503.163
7.5000	503.234
8.0000	503.209
8.5000	503.243
9.0000	503.244
9.5000	503.077
10.0000	503.153
10.5000	503.1
11.0000	503.14
11.5000	503.146
12.0000	503.148
12.5000	503.29
13.0000	503.293
13.5000	503.498
14.0000	503.453
14.5000	503.32
15.0000	503.249
15.5000	503.152
16.0000	503.237
16.5000	503.273
17.0000	503.35
17.5000	503.439
18.0000	503.34
18.5000	503.428
19.0000	503.38
19.5000	503.353
20.0000	503.372
20.5000	500.205
21.0000	483.058
21.5000	456.451
22.0000	385.108
22.5000	-126.964
23.0000	-52.1576
23.5000	-35.1835
24.0000	-31.1725
24.5000	-29.4904
25.0000	-28.2745
25.5000	-27.4222
26.0000	-27.0079
26.5000	-26.5704
27.0000	-26.5739
27.5000	-26.5287
28.0000	-24.4583
28.5000	271.814
29.0000	262.492
29.5000	260.6
30.0000	259.485
30.5000	239.57
31.0000	240.369
31.5000	240.223
32.0000	240.082
32.5000	240.045
33.0000	240.01
33.5000	240.045
34.0000	240.092
34.5000	240.053
35.0000	240.076
35.5000	240.058
36.0000	240.093
36.5000	240.164
37.0000	240.141
37.5000	240.208
38.0000	240.261
38.5000	240.284
39.0000	240.336
39.5000	240.336
40.0000	240.328
40.5000	240.381
41.0000	240.471
41.5000	240.492
42.0000	240.474
42.5000	240.548
43.0000	240.575
43.5000	240.633
44.0000	240.754
44.5000	240.808
45.0000	240.79
45.5000	240.837
46.0000	240.877
46.5000	240.873
47.0000	240.943
47.5000	240.988
48.0000	241.074
48.5000	241.14
49.0000	241.252
49.5000	241.314
50.0000	241.339
50.5000	241.374
51.0000	241.392
51.5000	241.405
52.0000	241.45
52.5000	241.475
53.0000	241.486
53.5000	241.565
54.0000	241.589
54.5000	241.677
55.0000	241.743
55.5000	241.772
56.0000	241.849
56.5000	241.89
57.0000	241.978
57.5000	242.056
58.0000	242.083
58.5000	242.119
59.0000	242.102
59.5000	242.109
60.0000	242.15
60.5000	242.2
61.0000	242.266
61.5000	242.374
62.0000	242.438
62.5000	242.472
63.0000	242.566
63.5000	242.566
64.0000	242.57
64.5000	242.674
65.0000	242.692
65.5000	242.726
66.0000	242.799
66.5000	242.799
67.0000	242.803
67.5000	242.908
68.0000	242.961
68.5000	243.033
69.0000	243.11
69.5000	243.132
70.0000	243.173
70.5000	243.179
71.0000	243.227
71.5000	243.236
72.0000	243.324
72.5000	243.378
73.0000	243.413
73.5000	243.529
74.0000	243.541
74.5000	243.581
75.0000	243.659
75.5000	243.642
76.0000	243.695
76.5000	243.725
77.0000	243.744
77.5000	243.823
78.0000	243.891
78.5000	243.901
79.0000	243.982
79.5000	244.004
80.0000	244.04
80.5000	244.148
81.0000	244.121
81.5000	244.141
82.0000	244.18
82.5000	244.234
83.0000	244.288
83.5000	244.356
84.0000	244.398
84.5000	244.452
85.0000	244.501
85.5000	244.552
86.0000	244.595
86.5000	244.62
87.0000	244.693
87.5000	244.766
88.0000	244.796
88.5000	244.877
89.0000	244.944
89.5000	245.012
90.0000	245.041
90.5000	245.068
91.0000	245.043
91.5000	245.04
92.0000	245.116
92.5000	245.104
93.0000	245.225
93.5000	245.277
94.0000	245.307
94.5000	245.428
95.0000	245.45
95.5000	245.492
96.0000	245.578
96.5000	245.591
97.0000	245.627
97.5000	245.705
98.0000	245.723
98.5000	245.742
99.0000	245.767
99.5000	245.79
100.0000	245.865
100.5000	245.95
101.0000	245.986
101.5000	246.014
102.0000	246.016
102.5000	246.018
103.0000	246.077
103.5000	246.121
104.0000	246.131
104.5000	246.165
105.0000	246.228
105.5000	246.283
106.0000	246.371
106.5000	246.429
107.0000	246.449
107.5000	246.466
108.0000	246.498
108.5000	246.566
109.0000	246.607
109.5000	246.635
110.0000	246.753
110.5000	246.772
111.0000	246.898
111.5000	246.976
112.0000	246.959
112.5000	247.054
113.0000	247.038
113.5000	247.075
114.0000	247.077
114.5000	247.071
115.0000	247.131
115.5000	247.133
116.0000	247.221
116.5000	247.238
117.0000	247.269
117.5000	247.324
118.0000	247.296
118.5000	247.402
119.0000	247.442
119.5000	247.512
120.0000	247.645
120.5000	247.679
121.0000	247.69
121.5000	247.768
122.0000	247.789
122.5000	247.766
123.0000	247.861
123.5000	247.858
124.0000	247.898
124.5000	248.023
125.0000	248.043
125.5000	248.109
126.0000	248.143
126.5000	248.159
127.0000	248.193
127.5000	248.241
128.0000	248.289
128.5000	248.317
129.0000	248.392
129.5000	248.452
130.0000	248.459
130.5000	248.523
131.0000	248.595
131.5000	248.608
132.0000	248.681
132.5000	248.662
133.0000	248.607
133.5000	248.681
134.0000	248.728
134.5000	248.872
135.0000	248.94
135.5000	248.99
136.0000	249.057
136.5000	249.041
137.0000	249.165
137.5000	249.233
138.0000	249.257
138.5000	249.364
139.0000	249.401
139.5000	249.423
140.0000	249.44
140.5000	249.41
141.0000	249.406
141.5000	249.401
142.0000	249.488
142.5000	249.573
143.0000	249.584
143.5000	249.636
144.0000	249.65
144.5000	249.696
145.0000	249.774
145.5000	249.822
146.0000	249.899
146.5000	249.921
147.0000	249.939
147.5000	249.953
148.0000	249.973
148.5000	250.001
149.0000	250.083
149.5000	250.145
150.0000	250.174
150.5000	250.25
151.0000	250.243
151.5000	250.262
152.0000	250.309
152.5000	250.32
153.0000	250.356
153.5000	250.447
154.0000	250.467
154.5000	250.496
155.0000	250.571
155.5000	250.596
156.0000	250.637
156.5000	250.699
157.0000	250.765
157.5000	250.773
158.0000	250.871
158.5000	250.939
159.0000	250.946
159.5000	250.985
160.0000	250.989
160.5000	250.992
161.0000	251.009
161.5000	251.108
162.0000	251.15
162.5000	251.167
163.0000	251.176
163.5000	251.211
164.0000	251.238
164.5000	251.295
165.0000	251.364
165.5000	251.356
166.0000	251.389
166.5000	251.462
167.0000	251.513
167.5000	251.621
168.0000	251.685
168.5000	251.736
169.0000	251.838
169.5000	251.851
170.0000	251.905
170.5000	251.903
171.0000	251.894
171.5000	251.906
172.0000	251.901
172.5000	251.912
173.0000	251.948
173.5000	252.005
174.0000	252.14
174.5000	252.231
175.0000	252.291
175.5000	252.283
176.0000	252.247
176.5000	252.254
177.0000	252.281
177.5000	252.405
178.0000	252.494
178.5000	252.548
179.0000	252.578
179.5000	252.591
180.0000	252.579
180.5000	252.615
181.0000	252.689
181.5000	252.741
182.0000	252.791
182.5000	252.812
183.0000	252.852
183.5000	252.845
184.0000	252.918
184.5000	252.997
185.0000	253.018
185.5000	253.069
186.0000	253.069
186.5000	253.102
187.0000	253.173
187.5000	253.213
188.0000	253.275
188.5000	253.314
189.0000	253.318
189.5000	253.34
190.0000	253.362
190.5000	253.45
191.0000	253.419
191.5000	253.515
192.0000	253.517
192.5000	253.47
193.0000	253.578
193.5000	253.634
194.0000	253.678
194.5000	253.734
195.0000	253.756
195.5000	253.714
196.0000	253.854
196.5000	253.956
197.0000	253.98
197.5000	254.077
198.0000	254.05
198.5000	254.118
199.0000	254.219
199.5000	254.235
200.0000	254.269
200.5000	254.286
201.0000	254.33
201.5000	254.391
202.0000	254.438
202.5000	254.442
203.0000	254.493
203.5000	254.519
204.0000	254.562
204.5000	254.634
205.0000	254.58
205.5000	254.641
206.0000	254.689
206.5000	254.652
207.0000	254.806
207.5000	254.837
208.0000	254.839
208.5000	254.967
209.0000	254.981
209.5000	255.034
210.0000	255.165
210.5000	255.104
211.0000	255.091
211.5000	255.119
212.0000	255.144
212.5000	255.219
213.0000	255.266
213.5000	255.282
214.0000	255.298
214.5000	255.353
215.0000	255.405
215.5000	255.435
216.0000	255.447
216.5000	255.496
217.0000	255.61
217.5000	255.705
218.0000	255.751
218.5000	255.832
219.0000	255.884
219.5000	255.885
220.0000	255.992
220.5000	255.999
221.0000	255.945
221.5000	255.96
222.0000	255.95
222.5000	256
223.0000	256.081
223.5000	256.181
224.0000	256.186
224.5000	256.225
225.0000	256.246
225.5000	256.249
226.0000	256.295
226.5000	256.311
227.0000	256.362
227.5000	256.427
228.0000	256.448
228.5000	256.551
229.0000	256.559
229.5000	256.582
230.0000	256.696
230.5000	256.679
231.0000	256.765
231.5000	256.799
232.0000	256.776
232.5000	256.805
233.0000	256.801
233.5000	256.871
234.0000	256.94
234.5000	257.036
235.0000	257.086
235.5000	257.144
236.0000	257.219
236.5000	257.201
237.0000	257.229
237.5000	257.214
238.0000	257.159
238.5000	257.196
239.0000	257.238
239.5000	257.212
240.0000	257.288
240.5000	257.319
241.0000	257.363
241.5000	257.512
242.0000	257.58
242.5000	257.661
243.0000	257.738
243.5000	257.693
244.0000	257.732
244.5000	257.726
245.0000	257.728
245.5000	257.818
246.0000	257.871
246.5000	257.89
247.0000	257.903
247.5000	257.936
248.0000	257.944
248.5000	258.037
249.0000	258.108
249.5000	258.179
250.0000	258.224
250.5000	258.195
251.0000	258.213
251.5000	258.191
252.0000	258.231
252.5000	258.316
253.0000	258.292
253.5000	258.372
254.0000	258.442
254.5000	258.496
255.0000	258.619
255.5000	258.65
256.0000	258.649
256.5000	258.666
257.0000	258.725
257.5000	258.772
258.0000	258.764
258.5000	258.831
259.0000	258.896
259.5000	258.899
260.0000	259.022
260.5000	259.071
261.0000	259.033
261.5000	259.154
262.0000	259.126
262.5000	259.148
263.0000	259.225
263.5000	259.219
264.0000	259.261
264.5000	259.318
265.0000	259.355
265.5000	259.362
266.0000	259.41
266.5000	259.419
267.0000	259.395
267.5000	259.465
268.0000	259.527
268.5000	259.573
269.0000	259.637
269.5000	259.695
270.0000	259.742
270.5000	259.761
271.0000	259.854
271.5000	259.854
272.0000	259.897
272.5000	259.945
273.0000	259.959
273.5000	259.989
274.0000	260.04
274.5000	260.099
275.0000	260.151
275.5000	260.217
276.0000	260.267
276.5000	260.28
277.0000	260.283
277.5000	260.329
278.0000	260.336
278.5000	260.37
279.0000	260.411
279.5000	260.399
280.0000	260.411
280.5000	260.46
281.0000	260.519
281.5000	260.563
282.0000	260.608
282.5000	260.658
283.0000	260.682
283.5000	260.747
284.0000	260.798
284.5000	260.854
285.0000	260.889
285.5000	260.931
286.0000	260.999
286.5000	261.025
287.0000	261.054
287.5000	261.117
288.0000	261.076
288.5000	261.068
289.0000	261.116
289.5000	261.129
290.0000	261.249
290.5000	261.349
291.0000	261.415
291.5000	261.444
292.0000	261.407
292.5000	261.433
293.0000	261.432
293.5000	261.472
294.0000	261.517
294.5000	261.578
295.0000	261.662
295.5000	261.655
296.0000	261.753
296.5000	261.761
297.0000	261.766
297.5000	261.838
298.0000	261.788
298.5000	261.799
299.0000	261.822
299.5000	261.92
300.0000	262.008
300.5000	262.074
301.0000	262.109
301.5000	262.062
302.0000	262.128
302.5000	262.097
303.0000	262.18
303.5000	262.262
304.0000	262.278
304.5000	262.37
305.0000	262.318
305.5000	262.305
306.0000	262.323
306.5000	262.351
307.0000	262.445
307.5000	262.515
308.0000	262.562
308.5000	262.596
309.0000	262.655
309.5000	262.693
310.0000	262.712
310.5000	262.727
311.0000	262.717
311.5000	262.814
312.0000	262.883
312.5000	262.948
313.0000	263
313.5000	262.973
314.0000	263.007
314.5000	263.036
315.0000	263.088
315.5000	263.116
316.0000	263.116
316.5000	263.155
317.0000	263.172
317.5000	263.235
318.0000	263.293
318.5000	263.348
319.0000	263.404
319.5000	263.411
320.0000	263.422
320.5000	263.439
321.0000	263.484
321.5000	263.538
322.0000	263.619
322.5000	263.645
323.0000	263.598
323.5000	263.607
324.0000	263.603
324.5000	263.686
325.0000	263.857
325.5000	263.948
326.0000	264.002
326.5000	264.001
327.0000	263.924
327.5000	263.956
328.0000	264.029
328.5000	264.094
329.0000	264.206
329.5000	264.263
330.0000	264.239
330.5000	264.256
331.0000	264.272
331.5000	264.225
332.0000	264.336
332.5000	264.376
333.0000	264.44
333.5000	264.487
334.0000	264.476
334.5000	264.505
335.0000	264.503
335.5000	264.581
336.0000	264.595
336.5000	264.644
337.0000	264.67
337.5000	264.689
338.0000	264.788
338.5000	264.85
339.0000	264.875
339.5000	264.876
340.0000	264.902
340.5000	264.882
341.0000	264.934
341.5000	264.965
342.0000	265.011
342.5000	265.05
343.0000	265.038
343.5000	265.082
344.0000	265.143
344.5000	265.202
345.0000	265.306
345.5000	265.423
346.0000	265.384
346.5000	265.363
347.0000	265.373
347.5000	265.375
348.0000	265.386
348.5000	265.463
349.0000	265.559
349.5000	265.616
350.0000	265.67
350.5000	265.714
351.0000	265.707
351.5000	265.698
352.0000	265.718
352.5000	265.745
353.0000	265.775
353.5000	265.809
354.0000	265.858
354.5000	265.893
355.0000	265.938
355.5000	265.997
356.0000	266.032
356.5000	266.089
357.0000	266.1
357.5000	266.124
358.0000	266.155
358.5000	266.152
359.0000	266.172
359.5000	266.207
360.0000	266.249
360.5000	266.327
361.0000	266.373
361.5000	266.406
362.0000	266.464
362.5000	266.468
363.0000	266.542
363.5000	266.574
364.0000	266.657
364.5000	266.729
365.0000	266.71
365.5000	266.756
366.0000	266.775
366.5000	266.77
367.0000	266.856
367.5000	266.96
368.0000	266.939
368.5000	266.983
369.0000	267.027
369.5000	267.032
370.0000	267.047
370.5000	267.109
371.0000	267.103
371.5000	267.077
372.0000	267.173
372.5000	267.152
373.0000	267.179
373.5000	267.229
374.0000	267.2
374.5000	267.265
375.0000	267.311
375.5000	267.335
376.0000	267.403
376.5000	267.393
377.0000	267.378
377.5000	267.458
378.0000	267.496
378.5000	267.55
379.0000	267.64
379.5000	267.655
380.0000	267.691
380.5000	267.744
381.0000	267.8
381.5000	267.834
382.0000	267.904
382.5000	267.914
383.0000	267.949
383.5000	268.017
384.0000	268.042
384.5000	268.072
385.0000	268.045
385.5000	268.095
386.0000	268.138
386.5000	268.166
387.0000	268.254
387.5000	268.206
388.0000	268.165
388.5000	268.247
389.0000	268.26
389.5000	268.269
390.0000	268.325
390.5000	268.368
391.0000	268.432
391.5000	268.496
392.0000	268.519
392.5000	268.563
393.0000	268.573
393.5000	268.667
394.0000	268.759
394.5000	268.799
395.0000	268.847
395.5000	268.853
396.0000	268.858
396.5000	268.886
397.0000	268.908
397.5000	268.938
398.0000	268.953
398.5000	268.973
399.0000	269.06
399.5000	269.099
400.0000	269.183
400.5000	269.234
401.0000	269.22
401.5000	269.23
402.0000	269.233
402.5000	269.238
403.0000	269.301
403.5000	269.362
404.0000	269.416
404.5000	269.487
405.0000	269.524
405.5000	269.552
406.0000	269.563
406.5000	269.619
407.0000	269.611
407.5000	269.612
408.0000	269.663
408.5000	269.668
409.0000	269.775
409.5000	269.87
410.0000	269.852
410.5000	269.921
411.0000	269.919
411.5000	269.947
412.0000	270.063
412.5000	270.055
413.0000	270.103
413.5000	270.118
414.0000	270.169
414.5000	270.236
415.0000	270.286
415.5000	270.308
416.0000	270.31
416.5000	270.315
417.0000	270.309
417.5000	270.4
418.0000	270.42
418.5000	270.501
419.0000	270.553
419.5000	270.54
420.0000	270.58
420.5000	270.586
421.0000	270.609
421.5000	270.685
422.0000	270.763
422.5000	270.77
423.0000	270.802
423.5000	270.817
424.0000	270.859
424.5000	270.908
425.0000	270.946
425.5000	270.968
426.0000	271.026
426.5000	271.112
427.0000	271.138
427.5000	271.194
428.0000	271.186
428.5000	271.152
429.0000	271.214
429.5000	271.225
430.0000	271.271
430.5000	271.402
431.0000	271.451
431.5000	271.521
432.0000	271.549
432.5000	271.514
433.0000	271.491
433.5000	271.549
434.0000	271.597
434.5000	271.659
435.0000	271.79
435.5000	271.82
436.0000	271.835
436.5000	271.87
437.0000	271.846
437.5000	271.851
438.0000	271.932
438.5000	271.947
439.0000	271.984
439.5000	272.036
440.0000	272.077
440.5000	272.084
441.0000	272.132
441.5000	272.154
442.0000	272.185
442.5000	272.269
443.0000	272.329
443.5000	272.429
444.0000	272.447
444.5000	272.491
445.0000	272.526
445.5000	272.553
446.0000	272.597
446.5000	272.67
447.0000	272.711
447.5000	272.716
448.0000	272.761
448.5000	272.77
449.0000	272.81
449.5000	272.838
450.0000	272.864
450.5000	272.95
451.0000	273.036
451.5000	273.112
452.0000	273.195
452.5000	273.202
453.0000	273.196
453.5000	273.238
454.0000	273.235
454.5000	273.289
455.0000	273.353
455.5000	273.398
456.0000	273.466
456.5000	273.509
457.0000	273.544
457.5000	273.541
458.0000	273.568
458.5000	273.616
459.0000	273.607
459.5000	273.703
460.0000	273.764
460.5000	273.755
461.0000	273.833
461.5000	273.805
462.0000	273.767
462.5000	273.828
463.0000	273.872
463.5000	273.941
464.0000	274.014
464.5000	274.048
465.0000	274.066
465.5000	274.092
466.0000	274.166
466.5000	274.182
467.0000	274.2
467.5000	274.241
468.0000	274.198
468.5000	274.218
469.0000	274.216
469.5000	274.254
470.0000	274.341
470.5000	274.353
471.0000	274.397
471.5000	274.422
472.0000	274.416
472.5000	274.45
473.0000	274.485
473.5000	274.493
474.0000	274.505
474.5000	274.558
475.0000	274.568
475.5000	274.554
476.0000	274.601
476.5000	274.607
477.0000	274.588
477.5000	274.629
478.0000	274.66
478.5000	274.67
479.0000	274.684
479.5000	274.729
480.0000	274.712
480.5000	274.698
481.0000	274.715
481.5000	274.677
482.0000	274.658
482.5000	274.699
483.0000	274.689
483.5000	274.674
484.0000	274.647
484.5000	274.571
485.0000	274.609
485.5000	274.635
486.0000	274.631
486.5000	274.591
487.0000	274.537
487.5000	274.484
488.0000	274.517
488.5000	274.582
489.0000	274.596
489.5000	274.571
490.0000	274.544
490.5000	274.527
491.0000	274.545
491.5000	274.543
492.0000	274.553
492.5000	274.55
493.0000	274.502
493.5000	274.448
494.0000	274.369
494.5000	274.339
495.0000	274.307
495.5000	274.337
496.0000	274.276
496.5000	274.298
497.0000	274.278
497.5000	274.264
498.0000	274.352
498.5000	274.23
499.0000	274.171
499.5000	274.181
500.0000	274.119
500.5000	274.14
501.0000	274.112
501.5000	274.028
502.0000	273.933
502.5000	273.873
503.0000	273.894
503.5000	273.869
504.0000	273.877
504.5000	273.84
505.0000	273.763
505.5000	273.727
506.0000	273.629
506.5000	273.578
507.0000	273.545
507.5000	273.509
508.0000	273.5
508.5000	273.473
509.0000	273.466
509.5000	273.433
510.0000	273.424
510.5000	273.347
511.0000	273.296
511.5000	273.296
512.0000	273.27
512.5000	273.323
513.0000	273.292
513.5000	273.207
514.0000	273.173
514.5000	273.096
515.0000	273.015
515.5000	272.984
516.0000	272.944
516.5000	272.91
517.0000	272.927
517.5000	272.85
518.0000	272.823
518.5000	272.795
519.0000	272.774
519.5000	272.76
520.0000	272.685
520.5000	272.631
521.0000	272.576
521.5000	272.528
522.0000	272.535
522.5000	272.506
523.0000	272.471
523.5000	272.489
524.0000	272.47
524.5000	272.461
525.0000	272.426
525.5000	272.342
526.0000	272.252
526.5000	272.262
527.0000	272.191
527.5000	272.184
528.0000	272.207
528.5000	272.143
529.0000	272.137
529.5000	272.143
530.0000	272.107
530.5000	272.039
531.0000	272.04
531.5000	271.966
532.0000	271.93
532.5000	271.941
533.0000	271.92
533.5000	271.894
534.0000	271.875
534.5000	271.778
535.0000	271.701
535.5000	271.69
536.0000	271.629
536.5000	271.653
537.0000	271.648
537.5000	271.604
538.0000	271.606
538.5000	271.549
539.0000	271.558
539.5000	271.519
540.0000	271.481
540.5000	271.518
541.0000	271.498
541.5000	271.545
542.0000	271.51
542.5000	271.476
543.0000	271.427
543.5000	271.41
544.0000	271.422
544.5000	271.367
545.0000	271.436
545.5000	271.351
546.0000	271.373
546.5000	271.388
547.0000	271.279
547.5000	271.294
548.0000	271.253
548.5000	271.286
549.0000	271.293
549.5000	271.347
550.0000	271.336
550.5000	271.268
551.0000	271.281
551.5000	271.214
552.0000	271.166
552.5000	271.182
553.0000	271.106
553.5000	271.137
554.0000	271.131
554.5000	271.103
555.0000	271.146
555.5000	271.099
556.0000	271.146
556.5000	271.162
557.0000	271.204
557.5000	271.166
558.0000	271.16
558.5000	271.117
559.0000	271.104
559.5000	271.115
560.0000	271.096
560.5000	271.133
561.0000	271.119
561.5000	271.207
562.0000	271.145
562.5000	271.149
563.0000	271.158
563.5000	271.095
564.0000	271.132
564.5000	271.126
565.0000	271.115
565.5000	271.108
566.0000	271.156
566.5000	271.208
567.0000	271.187
567.5000	271.229
568.0000	271.252
568.5000	271.22
569.0000	271.235
569.5000	271.232
570.0000	271.185
570.5000	271.241
571.0000	271.233
571.5000	271.202
572.0000	271.223
572.5000	271.226
573.0000	271.271
573.5000	271.31
574.0000	271.343
574.5000	271.363
575.0000	271.321
575.5000	271.36
576.0000	271.399
576.5000	271.36
577.0000	271.432
577.5000	271.449
578.0000	271.466
578.5000	271.468
579.0000	271.511
579.5000	271.51
580.0000	271.521
580.5000	271.516
581.0000	271.493
581.5000	271.545
582.0000	271.505
582.5000	271.569
583.0000	271.555
583.5000	271.532
584.0000	271.547
584.5000	271.588
585.0000	271.619
585.5000	271.621
586.0000	271.709
586.5000	271.731
587.0000	271.797
587.5000	271.82
588.0000	271.803
588.5000	271.77
589.0000	271.742
589.5000	271.774
590.0000	271.797
590.5000	271.815
591.0000	271.938
591.5000	271.992
592.0000	271.995
592.5000	272.022
593.0000	271.954
593.5000	271.928
594.0000	272.012
594.5000	272.076
595.0000	272.113
595.5000	272.149
596.0000	272.128
596.5000	272.111
597.0000	272.149
597.5000	272.177
598.0000	272.196
598.5000	272.242
599.0000	272.251
599.5000	272.273
600.0000	272.31
600.5000	272.351
601.0000	272.385
601.5000	272.463
602.0000	272.457
602.5000	272.478
603.0000	272.496
603.5000	272.496
604.0000	272.539
604.5000	272.526
605.0000	272.532
605.5000	272.596
606.0000	272.53
606.5000	272.593
607.0000	272.645
607.5000	272.638
608.0000	272.759
608.5000	272.77
609.0000	272.758
609.5000	272.744
610.0000	272.749
610.5000	272.762
611.0000	272.832
611.5000	272.9
612.0000	272.982
612.5000	273.054
613.0000	273.032
613.5000	273.008
614.0000	273.043
614.5000	273.043
615.0000	273.144
615.5000	273.175
616.0000	273.162
616.5000	273.191
617.0000	273.189
617.5000	273.281
618.0000	273.288
618.5000	273.299
619.0000	273.338
619.5000	273.356
620.0000	273.461
620.5000	273.53
621.0000	273.505
621.5000	273.553
622.0000	273.546
622.5000	273.536
623.0000	273.624
623.5000	273.655
624.0000	273.703
624.5000	273.768
625.0000	273.794
625.5000	273.829
626.0000	273.814
626.5000	273.827
627.0000	273.879
627.5000	273.899
628.0000	273.959
628.5000	274.047
629.0000	274.05
629.5000	274.072
630.0000	274.152
630.5000	274.165
631.0000	274.161
631.5000	274.21
632.0000	274.23
632.5000	274.224
633.0000	274.318
633.5000	274.357
634.0000	274.386
634.5000	274.47
635.0000	274.526
635.5000	274.546
636.0000	274.536
636.5000	274.596
637.0000	274.57
637.5000	274.553
638.0000	274.608
638.5000	274.551
639.0000	274.622
639.5000	274.721
640.0000	274.783
640.5000	274.845
641.0000	274.902
641.5000	274.932
642.0000	274.978
642.5000	275.028
643.0000	275.049
643.5000	275.079
644.0000	275.1
644.5000	275.116
645.0000	275.105
645.5000	275.106
646.0000	275.125
646.5000	275.19
647.0000	275.277
647.5000	275.384
648.0000	275.39
648.5000	275.42
649.0000	275.46
649.5000	275.423
650.0000	275.5
650.5000	275.543
651.0000	275.532
651.5000	275.59
652.0000	275.607
652.5000	275.641
653.0000	275.685
653.5000	275.703
654.0000	275.762
654.5000	275.831
655.0000	275.863
655.5000	275.95
656.0000	276.004
656.5000	276.041
657.0000	276.071
657.5000	276.061
658.0000	276.04
658.5000	276.017
659.0000	276.089
659.5000	276.14
660.0000	276.145
660.5000	276.195
661.0000	276.23
661.5000	276.238
662.0000	276.308
662.5000	276.277
663.0000	276.258
663.5000	276.293
664.0000	276.3
664.5000	276.372
665.0000	276.396
665.5000	276.407
666.0000	276.477
666.5000	276.46
667.0000	276.529
667.5000	276.614
668.0000	276.594
668.5000	276.661
669.0000	276.721
669.5000	276.719
670.0000	276.752
670.5000	276.783
671.0000	276.801
671.5000	276.795
672.0000	276.834
672.5000	276.866
673.0000	276.869
673.5000	276.962
674.0000	276.979
674.5000	276.957
675.0000	276.95
675.5000	276.966
676.0000	276.966
676.5000	277.044
677.0000	277.081
677.5000	277.078
678.0000	277.116
678.5000	277.138
679.0000	277.145
679.5000	277.181
680.0000	277.231
680.5000	277.21
681.0000	277.281
681.5000	277.317
682.0000	277.309
682.5000	277.348
683.0000	277.314
683.5000	277.247
684.0000	277.314
684.5000	277.368
685.0000	277.428
685.5000	277.497
686.0000	277.437
686.5000	277.429
687.0000	277.426
687.5000	277.438
688.0000	277.476
688.5000	277.491
689.0000	277.513
689.5000	277.509
690.0000	277.602
690.5000	277.63
691.0000	277.646
691.5000	277.692
692.0000	277.626
692.5000	277.626
693.0000	277.6
693.5000	277.646
694.0000	277.731
694.5000	277.78
695.0000	277.838
695.5000	277.848
696.0000	277.881
696.5000	277.869
697.0000	277.865
697.5000	277.905
698.0000	277.903
698.5000	277.944
699.0000	278.005
699.5000	278.038
700.0000	278.095
700.5000	278.157
701.0000	278.146
701.5000	278.17
702.0000	278.185
702.5000	278.201
703.0000	278.285
703.5000	278.252
704.0000	278.253
704.5000	278.229
705.0000	278.259
705.5000	278.318
706.0000	278.375
706.5000	278.502
707.0000	278.43
707.5000	278.492
708.0000	278.459
708.5000	278.453
709.0000	278.56
709.5000	278.507
710.0000	278.588
710.5000	278.566
711.0000	278.641
711.5000	278.741
712.0000	278.732
712.5000	278.76
713.0000	278.729
713.5000	278.73
714.0000	278.797
714.5000	278.891
715.0000	278.946
715.5000	279.011
716.0000	279.077
716.5000	279.077
717.0000	279.105
717.5000	279.134
718.0000	279.126
718.5000	279.152
719.0000	279.205
719.5000	279.223
720.0000	279.225
720.5000	279.287
721.0000	279.25
721.5000	279.285
722.0000	279.363
722.5000	279.414
723.0000	279.48
723.5000	279.522
724.0000	279.575
724.5000	279.603
725.0000	279.682
725.5000	279.722
726.0000	279.766
726.5000	279.761
727.0000	279.799
727.5000	279.879
728.0000	279.885
728.5000	279.964
729.0000	279.988
729.5000	279.991
730.0000	280.047
730.5000	280.068
731.0000	280.135
731.5000	280.231
732.0000	280.295
732.5000	280.404
733.0000	280.445
733.5000	280.421
734.0000	280.471
734.5000	280.477
735.0000	280.504
735.5000	280.578
736.0000	280.591
736.5000	280.663
737.0000	280.705
737.5000	280.737
738.0000	280.818
738.5000	280.86
739.0000	280.938
739.5000	280.987
740.0000	281.007
740.5000	281.013
741.0000	281.02
741.5000	281.066
742.0000	281.066
742.5000	281.151
743.0000	281.226
743.5000	281.25
744.0000	281.349
744.5000	281.366
745.0000	281.391
745.5000	281.446
746.0000	281.501
746.5000	281.592
747.0000	281.647
747.5000	281.701
748.0000	281.711
748.5000	281.671
749.0000	281.755
749.5000	281.812
750.0000	281.849
750.5000	281.926
751.0000	281.977
751.5000	282.061
752.0000	282.154
752.5000	282.203
753.0000	282.212
753.5000	282.232
754.0000	282.275
754.5000	282.307
755.0000	282.341
755.5000	282.402
756.0000	282.423
756.5000	282.482
757.0000	282.505
757.5000	282.554
758.0000	282.558
758.5000	282.589
759.0000	282.692
759.5000	282.709
760.0000	282.819
760.5000	282.884
761.0000	282.941
761.5000	282.893
762.0000	282.967
762.5000	282.965
763.0000	282.985
763.5000	283.054
764.0000	283.074
764.5000	283.19
765.0000	283.197
765.5000	283.308
766.0000	283.282
766.5000	283.253
767.0000	283.332
767.5000	283.355
768.0000	283.441
768.5000	283.56
769.0000	283.607
769.5000	283.612
770.0000	283.593
770.5000	283.55
771.0000	283.546
771.5000	283.633
772.0000	283.726
772.5000	283.832
773.0000	283.911
773.5000	283.896
774.0000	283.932
774.5000	283.951
775.0000	283.986
775.5000	284.12
776.0000	284.139
776.5000	284.143
777.0000	284.138
777.5000	284.098
778.0000	284.16
778.5000	284.243
779.0000	284.334
779.5000	284.385
780.0000	284.4
780.5000	284.488
781.0000	284.498
781.5000	284.497
782.0000	284.586
782.5000	284.562
783.0000	284.584
783.5000	284.692
784.0000	284.683
784.5000	284.727
785.0000	284.807
785.5000	284.82
786.0000	284.875
786.5000	284.905
787.0000	284.911
787.5000	284.938
788.0000	284.939
788.5000	284.993
789.0000	285.016
789.5000	285.071
790.0000	285.134
790.5000	285.137
791.0000	285.183
791.5000	285.177
792.0000	285.185
792.5000	285.293
793.0000	285.322
793.5000	285.356
794.0000	285.405
794.5000	285.402
795.0000	285.45
795.5000	285.53
796.0000	285.662
796.5000	285.702
797.0000	285.7
797.5000	285.762
798.0000	285.763
798.5000	285.814
799.0000	285.906
799.5000	285.949
800.0000	285.939
800.5000	285.905
801.0000	285.961
801.5000	285.962
802.0000	285.996
802.5000	286.052
803.0000	286.023
803.5000	286.135
804.0000	286.195
804.5000	286.273
805.0000	286.332
805.5000	286.256
806.0000	286.274
806.5000	286.239
807.0000	286.174
807.5000	286.238
808.0000	286.283
808.5000	286.332
809.0000	286.484
809.5000	286.483
810.0000	286.448
810.5000	286.473
811.0000	286.479
811.5000	286.616
812.0000	286.685
812.5000	286.759
813.0000	286.771
813.5000	286.696
814.0000	286.742
814.5000	286.762
815.0000	286.814
815.5000	286.814
816.0000	286.821
816.5000	286.887
817.0000	286.909
817.5000	286.928
818.0000	286.958
818.5000	286.957
819.0000	286.963
819.5000	286.997
820.0000	287.022
820.5000	287.004
821.0000	287.025
821.5000	287.073
822.0000	287.105
822.5000	287.127
823.0000	287.211
823.5000	287.254
824.0000	287.256
824.5000	287.299
825.0000	287.285
825.5000	287.332
826.0000	287.39
826.5000	287.415
827.0000	287.456
827.5000	287.482
828.0000	287.512
828.5000	287.595
829.0000	287.634
829.5000	287.655
830.0000	287.66
830.5000	287.639
831.0000	287.671
831.5000	287.698
832.0000	287.787
832.5000	287.83
833.0000	287.871
833.5000	287.854
834.0000	287.854
834.5000	287.903
835.0000	287.877
835.5000	287.979
836.0000	287.983
836.5000	288.018
837.0000	288.056
837.5000	288.017
838.0000	288.038
838.5000	287.988
839.0000	287.999
839.5000	288.069
840.0000	288.067
840.5000	288.139
841.0000	288.208
841.5000	288.194
842.0000	288.265
842.5000	288.288
843.0000	288.32
843.5000	288.42
844.0000	288.417
844.5000	288.405
845.0000	288.42
845.5000	288.393
846.0000	288.381
846.5000	288.425
847.0000	288.43
847.5000	288.453
848.0000	288.522
848.5000	288.56
849.0000	288.593
849.5000	288.612
850.0000	288.664
850.5000	288.607
851.0000	288.597
851.5000	288.649
852.0000	288.651
852.5000	288.68
853.0000	288.668
853.5000	288.71
854.0000	288.705
854.5000	288.788
855.0000	288.858
855.5000	288.833
856.0000	288.822
856.5000	288.841
857.0000	288.908
857.5000	288.914
858.0000	288.976
858.5000	288.988
859.0000	288.945
859.5000	288.996
860.0000	289.02
860.5000	289.051
861.0000	289.066
861.5000	289.065
862.0000	289.108
862.5000	289.126
863.0000	289.158
863.5000	289.217
864.0000	289.231
864.5000	289.245
865.0000	289.284
865.5000	289.256
866.0000	289.246
866.5000	289.278
867.0000	289.249
867.5000	289.266
868.0000	289.305
868.5000	289.294
869.0000	289.365
869.5000	289.389
870.0000	289.366
870.5000	289.418
871.0000	289.388
871.5000	289.469
872.0000	289.539
872.5000	289.533
873.0000	289.582
873.5000	289.583
874.0000	289.563
874.5000	289.62
875.0000	289.647
875.5000	289.697
876.0000	289.74
876.5000	289.747
877.0000	289.778
877.5000	289.747
878.0000	289.803
878.5000	289.813
879.0000	289.821
879.5000	289.884
880.0000	289.925
880.5000	289.933
881.0000	290.026
881.5000	289.996
882.0000	289.978
882.5000	290.037
883.0000	289.965
883.5000	290
884.0000	290.05
884.5000	290.042
885.0000	290.12
885.5000	290.1
886.0000	290.064
886.5000	290.166
887.0000	290.199
887.5000	290.244
888.0000	290.29
888.5000	290.219
889.0000	290.194
889.5000	290.282
890.0000	290.3
890.5000	290.371
891.0000	290.389
891.5000	290.382
892.0000	290.388
892.5000	290.409
893.0000	290.478
893.5000	290.478
894.0000	290.537
894.5000	290.494
895.0000	290.463
895.5000	290.464
896.0000	290.494
896.5000	290.503
897.0000	290.516
897.5000	290.558
898.0000	290.559
898.5000	290.623
899.0000	290.692
899.5000	290.769
900.0000	290.795
900.5000	290.821
901.0000	290.805
901.5000	290.718
902.0000	290.721
902.5000	290.759
903.0000	290.794
903.5000	290.908
904.0000	290.904
904.5000	290.905
905.0000	290.939
905.5000	290.938
906.0000	290.998
906.5000	291.017
907.0000	291.032
907.5000	291
908.0000	291.014
908.5000	291.052
909.0000	291.048
909.5000	291.097
910.0000	291.133
910.5000	291.075
911.0000	291.144
911.5000	291.135
912.0000	291.121
912.5000	291.22
913.0000	291.221
913.5000	291.221
914.0000	291.219
914.5000	291.254
915.0000	291.254
915.5000	291.306
916.0000	291.34
916.5000	291.361
917.0000	291.357
917.5000	291.389
918.0000	291.457
918.5000	291.43
919.0000	291.459
919.5000	291.432
920.0000	291.454
920.5000	291.511
921.0000	291.564
921.5000	291.644
922.0000	291.688
922.5000	291.651
923.0000	291.732
923.5000	291.762
924.0000	291.784
924.5000	291.873
925.0000	291.866
925.5000	291.848
926.0000	291.851
926.5000	291.92
927.0000	291.938
927.5000	291.985
928.0000	291.97
928.5000	291.934
929.0000	291.956
929.5000	291.997
930.0000	292.05
930.5000	292.056
931.0000	292.049
931.5000	292.081
932.0000	292.082
932.5000	292.132
933.0000	292.135
933.5000	292.129
934.0000	292.138
934.5000	292.143
935.0000	292.205
935.5000	292.211
936.0000	292.242
936.5000	292.277
937.0000	292.245
937.5000	292.28
938.0000	292.248
938.5000	292.299
939.0000	292.344
939.5000	292.389
940.0000	292.481
940.5000	292.442
941.0000	292.484
941.5000	292.471
942.0000	292.491
942.5000	292.558
943.0000	292.588
943.5000	292.614
944.0000	292.647
944.5000	292.633
945.0000	292.664
945.5000	292.711
946.0000	292.708
946.5000	292.745
947.0000	292.72
947.5000	292.768
948.0000	292.8
948.5000	292.858
949.0000	292.876
949.5000	292.93
950.0000	293.003
950.5000	293.023
951.0000	293.116
951.5000	293.122
952.0000	293.138
952.5000	293.119
953.0000	293.123
953.5000	293.095
954.0000	293.082
954.5000	293.158
955.0000	293.234
955.5000	293.281
956.0000	293.323
956.5000	293.34
957.0000	293.285
957.5000	293.319
958.0000	293.328
958.5000	293.331
959.0000	293.361
959.5000	293.398
960.0000	293.429
960.5000	293.448
961.0000	293.518
961.5000	293.491
962.0000	293.522
962.5000	293.535
963.0000	293.555
963.5000	293.574
964.0000	293.612
964.5000	293.645
965.0000	293.684
965.5000	293.709
966.0000	293.776
966.5000	293.833
967.0000	293.822
967.5000	293.872
968.0000	293.805
968.5000	293.805
969.0000	293.819
969.5000	293.842
970.0000	293.899
970.5000	293.908
971.0000	293.868
971.5000	293.858
972.0000	293.902
972.5000	293.902
973.0000	293.93
973.5000	294.058
974.0000	294.065
974.5000	294.114
975.0000	294.174
975.5000	294.049
976.0000	294.023
976.5000	294.021
977.0000	294.021
977.5000	294.097
978.0000	294.096
978.5000	294.109
979.0000	294.145
979.5000	294.161
980.0000	294.193
980.5000	294.24
981.0000	294.254
981.5000	294.34
982.0000	294.398
982.5000	294.399
983.0000	294.469
983.5000	294.452
984.0000	294.48
984.5000	294.523
985.0000	294.479
985.5000	294.47
986.0000	294.533
986.5000	294.547
987.0000	294.609
987.5000	294.651
988.0000	294.63
988.5000	294.634
989.0000	294.657
989.5000	294.671
990.0000	294.618
990.5000	294.63
991.0000	294.712
991.5000	294.716
992.0000	294.825
992.5000	294.837
993.0000	294.777
993.5000	294.798
994.0000	294.783
994.5000	294.884
995.0000	294.928
995.5000	294.947
996.0000	294.996
996.5000	294.983
997.0000	294.995
997.5000	295.053
998.0000	295.03
998.5000	295.063
999.0000	295.069
999.5000	295.121
1000.0000	295.156
1000.5000	295.177
1001.0000	295.21
1001.5000	295.205
1002.0000	295.213
1002.5000	295.174
1003.0000	295.224
1003.5000	295.171
1004.0000	295.205
1004.5000	295.275
1005.0000	295.267
1005.5000	295.321
1006.0000	295.365
1006.5000	295.421
1007.0000	295.426
1007.5000	295.432
1008.0000	295.45
1008.5000	295.463
1009.0000	295.515
1009.5000	295.6
1010.0000	295.657
1010.5000	295.669
1011.0000	295.689
1011.5000	295.697
1012.0000	295.7
1012.5000	295.742
1013.0000	295.718
1013.5000	295.718
1014.0000	295.705
1014.5000	295.656
1015.0000	295.694
1015.5000	295.703
1016.0000	295.716
1016.5000	295.719
1017.0000	295.762
1017.5000	295.806
1018.0000	295.856
1018.5000	295.915
1019.0000	295.941
1019.5000	295.965
1020.0000	295.969
1020.5000	295.977
1021.0000	295.964
1021.5000	295.963
1022.0000	295.958
1022.5000	295.981
1023.0000	296.029
1023.5000	296.046
1024.0000	296.051
1024.5000	296.081
1025.0000	296.117
1025.5000	296.175
1026.0000	296.219
1026.5000	296.262
1027.0000	296.283
1027.5000	296.334
1028.0000	296.433
1028.5000	296.461
1029.0000	296.493
1029.5000	296.43
1030.0000	296.479
1030.5000	296.48
1031.0000	296.476
1031.5000	296.581
1032.0000	296.54
1032.5000	296.582
1033.0000	296.558
1033.5000	296.569
1034.0000	296.561
1034.5000	296.579
1035.0000	296.649
1035.5000	296.665
1036.0000	296.699
1036.5000	296.764
1037.0000	296.734
1037.5000	296.74
1038.0000	296.801
1038.5000	296.784
1039.0000	296.807
1039.5000	296.851
1040.0000	296.864
1040.5000	296.879
1041.0000	296.992
1041.5000	296.939
1042.0000	296.947
1042.5000	296.962
1043.0000	297.005
1043.5000	297.124
1044.0000	297.152
1044.5000	297.138
1045.0000	297.073
1045.5000	297.05
1046.0000	297.084
1046.5000	297.133
1047.0000	297.175
1047.5000	297.214
1048.0000	297.259
1048.5000	297.302
1049.0000	297.334
1049.5000	297.366
1050.0000	297.368
1050.5000	297.373
1051.0000	297.403
1051.5000	297.397
1052.0000	297.368
1052.5000	297.425
1053.0000	297.455
1053.5000	297.506
1054.0000	297.575
1054.5000	297.607
1055.0000	297.639
1055.5000	297.648
1056.0000	297.689
1056.5000	297.749
1057.0000	297.761
1057.5000	297.764
1058.0000	297.766
1058.5000	297.741
1059.0000	297.784
1059.5000	297.829
1060.0000	297.85
1060.5000	297.849
1061.0000	297.857
1061.5000	297.892
1062.0000	297.894
1062.5000	297.96
1063.0000	298.027
1063.5000	298.016
1064.0000	298.056
1064.5000	298.059
1065.0000	298.076
1065.5000	298.14
1066.0000	298.14
1066.5000	298.111
1067.0000	298.107
1067.5000	298.108
1068.0000	298.206
1068.5000	298.344
1069.0000	298.369
1069.5000	298.448
1070.0000	298.454
1070.5000	298.434
1071.0000	298.412
1071.5000	298.392
1072.0000	298.391
1072.5000	298.42
1073.0000	298.496
1073.5000	298.53
1074.0000	298.575
1074.5000	298.582
1075.0000	298.544
1075.5000	298.571
1076.0000	298.68
1076.5000	298.674
1077.0000	298.78
1077.5000	298.82
1078.0000	298.703
1078.5000	298.724
1079.0000	298.731
1079.5000	298.71
1080.0000	298.838
1080.5000	298.846
1081.0000	298.847
1081.5000	298.901
1082.0000	298.86
1082.5000	298.955
1083.0000	298.95
1083.5000	298.96
1084.0000	299.007
1084.5000	298.915
1085.0000	298.966
1085.5000	299.005
1086.0000	298.968
1086.5000	299.067
1087.0000	299.082
1087.5000	299.085
1088.0000	299.166
1088.5000	299.22
1089.0000	299.286
1089.5000	299.289
1090.0000	299.271
1090.5000	299.312
1091.0000	299.271
1091.5000	299.298
1092.0000	299.397
1092.5000	299.368
1093.0000	299.403
1093.5000	299.377
1094.0000	299.298
1094.5000	299.401
1095.0000	299.457
1095.5000	299.541
1096.0000	299.573
1096.5000	299.503
1097.0000	299.527
1097.5000	299.554
1098.0000	299.653
1098.5000	299.698
1099.0000	299.714
1099.5000	299.784
1100.0000	299.763
1100.5000	299.779
1101.0000	299.804
1101.5000	299.756
1102.0000	299.822
1102.5000	299.88
1103.0000	299.925
1103.5000	299.979
1104.0000	299.988
1104.5000	300.029
1105.0000	300.048
1105.5000	300.073
1106.0000	300.039
1106.5000	300.029
1107.0000	300.035
1107.5000	300.018
1108.0000	300.059
1108.5000	300.064
1109.0000	300.056
1109.5000	300.136
1110.0000	300.169
1110.5000	300.191
1111.0000	300.297
1111.5000	300.34
1112.0000	300.316
1112.5000	300.424
1113.0000	300.402
1113.5000	300.426
1114.0000	300.471
1114.5000	300.443
1115.0000	300.481
1115.5000	300.476
1116.0000	300.537
1116.5000	300.585
1117.0000	300.657
1117.5000	300.72
1118.0000	300.702
1118.5000	300.689
1119.0000	300.696
1119.5000	300.686
1120.0000	300.757
1120.5000	300.78
1121.0000	300.742
1121.5000	300.727
1122.0000	300.778
1122.5000	300.799
1123.0000	300.866
1123.5000	300.966
1124.0000	300.99
1124.5000	301.065
1125.0000	301.079
1125.5000	301.103
1126.0000	301.083
1126.5000	301.088
1127.0000	301.154
1127.5000	301.147
1128.0000	301.201
1128.5000	301.229
1129.0000	301.216
1129.5000	301.211
1130.0000	301.21
1130.5000	301.223
1131.0000	301.213
1131.5000	301.234
1132.0000	301.271
1132.5000	301.192
1133.0000	301.251
1133.5000	301.34
1134.0000	301.403
1134.5000	301.517
1135.0000	301.525
1135.5000	301.526
1136.0000	301.52
1136.5000	301.538
1137.0000	301.601
1137.5000	301.556
1138.0000	301.62
1138.5000	301.655
1139.0000	301.692
1139.5000	301.773
1140.0000	301.788
1140.5000	301.777
1141.0000	301.739
1141.5000	301.798
1142.0000	301.806
1142.5000	301.827
1143.0000	301.892
1143.5000	301.87
1144.0000	301.943
1144.5000	301.994
1145.0000	301.984
1145.5000	302.024
1146.0000	302.011
1146.5000	302.074
1147.0000	302.086
1147.5000	302.13
1148.0000	302.146
1148.5000	302.151
1149.0000	302.211
1149.5000	302.241
1150.0000	302.231
1150.5000	302.284
1151.0000	302.324
1151.5000	302.299
1152.0000	302.306
1152.5000	302.264
1153.0000	302.238
1153.5000	302.317
1154.0000	302.411
1154.5000	302.426
1155.0000	302.495
1155.5000	302.484
1156.0000	302.514
1156.5000	302.57
1157.0000	302.57
1157.5000	302.602
1158.0000	302.602
1158.5000	302.62
1159.0000	302.66
1159.5000	302.667
1160.0000	302.68
1160.5000	302.748
1161.0000	302.777
1161.5000	302.812
1162.0000	302.849
1162.5000	302.842
1163.0000	302.832
1163.5000	302.842
1164.0000	302.831
1164.5000	302.878
1165.0000	302.887
1165.5000	302.922
1166.0000	302.961
1166.5000	303.012
1167.0000	303.065
1167.5000	303.098
1168.0000	303.188
1168.5000	303.139
1169.0000	303.177
1169.5000	303.206
1170.0000	303.188
1170.5000	303.244
1171.0000	303.258
1171.5000	303.26
1172.0000	303.248
1172.5000	303.291
1173.0000	303.276
1173.5000	303.284
1174.0000	303.357
1174.5000	303.376
1175.0000	303.427
1175.5000	303.489
1176.0000	303.519
1176.5000	303.543
1177.0000	303.545
1177.5000	303.569
1178.0000	303.596
1178.5000	303.631
1179.0000	303.711
1179.5000	303.731
1180.0000	303.761
1180.5000	303.799
1181.0000	303.795
1181.5000	303.794
1182.0000	303.795
1182.5000	303.757
1183.0000	303.789
1183.5000	303.813
1184.0000	303.857
1184.5000	303.936
1185.0000	303.967
1185.5000	303.99
1186.0000	303.971
1186.5000	304.044
1187.0000	304.12
1187.5000	304.223
1188.0000	304.277
1188.5000	304.23
1189.0000	304.167
1189.5000	304.152
1190.0000	304.175
1190.5000	304.153
1191.0000	304.201
1191.5000	304.23
1192.0000	304.234
1192.5000	304.272
1193.0000	304.276
1193.5000	304.315
1194.0000	304.377
1194.5000	304.412
1195.0000	304.493
1195.5000	304.51
1196.0000	304.506
1196.5000	304.551
1197.0000	304.542
1197.5000	304.463
1198.0000	304.517
1198.5000	304.506
1199.0000	304.523
1199.5000	304.626
1200.0000	304.65
1200.5000	304.713
1201.0000	304.744
1201.5000	304.812
1202.0000	304.807
1202.5000	304.742
1203.0000	304.756
1203.5000	304.738
1204.0000	304.763
1204.5000	304.839
1205.0000	304.826
1205.5000	304.835
1206.0000	304.832
1206.5000	304.867
1207.0000	304.929
1207.5000	304.905
1208.0000	304.885
1208.5000	304.887
1209.0000	304.911
1209.5000	304.961
1210.0000	305.027
1210.5000	305.068
1211.0000	305.112
1211.5000	305.181
1212.0000	305.189
1212.5000	305.285
1213.0000	305.321
1213.5000	305.283
1214.0000	305.351
1214.5000	305.216
1215.0000	305.188
1215.5000	305.227
1216.0000	305.153
1216.5000	305.229
1217.0000	305.312
1217.5000	305.318
1218.0000	305.327
1218.5000	305.396
1219.0000	305.424
1219.5000	305.473
1220.0000	305.562
1220.5000	305.546
1221.0000	305.5
1221.5000	305.534
1222.0000	305.516
1222.5000	305.576
1223.0000	305.61
1223.5000	305.611
1224.0000	305.667
1224.5000	305.67
1225.0000	305.738
1225.5000	305.794
1226.0000	305.833
1226.5000	305.859
1227.0000	305.858
1227.5000	305.878
1228.0000	305.915
1228.5000	305.946
1229.0000	305.891
1229.5000	305.861
1230.0000	305.824
1230.5000	305.858
1231.0000	305.923
1231.5000	305.953
1232.0000	306.01
1232.5000	306.001
1233.0000	306.035
1233.5000	306.07
1234.0000	306.088
1234.5000	306.103
1235.0000	306.046
1235.5000	306.079
1236.0000	306.13
1236.5000	306.201
1237.0000	306.244
1237.5000	306.3
1238.0000	306.28
1238.5000	306.265
1239.0000	306.288
1239.5000	306.248
1240.0000	306.232
1240.5000	306.22
1241.0000	306.228
1241.5000	306.286
1242.0000	306.333
1242.5000	306.353
1243.0000	306.461
1243.5000	306.452
1244.0000	306.466
1244.5000	306.483
1245.0000	306.484
1245.5000	306.552
1246.0000	306.607
1246.5000	306.609
1247.0000	306.575
1247.5000	306.555
1248.0000	306.517
1248.5000	306.578
1249.0000	306.655
1249.5000	306.628
1250.0000	306.717
1250.5000	306.714
1251.0000	306.74
1251.5000	306.778
1252.0000	306.765
1252.5000	306.76
1253.0000	306.745
1253.5000	306.819
1254.0000	306.872
1254.5000	306.951
1255.0000	307.043
1255.5000	306.991
1256.0000	306.94
1256.5000	306.906
1257.0000	306.875
1257.5000	306.915
1258.0000	306.967
1258.5000	307.033
1259.0000	307.07
1259.5000	307.119
1260.0000	307.174
1260.5000	307.203
1261.0000	307.121
1261.5000	307.134
1262.0000	307.082
1262.5000	307.066
1263.0000	307.159
1263.5000	307.144
1264.0000	307.192
1264.5000	307.221
1265.0000	307.251
1265.5000	307.257
1266.0000	307.291
1266.5000	307.37
1267.0000	307.399
1267.5000	307.41
1268.0000	307.407
1268.5000	307.387
1269.0000	307.36
1269.5000	307.414
1270.0000	307.427
1270.5000	307.375
1271.0000	307.342
1271.5000	307.372
1272.0000	307.361
1272.5000	307.46
1273.0000	307.555
1273.5000	307.56
1274.0000	307.623
1274.5000	307.63
1275.0000	307.645
1275.5000	307.59
1276.0000	307.577
1276.5000	307.534
1277.0000	307.597
1277.5000	307.682
1278.0000	307.765
1278.5000	307.822
1279.0000	307.811
1279.5000	307.816
1280.0000	307.785
1280.5000	307.787
1281.0000	307.708
1281.5000	307.726
1282.0000	307.763
1282.5000	307.755
1283.0000	307.833
1283.5000	307.904
1284.0000	307.89
1284.5000	307.897
1285.0000	307.936
1285.5000	307.935
1286.0000	307.941
1286.5000	307.963
1287.0000	307.939
1287.5000	307.958
1288.0000	308.007
1288.5000	308.087
1289.0000	308.133
1289.5000	308.089
1290.0000	308.11
1290.5000	308.073
1291.0000	308.058
1291.5000	308.087
1292.0000	308.094
1292.5000	308.207
1293.0000	308.22
1293.5000	308.256
1294.0000	308.23
1294.5000	308.189
1295.0000	308.225
1295.5000	308.309
1296.0000	308.408
1296.5000	308.453
1297.0000	308.439
1297.5000	308.384
1298.0000	308.389
1298.5000	308.35
1299.0000	308.38
1299.5000	308.383
1300.0000	308.4
1300.5000	308.449
1301.0000	308.476
1301.5000	308.478
1302.0000	308.485
1302.5000	308.457
1303.0000	308.49
1303.5000	308.567
1304.0000	308.61
1304.5000	308.607
1305.0000	308.59
1305.5000	308.555
1306.0000	308.507
1306.5000	308.566
1307.0000	308.576
1307.5000	308.617
1308.0000	308.739
1308.5000	308.802
1309.0000	308.761
1309.5000	308.799
1310.0000	308.776
1310.5000	308.745
1311.0000	308.882
1311.5000	308.913
1312.0000	308.855
1312.5000	308.875
1313.0000	308.922
1313.5000	308.915
1314.0000	309.009
1314.5000	309.037
1315.0000	308.986
1315.5000	309.013
1316.0000	308.948
1316.5000	308.997
1317.0000	309.044
1317.5000	309.015
1318.0000	309.111
1318.5000	309.061
1319.0000	309.102
1319.5000	309.174
1320.0000	309.152
1320.5000	309.215
1321.0000	309.199
1321.5000	309.17
1322.0000	309.189
1322.5000	309.2
1323.0000	309.2
1323.5000	309.227
1324.0000	309.289
1324.5000	309.269
1325.0000	309.313
1325.5000	309.38
1326.0000	309.381
1326.5000	309.496
1327.0000	309.469
1327.5000	309.468
1328.0000	309.483
1328.5000	309.404
1329.0000	309.446
1329.5000	309.429
1330.0000	309.44
1330.5000	309.5
1331.0000	309.543
1331.5000	309.624
1332.0000	309.661
1332.5000	309.659
1333.0000	309.586
1333.5000	309.533
1334.0000	309.507
1334.5000	309.521
1335.0000	309.598
1335.5000	309.623
1336.0000	309.685
1336.5000	309.75
1337.0000	309.793
1337.5000	309.864
1338.0000	309.834
1338.5000	309.845
1339.0000	309.823
1339.5000	309.813
1340.0000	309.805
1340.5000	309.8
1341.0000	309.865
1341.5000	309.863
1342.0000	309.902
1342.5000	309.906
1343.0000	309.887
1343.5000	309.866
1344.0000	309.937
1344.5000	309.98
1345.0000	310.001
1345.5000	310.071
1346.0000	310.007
1346.5000	310.02
1347.0000	310.083
1347.5000	310.131
1348.0000	310.222
1348.5000	310.255
1349.0000	310.198
1349.5000	310.209
1350.0000	310.225
1350.5000	310.268
1351.0000	310.327
1351.5000	310.304
1352.0000	310.275
1352.5000	310.246
1353.0000	310.253
1353.5000	310.259
1354.0000	310.321
1354.5000	310.332
1355.0000	310.363
1355.5000	310.415
1356.0000	310.447
1356.5000	310.49
1357.0000	310.525
1357.5000	310.529
1358.0000	310.519
1358.5000	310.532
1359.0000	310.569
1359.5000	310.584
1360.0000	310.571
1360.5000	310.555
1361.0000	310.606
1361.5000	310.58
1362.0000	310.57
1362.5000	310.611
1363.0000	310.569
1363.5000	310.665
1364.0000	310.737
1364.5000	310.753
1365.0000	310.73
1365.5000	310.709
1366.0000	310.747
1366.5000	310.761
1367.0000	310.81
1367.5000	310.884
1368.0000	310.89
1368.5000	310.877
1369.0000	310.882
1369.5000	310.86
1370.0000	310.835
1370.5000	310.828
1371.0000	310.887
1371.5000	310.94
1372.0000	310.99
1372.5000	311.104
1373.0000	311.065
1373.5000	311.024
1374.0000	311.078
1374.5000	311.061
1375.0000	311.068
1375.5000	311.153
1376.0000	311.108
1376.5000	311.085
1377.0000	311.182
1377.5000	311.13
1378.0000	311.135
1378.5000	311.143
1379.0000	311.145
1379.5000	311.152
1380.0000	311.203
1380.5000	311.275
1381.0000	311.346
1381.5000	311.408
1382.0000	311.443
1382.5000	311.483
1383.0000	311.425
1383.5000	311.436
1384.0000	311.431
1384.5000	311.413
1385.0000	311.418
1385.5000	311.485
1386.0000	311.47
1386.5000	311.481
1387.0000	311.484
1387.5000	311.465
1388.0000	311.544
1388.5000	311.557
1389.0000	311.589
1389.5000	311.585
1390.0000	311.585
1390.5000	311.623
1391.0000	311.609
1391.5000	311.679
1392.0000	311.696
1392.5000	311.702
1393.0000	311.757
1393.5000	311.779
1394.0000	311.787
1394.5000	311.858
1395.0000	311.889
1395.5000	311.847
1396.0000	311.891
1396.5000	311.822
1397.0000	311.8
1397.5000	311.876
1398.0000	311.952
1398.5000	311.97
1399.0000	311.995
1399.5000	311.985
1400.0000	311.943
1400.5000	311.994
1401.0000	312.067
1401.5000	312.058
1402.0000	312.051
1402.5000	312.045
1403.0000	312.017
1403.5000	312.087
1404.0000	312.097
1404.5000	312.082
1405.0000	312.083
1405.5000	312.017
1406.0000	312.088
1406.5000	312.222
1407.0000	312.246
1407.5000	312.316
1408.0000	312.294
1408.5000	312.213
1409.0000	312.245
1409.5000	312.256
1410.0000	312.249
1410.5000	312.282
1411.0000	312.294
1411.5000	312.269
1412.0000	312.343
1412.5000	312.36
1413.0000	312.392
1413.5000	312.46
1414.0000	312.367
1414.5000	312.334
1415.0000	312.325
1415.5000	312.319
1416.0000	312.417
1416.5000	312.508
1417.0000	312.493
1417.5000	312.515
1418.0000	312.555
1418.5000	312.59
1419.0000	312.615
1419.5000	312.597
1420.0000	312.559
1420.5000	312.545
1421.0000	312.648
1421.5000	312.712
1422.0000	312.729
1422.5000	312.822
1423.0000	312.789
1423.5000	312.789
1424.0000	312.847
1424.5000	312.8
1425.0000	312.823
1425.5000	312.856
1426.0000	312.876
1426.5000	312.869
1427.0000	312.924
1427.5000	312.952
1428.0000	312.93
1428.5000	312.937
1429.0000	312.847
1429.5000	312.828
1430.0000	312.882
1430.5000	312.909
1431.0000	312.977
1431.5000	312.949
1432.0000	312.951
1432.5000	312.984
1433.0000	313.007
1433.5000	313.041
1434.0000	313.021
1434.5000	313.067
1435.0000	313.042
1435.5000	313.101
1436.0000	313.071
1436.5000	313.055
1437.0000	313.137
1437.5000	313.109
1438.0000	313.183
1438.5000	313.124
1439.0000	313.099
1439.5000	313.098
1440.0000	313.117
1440.5000	313.205
1441.0000	313.212
1441.5000	313.261
1442.0000	313.222
1442.5000	313.261
1443.0000	313.352
1443.5000	313.372
1444.0000	313.421
1444.5000	313.402
1445.0000	313.356
1445.5000	313.383
1446.0000	313.352
1446.5000	313.353
1447.0000	313.357
1447.5000	313.403
1448.0000	313.455
1448.5000	313.492
1449.0000	313.503
1449.5000	313.5
1450.0000	313.607
1450.5000	313.637
1451.0000	313.653
1451.5000	313.605
1452.0000	313.545
1452.5000	313.529
1453.0000	313.549
1453.5000	313.598
1454.0000	313.66
1454.5000	313.653
1455.0000	313.619
1455.5000	313.642
1456.0000	313.624
1456.5000	313.626
1457.0000	313.678
1457.5000	313.656
1458.0000	313.635
1458.5000	313.719
1459.0000	313.712
1459.5000	313.737
1460.0000	313.779
1460.5000	313.739
1461.0000	313.739
1461.5000	313.789
1462.0000	313.894
1462.5000	313.92
1463.0000	313.985
1463.5000	313.984
1464.0000	313.907
1464.5000	313.939
1465.0000	313.957
1465.5000	313.936
1466.0000	313.923
1466.5000	313.89
1467.0000	313.867
1467.5000	313.953
1468.0000	313.986
1468.5000	313.991
1469.0000	314.04
1469.5000	314.011
1470.0000	314.037
1470.5000	314.081
1471.0000	314.092
1471.5000	314.109
1472.0000	314.17
1472.5000	314.161
1473.0000	314.182
1473.5000	314.124
1474.0000	314.049
1474.5000	314.112
1475.0000	314.078
1475.5000	314.16
1476.0000	314.253
1476.5000	314.276
1477.0000	314.352
1477.5000	314.341
1478.0000	314.375
1478.5000	314.345
1479.0000	314.34
1479.5000	314.378
1480.0000	314.279
1480.5000	314.296
1481.0000	314.244
1481.5000	314.243
1482.0000	314.309
1482.5000	314.275
1483.0000	314.403
1483.5000	314.417
1484.0000	314.388
1484.5000	314.415
1485.0000	314.353
1485.5000	314.423
1486.0000	314.465
1486.5000	314.526
1487.0000	314.568
1487.5000	314.533
1488.0000	314.53
1488.5000	314.52
1489.0000	314.535
1489.5000	314.561
1490.0000	314.591
1490.5000	314.622
1491.0000	314.68
1491.5000	314.644
1492.0000	314.621
1492.5000	314.63
1493.0000	314.576
1493.5000	314.587
1494.0000	314.646
1494.5000	314.664
1495.0000	314.644
1495.5000	314.676
1496.0000	314.703
1496.5000	314.731
1497.0000	314.771
1497.5000	314.794
1498.0000	314.763
1498.5000	314.803
1499.0000	314.847
1499.5000	314.812
1500.0000	314.864
1500.5000	314.865
1501.0000	314.853
1501.5000	314.935
1502.0000	314.919
1502.5000	314.883
1503.0000	314.931
1503.5000	314.96
1504.0000	314.94
1504.5000	314.974
1505.0000	314.97
1505.5000	314.932
1506.0000	314.995
1506.5000	314.993
1507.0000	315.007
1507.5000	315.067
1508.0000	314.995
1508.5000	315.048
1509.0000	315.059
1509.5000	315.097
1510.0000	315.214
1510.5000	315.204
1511.0000	315.22
1511.5000	315.171
1512.0000	315.178
1512.5000	315.178
1513.0000	315.209
1513.5000	315.262
1514.0000	315.29
1514.5000	315.292
1515.0000	315.315
1515.5000	315.337
1516.0000	315.327
1516.5000	315.367
1517.0000	315.39
1517.5000	315.375
1518.0000	315.39
1518.5000	315.405
1519.0000	315.365
1519.5000	315.342
1520.0000	315.341
1520.5000	315.345
1521.0000	315.369
1521.5000	315.4
1522.0000	315.408
1522.5000	315.432
1523.0000	315.459
1523.5000	315.481
1524.0000	315.521
1524.5000	315.562
1525.0000	315.613
1525.5000	315.646
1526.0000	315.681
1526.5000	315.654
1527.0000	315.608
1527.5000	315.605
1528.0000	315.568
1528.5000	315.537
1529.0000	315.522
1529.5000	315.577
1530.0000	315.591
1530.5000	315.672
1531.0000	315.775
1531.5000	315.737
1532.0000	315.718
1532.5000	315.742
1533.0000	315.694
1533.5000	315.724
1534.0000	315.816
1534.5000	315.841
1535.0000	315.838
1535.5000	315.81
1536.0000	315.76
1536.5000	315.742
1537.0000	315.819
1537.5000	315.886
1538.0000	315.929
1538.5000	315.925
1539.0000	315.976
1539.5000	315.973
1540.0000	316.011
1540.5000	316.025
1541.0000	315.942
1541.5000	316.012
1542.0000	316.021
1542.5000	316.08
1543.0000	316.165
1543.5000	316.124
1544.0000	316.153
1544.5000	316.186
1545.0000	316.11
1545.5000	316.124
1546.0000	316.082
1546.5000	316.039
1547.0000	316.12
1547.5000	316.147
1548.0000	316.213
1548.5000	316.317
1549.0000	316.337
1549.5000	316.306
1550.0000	316.328
1550.5000	316.326
1551.0000	316.277
1551.5000	316.372
1552.0000	316.36
1552.5000	316.296
1553.0000	316.368
1553.5000	316.37
1554.0000	316.408
1554.5000	316.407
1555.0000	316.4
1555.5000	316.34
1556.0000	316.305
1556.5000	316.356
1557.0000	316.366
1557.5000	316.386
1558.0000	316.408
1558.5000	316.409
1559.0000	316.475
1559.5000	316.478
1560.0000	316.521
1560.5000	316.594
1561.0000	316.595
1561.5000	316.652
1562.0000	316.664
1562.5000	316.672
1563.0000	316.647
1563.5000	316.635
1564.0000	316.641
1564.5000	316.666
1565.0000	316.657
1565.5000	316.694
1566.0000	316.693
1566.5000	316.656
1567.0000	316.717
1567.5000	316.737
1568.0000	316.753
1568.5000	316.781
1569.0000	316.824
1569.5000	316.84
1570.0000	316.946
1570.5000	316.936
1571.0000	316.93
1571.5000	316.954
1572.0000	316.939
1572.5000	316.955
1573.0000	316.961
1573.5000	316.994
1574.0000	316.96
1574.5000	316.954
1575.0000	316.896
1575.5000	316.897
1576.0000	316.928
1576.5000	316.986
1577.0000	317.106
1577.5000	317.144
1578.0000	317.199
1578.5000	317.215
1579.0000	317.211
1579.5000	317.207
1580.0000	317.187
1580.5000	317.228
1581.0000	317.223
1581.5000	317.211
1582.0000	317.239
1582.5000	317.175
1583.0000	317.19
1583.5000	317.306
1584.0000	317.261
1584.5000	317.286
1585.0000	317.324
1585.5000	317.251
1586.0000	317.355
1586.5000	317.422
1587.0000	317.409
1587.5000	317.512
1588.0000	317.459
1588.5000	317.478
1589.0000	317.503
1589.5000	317.505
1590.0000	317.51
1590.5000	317.506
1591.0000	317.56
1591.5000	317.51
1592.0000	317.54
1592.5000	317.518
1593.0000	317.535
1593.5000	317.512
1594.0000	317.542
1594.5000	317.535
1595.0000	317.487
1595.5000	317.6
1596.0000	317.605
1596.5000	317.644
1597.0000	317.74
1597.5000	317.676
1598.0000	317.718
1598.5000	317.759
1599.0000	317.74
1599.5000	317.817
1600.0000	317.791
1600.5000	317.801
1601.0000	317.777
1601.5000	317.765
1602.0000	317.798
1602.5000	317.855
1603.0000	317.918
1603.5000	317.921
1604.0000	317.935
1604.5000	317.907
1605.0000	317.858
1605.5000	317.88
1606.0000	317.938
1606.5000	318.025
1607.0000	318.058
1607.5000	318.051
1608.0000	318.036
1608.5000	318.019
1609.0000	318.053
1609.5000	318.082
1610.0000	318.128
1610.5000	318.158
1611.0000	318.218
1611.5000	318.246
1612.0000	318.245
1612.5000	318.208
1613.0000	318.268
1613.5000	318.323
1614.0000	318.38
1614.5000	318.444
1615.0000	318.318
1615.5000	318.342
1616.0000	318.299
1616.5000	318.253
1617.0000	318.32
1617.5000	318.285
1618.0000	318.332
1618.5000	318.423
1619.0000	318.423
1619.5000	318.447
1620.0000	318.444
1620.5000	318.425
1621.0000	318.442
1621.5000	318.428
1622.0000	318.486
1622.5000	318.514
1623.0000	318.572
1623.5000	318.629
1624.0000	318.539
1624.5000	318.552
1625.0000	318.552
1625.5000	318.523
1626.0000	318.607
1626.5000	318.602
1627.0000	318.667
1627.5000	318.72
1628.0000	318.692
1628.5000	318.656
1629.0000	318.654
1629.5000	318.642
1630.0000	318.682
1630.5000	318.762
1631.0000	318.711
1631.5000	318.734
1632.0000	318.735
1632.5000	318.783
1633.0000	318.864
1633.5000	318.921
1634.0000	318.988
1634.5000	318.976
1635.0000	318.927
1635.5000	318.896
1636.0000	318.871
1636.5000	318.88
1637.0000	318.898
1637.5000	318.955
1638.0000	318.998
1638.5000	319.061
1639.0000	319.125
1639.5000	319.138
1640.0000	319.159
1640.5000	319.109
1641.0000	319.1
1641.5000	319.055
1642.0000	319.071
1642.5000	319.161
1643.0000	319.167
1643.5000	319.21
1644.0000	319.28
1644.5000	319.25
1645.0000	319.286
1645.5000	319.341
1646.0000	319.326
1646.5000	319.367
1647.0000	319.382
1647.5000	319.443
1648.0000	319.387
1648.5000	319.385
1649.0000	319.425
1649.5000	319.367
1650.0000	319.394
1650.5000	319.372
1651.0000	319.31
1651.5000	319.372
1652.0000	319.401
1652.5000	319.381
1653.0000	319.516
1653.5000	319.474
1654.0000	319.557
1654.5000	319.587
1655.0000	319.509
1655.5000	319.539
1656.0000	319.46
1656.5000	319.531
1657.0000	319.55
1657.5000	319.584
1658.0000	319.602
1658.5000	319.616
1659.0000	319.641
1659.5000	319.715
1660.0000	319.737
1660.5000	319.78
1661.0000	319.807
1661.5000	319.742
1662.0000	319.801
1662.5000	319.76
1663.0000	319.764
1663.5000	319.752
1664.0000	319.704
1664.5000	319.733
1665.0000	319.782
1665.5000	319.816
1666.0000	319.925
1666.5000	320.03
1667.0000	320.022
1667.5000	320.051
1668.0000	319.999
1668.5000	319.969
1669.0000	319.941
1669.5000	319.955
1670.0000	320
1670.5000	319.976
1671.0000	320.041
1671.5000	320.058
1672.0000	320.075
1672.5000	320.08
1673.0000	320.108
1673.5000	320.12
1674.0000	320.065
1674.5000	320.086
1675.0000	320.085
1675.5000	320.058
1676.0000	320.143
1676.5000	320.154
1677.0000	320.174
1677.5000	320.245
1678.0000	320.265
1678.5000	320.309
1679.0000	320.338
1679.5000	320.321
1680.0000	320.342
1680.5000	320.331
1681.0000	320.286
1681.5000	320.381
1682.0000	320.35
1682.5000	320.391
1683.0000	320.49
1683.5000	320.487
1684.0000	320.502
1684.5000	320.522
1685.0000	320.51
1685.5000	320.558
1686.0000	320.632
1686.5000	320.644
1687.0000	320.675
1687.5000	320.651
1688.0000	320.63
1688.5000	320.617
1689.0000	320.59
1689.5000	320.622
1690.0000	320.644
1690.5000	320.636
1691.0000	320.684
1691.5000	320.652
1692.0000	320.665
1692.5000	320.718
1693.0000	320.691
1693.5000	320.809
1694.0000	320.828
1694.5000	320.807
1695.0000	320.893
1695.5000	320.855
1696.0000	320.912
1696.5000	320.98
1697.0000	320.931
1697.5000	320.911
1698.0000	320.883
1698.5000	320.882
1699.0000	320.932
1699.5000	320.975
1700.0000	320.976
1700.5000	321.01
1701.0000	321.041
1701.5000	321.05
1702.0000	321.116
1702.5000	321.126
1703.0000	321.155
1703.5000	321.158
1704.0000	321.173
1704.5000	321.185
1705.0000	321.108
1705.5000	321.147
1706.0000	321.131
1706.5000	321.136
1707.0000	321.223
1707.5000	321.249
1708.0000	321.266
1708.5000	321.319
1709.0000	321.337
1709.5000	321.384
1710.0000	321.37
1710.5000	321.403
1711.0000	321.447
1711.5000	321.444
1712.0000	321.504
1712.5000	321.496
1713.0000	321.514
1713.5000	321.498
1714.0000	321.498
1714.5000	321.536
1715.0000	321.528
1715.5000	321.564
1716.0000	321.632
1716.5000	321.614
1717.0000	321.657
1717.5000	321.629
1718.0000	321.597
1718.5000	321.662
1719.0000	321.644
1719.5000	321.65
1720.0000	321.673
1720.5000	321.588
1721.0000	321.579
1721.5000	321.594
1722.0000	321.605
1722.5000	321.64
1723.0000	321.642
1723.5000	321.62
1724.0000	321.62
1724.5000	321.711
1725.0000	321.793
1725.5000	321.86
1726.0000	321.92
1726.5000	321.925
1727.0000	321.898
1727.5000	321.96
1728.0000	321.969
1728.5000	321.895
1729.0000	321.918
1729.5000	321.936
1730.0000	321.95
1730.5000	322.029
1731.0000	322.063
1731.5000	322.031
1732.0000	322.03
1732.5000	322.009
1733.0000	322.031
1733.5000	322.026
1734.0000	322.07
1734.5000	322.099
1735.0000	322.074
1735.5000	322.181
1736.0000	322.163
1736.5000	322.25
1737.0000	322.324
1737.5000	322.201
1738.0000	322.249
1738.5000	322.209
1739.0000	322.137
1739.5000	322.213
1740.0000	322.21
1740.5000	322.252
1741.0000	322.332
1741.5000	322.444
1742.0000	322.451
1742.5000	322.44
1743.0000	322.414
1743.5000	322.31
1744.0000	322.272
1744.5000	322.219
1745.0000	322.294
1745.5000	322.324
1746.0000	322.424
1746.5000	322.519
1747.0000	322.485
1747.5000	322.464
1748.0000	322.48
1748.5000	322.516
1749.0000	322.544
1749.5000	322.623
1750.0000	322.56
1750.5000	322.547
1751.0000	322.609
1751.5000	322.565
1752.0000	322.643
1752.5000	322.648
1753.0000	322.595
1753.5000	322.631
1754.0000	322.594
1754.5000	322.613
1755.0000	322.634
1755.5000	322.649
1756.0000	322.67
1756.5000	322.646
1757.0000	322.659
1757.5000	322.698
1758.0000	322.741
1758.5000	322.775
1759.0000	322.87
1759.5000	322.81
1760.0000	322.793
1760.5000	322.857
1761.0000	322.794
1761.5000	322.888
1762.0000	322.938
1762.5000	322.916
1763.0000	322.982
1763.5000	323.04
1764.0000	323.05
1764.5000	323.051
1765.0000	323.029
1765.5000	322.965
1766.0000	322.888
1766.5000	322.87
1767.0000	322.853
1767.5000	322.9
1768.0000	323.003
1768.5000	323.03
1769.0000	323.128
1769.5000	323.077
1770.0000	323.111
1770.5000	323.177
1771.0000	323.112
1771.5000	323.14
1772.0000	323.118
1772.5000	323.125
1773.0000	323.155
1773.5000	323.177
1774.0000	323.207
1774.5000	323.18
1775.0000	323.157
1775.5000	323.194
1776.0000	323.229
1776.5000	323.217
1777.0000	323.305
1777.5000	323.335
1778.0000	323.34
1778.5000	323.395
1779.0000	323.319
1779.5000	323.336
1780.0000	323.36
1780.5000	323.421
1781.0000	323.51
1781.5000	323.534
1782.0000	323.552
1782.5000	323.544
1783.0000	323.521
1783.5000	323.485
1784.0000	323.524
1784.5000	323.531
1785.0000	323.569
1785.5000	323.586
1786.0000	323.518
1786.5000	323.483
1787.0000	323.485
1787.5000	323.56
1788.0000	323.604
1788.5000	323.642
1789.0000	323.702
1789.5000	323.715
1790.0000	323.807
1790.5000	323.831
1791.0000	323.775
1791.5000	323.803
1792.0000	323.741
1792.5000	323.712
1793.0000	323.783
1793.5000	323.719
1794.0000	323.747
1794.5000	323.821
1795.0000	323.827
1795.5000	323.857
1796.0000	323.896
1796.5000	323.91
1797.0000	323.96
1797.5000	324.011
1798.0000	324.049
1798.5000	324.056
1799.0000	324.02
1799.5000	323.979
1800.0000	323.916
1800.5000	323.904
1801.0000	323.922
1801.5000	323.994
1802.0000	324.069
1802.5000	324.111
1803.0000	324.114
1803.5000	324.093
1804.0000	324.075
1804.5000	324.088
1805.0000	324.116
1805.5000	324.161
1806.0000	324.144
1806.5000	324.139
1807.0000	324.129
1807.5000	324.131
1808.0000	324.166
1808.5000	324.261
1809.0000	324.299
1809.5000	324.294
1810.0000	324.313
1810.5000	324.238
1811.0000	324.202
1811.5000	324.235
1812.0000	324.237
1812.5000	324.267
1813.0000	324.289
1813.5000	324.219
1814.0000	324.286
1814.5000	324.27
1815.0000	324.299
1815.5000	324.396
1816.0000	324.287
1816.5000	324.344
1817.0000	324.342
1817.5000	324.34
1818.0000	324.37
1818.5000	324.366
1819.0000	324.451
1819.5000	324.487
1820.0000	324.538
1820.5000	324.592
1821.0000	324.549
1821.5000	324.513
1822.0000	324.565
1822.5000	324.504
1823.0000	324.496
1823.5000	324.558
1824.0000	324.547
1824.5000	324.607
1825.0000	324.658
1825.5000	324.648
1826.0000	324.652
1826.5000	324.598
1827.0000	324.656
1827.5000	324.707
1828.0000	324.671
1828.5000	324.653
1829.0000	324.638
1829.5000	324.61
1830.0000	324.617
1830.5000	324.709
1831.0000	324.705
1831.5000	324.684
1832.0000	324.786
1832.5000	324.753
1833.0000	324.764
1833.5000	324.775
1834.0000	324.789
1834.5000	324.861
1835.0000	324.849
1835.5000	324.917
1836.0000	324.942
1836.5000	324.945
1837.0000	324.988
1837.5000	324.982
1838.0000	324.917
1838.5000	324.934
1839.0000	324.94
1839.5000	324.954
1840.0000	325.014
1840.5000	325.019
1841.0000	325.014
1841.5000	325.035
1842.0000	325.013
1842.5000	325.072
1843.0000	325.07
1843.5000	325.104
1844.0000	325.175
1844.5000	325.129
1845.0000	325.168
1845.5000	325.225
1846.0000	325.219
1846.5000	325.26
1847.0000	325.326
1847.5000	325.227
1848.0000	325.176
1848.5000	325.187
1849.0000	325.086
1849.5000	325.151
1850.0000	325.189
1850.5000	325.108
1851.0000	325.136
1851.5000	325.124
1852.0000	325.139
1852.5000	325.219
1853.0000	325.275
1853.5000	325.261
1854.0000	325.261
1854.5000	325.294
1855.0000	325.32
1855.5000	325.371
1856.0000	325.412
1856.5000	325.353
1857.0000	325.344
1857.5000	325.351
1858.0000	325.39
1858.5000	325.405
1859.0000	325.399
1859.5000	325.396
1860.0000	325.388
1860.5000	325.437
1861.0000	325.452
1861.5000	325.483
1862.0000	325.424
1862.5000	325.424
1863.0000	325.458
1863.5000	325.503
1864.0000	325.56
1864.5000	325.683
1865.0000	325.721
1865.5000	325.686
1866.0000	325.711
1866.5000	325.703
1867.0000	325.662
1867.5000	325.661
1868.0000	325.693
1868.5000	325.687
1869.0000	325.714
1869.5000	325.708
1870.0000	325.671
1870.5000	325.708
1871.0000	325.691
1871.5000	325.711
1872.0000	325.734
1872.5000	325.68
1873.0000	325.687
1873.5000	325.747
1874.0000	325.852
1874.5000	325.833
1875.0000	325.904
1875.5000	325.903
1876.0000	325.819
1876.5000	325.87
1877.0000	325.87
1877.5000	325.84
1878.0000	325.875
1878.5000	325.935
1879.0000	325.906
1879.5000	325.907
1880.0000	325.977
1880.5000	325.944
1881.0000	325.975
1881.5000	326.062
1882.0000	326.024
1882.5000	326.042
1883.0000	326.056
1883.5000	326.003
1884.0000	326.021
1884.5000	326.023
1885.0000	326.003
1885.5000	326.093
1886.0000	326.108
1886.5000	326.101
1887.0000	326.195
1887.5000	326.173
1888.0000	326.15
1888.5000	326.15
1889.0000	326.162
1889.5000	326.177
1890.0000	326.182
1890.5000	326.257
1891.0000	326.26
1891.5000	326.243
1892.0000	326.296
1892.5000	326.284
1893.0000	326.182
1893.5000	326.207
1894.0000	326.237
1894.5000	326.257
1895.0000	326.373
1895.5000	326.432
1896.0000	326.355
1896.5000	326.328
1897.0000	326.374
1897.5000	326.346
1898.0000	326.454
1898.5000	326.532
1899.0000	326.494
1899.5000	326.512
1900.0000	326.568
1900.5000	326.55
1901.0000	326.581
1901.5000	326.686
1902.0000	326.665
1902.5000	326.695
1903.0000	326.774
1903.5000	326.737
1904.0000	326.725
1904.5000	326.82
1905.0000	326.799
1905.5000	326.71
1906.0000	326.755
1906.5000	326.704
1907.0000	326.642
1907.5000	326.741
1908.0000	326.693
1908.5000	326.675
1909.0000	326.715
1909.5000	326.731
1910.0000	326.721
1910.5000	326.715
1911.0000	326.765
1911.5000	326.704
1912.0000	326.788
1912.5000	326.777
1913.0000	326.769
1913.5000	326.853
1914.0000	326.867
1914.5000	326.944
1915.0000	326.936
1915.5000	326.956
1916.0000	326.891
1916.5000	326.824
1917.0000	326.865
1917.5000	326.805
1918.0000	326.844
1918.5000	326.936
1919.0000	326.925
1919.5000	326.983
1920.0000	327.021
1920.5000	327.025
1921.0000	327.012
1921.5000	327.036
1922.0000	327.038
1922.5000	327.04
1923.0000	327.063
1923.5000	327.103
1924.0000	327.115
1924.5000	327.105
1925.0000	327.125
1925.5000	327.091
1926.0000	327.041
1926.5000	327.072
1927.0000	327.077
1927.5000	327.059
1928.0000	327.112
1928.5000	327.03
1929.0000	327.087
1929.5000	327.146
1930.0000	327.163
1930.5000	327.202
1931.0000	327.125
1931.5000	327.153
1932.0000	327.206
1932.5000	327.269
1933.0000	327.331
1933.5000	327.28
1934.0000	327.265
1934.5000	327.278
1935.0000	327.309
1935.5000	327.394
1936.0000	327.38
1936.5000	327.353
1937.0000	327.386
1937.5000	327.338
1938.0000	327.379
1938.5000	327.449
1939.0000	327.364
1939.5000	327.349
1940.0000	327.295
1940.5000	327.228
1941.0000	327.343
1941.5000	327.429
1942.0000	327.512
1942.5000	327.632
1943.0000	327.597
1943.5000	327.581
1944.0000	327.53
1944.5000	327.511
1945.0000	327.57
1945.5000	327.548
1946.0000	327.602
1946.5000	327.566
1947.0000	327.561
1947.5000	327.603
1948.0000	327.622
1948.5000	327.568
1949.0000	327.57
1949.5000	327.602
1950.0000	327.63
1950.5000	327.783
1951.0000	327.737
1951.5000	327.732
1952.0000	327.722
1952.5000	327.714
1953.0000	327.749
1953.5000	327.753
1954.0000	327.723
1954.5000	327.666
1955.0000	327.716
1955.5000	327.728
1956.0000	327.795
1956.5000	327.818
1957.0000	327.821
1957.5000	327.852
1958.0000	327.872
1958.5000	327.95
1959.0000	327.937
1959.5000	327.897
1960.0000	327.897
1960.5000	327.869
1961.0000	327.887
1961.5000	327.874
1962.0000	327.849
1962.5000	327.884
1963.0000	327.914
1963.5000	328.006
1964.0000	328.072
1964.5000	328.051
1965.0000	328.032
1965.5000	328.065
1966.0000	328.05
1966.5000	328.069
1967.0000	328.072
1967.5000	328.022
1968.0000	328.068
1968.5000	328.145
1969.0000	328.237
1969.5000	328.325
1970.0000	328.314
1970.5000	328.305
1971.0000	328.264
1971.5000	328.166
1972.0000	328.237
1972.5000	328.218
1973.0000	328.245
1973.5000	328.308
1974.0000	328.261
1974.5000	328.33
1975.0000	328.342
1975.5000	328.321
1976.0000	328.331
1976.5000	328.317
1977.0000	328.303
1977.5000	328.343
1978.0000	328.34
1978.5000	328.335
1979.0000	328.351
1979.5000	328.367
1980.0000	328.411
1980.5000	328.388
1981.0000	328.419
1981.5000	328.428
1982.0000	328.439
1982.5000	328.482
1983.0000	328.445
1983.5000	328.43
1984.0000	328.414
1984.5000	328.381
1985.0000	328.516
1985.5000	328.616
1986.0000	328.597
1986.5000	328.713
1987.0000	328.716
1987.5000	328.669
1988.0000	328.726
1988.5000	328.668
1989.0000	328.644
1989.5000	328.712
1990.0000	328.737
1990.5000	328.718
1991.0000	328.69
1991.5000	328.694
1992.0000	328.721
1992.5000	328.797
1993.0000	328.881
1993.5000	328.81
1994.0000	328.817
1994.5000	328.782
1995.0000	328.748
1995.5000	328.861
1996.0000	328.876
1996.5000	328.961
1997.0000	328.957
1997.5000	328.99
1998.0000	328.957
1998.5000	328.918
1999.0000	328.93
1999.5000	328.868
2000.0000	328.938
2000.5000	328.955
2001.0000	328.936
2001.5000	328.946
2002.0000	328.959
2002.5000	328.985
2003.0000	329.009
2003.5000	329.088
2004.0000	329.157
2004.5000	329.159
2005.0000	329.187
2005.5000	329.18
2006.0000	329.142
2006.5000	329.127
2007.0000	329.175
2007.5000	329.136
2008.0000	329.114
2008.5000	329.205
2009.0000	329.179
2009.5000	329.243
2010.0000	329.267
2010.5000	329.245
2011.0000	329.281
2011.5000	329.269
2012.0000	329.303
2012.5000	329.26
2013.0000	329.292
2013.5000	329.341
2014.0000	329.357
2014.5000	329.471
2015.0000	329.434
2015.5000	329.407
2016.0000	329.386
2016.5000	329.377
2017.0000	329.426
2017.5000	329.527
2018.0000	329.488
2018.5000	329.445
2019.0000	329.489
2019.5000	329.393
2020.0000	329.514
2020.5000	329.515
2021.0000	329.487
2021.5000	329.541
2022.0000	329.534
2022.5000	329.682
2023.0000	329.639
2023.5000	329.699
2024.0000	329.669
2024.5000	329.575
2025.0000	329.62
2025.5000	329.61
2026.0000	329.674
2026.5000	329.71
2027.0000	329.777
2027.5000	329.729
2028.0000	329.783
2028.5000	329.776
2029.0000	329.736
2029.5000	329.809
2030.0000	329.706
2030.5000	329.635
2031.0000	329.647
2031.5000	329.607
2032.0000	329.66
2032.5000	329.722
2033.0000	329.751
2033.5000	329.779
2034.0000	329.884
2034.5000	329.963
2035.0000	329.968
2035.5000	329.953
2036.0000	329.835
2036.5000	329.812
2037.0000	329.792
2037.5000	329.78
2038.0000	329.882
2038.5000	329.876
2039.0000	329.942
2039.5000	330.017
2040.0000	330
2040.5000	330.01
2041.0000	329.979
2041.5000	329.975
2042.0000	329.934
2042.5000	329.902
2043.0000	329.967
2043.5000	329.993
2044.0000	329.99
2044.5000	330.038
2045.0000	330.091
2045.5000	330.114
2046.0000	330.164
2046.5000	330.217
2047.0000	330.163
2047.5000	330.114
2048.0000	330.196
2048.5000	330.212
2049.0000	330.195
2049.5000	330.251
2050.0000	330.268
2050.5000	330.248
2051.0000	330.318
2051.5000	330.341
2052.0000	330.235
2052.5000	330.247
2053.0000	330.261
2053.5000	330.297
2054.0000	330.344
2054.5000	330.373
2055.0000	330.388
2055.5000	330.36
2056.0000	330.36
2056.5000	330.415
2057.0000	330.422
2057.5000	330.419
2058.0000	330.537
2058.5000	330.469
2059.0000	330.429
2059.5000	330.472
2060.0000	330.403
2060.5000	330.476
2061.0000	330.498
2061.5000	330.537
2062.0000	330.569
2062.5000	330.543
2063.0000	330.553
2063.5000	330.486
2064.0000	330.441
2064.5000	330.438
2065.0000	330.483
2065.5000	330.48
2066.0000	330.562
2066.5000	330.6
2067.0000	330.621
2067.5000	330.686
2068.0000	330.641
2068.5000	330.638
2069.0000	330.614
2069.5000	330.598
2070.0000	330.645
2070.5000	330.715
2071.0000	330.733
2071.5000	330.74
2072.0000	330.709
2072.5000	330.66
2073.0000	330.702
2073.5000	330.718
2074.0000	330.767
2074.5000	330.789
2075.0000	330.735
2075.5000	330.743
2076.0000	330.715
2076.5000	330.738
2077.0000	330.743
2077.5000	330.762
2078.0000	330.821
2078.5000	330.881
2079.0000	330.921
2079.5000	330.946
2080.0000	330.907
2080.5000	330.854
2081.0000	330.878
2081.5000	330.887
2082.0000	330.956
2082.5000	330.979
2083.0000	330.982
2083.5000	331
2084.0000	330.985
2084.5000	331.017
2085.0000	331.072
2085.5000	331.089
2086.0000	331.131
2086.5000	331.109
2087.0000	331.094
2087.5000	331.075
2088.0000	331.028
2088.5000	331.051
2089.0000	331.01
2089.5000	331.033
2090.0000	331.077
2090.5000	331.118
2091.0000	331.163
2091.5000	331.117
2092.0000	331.172
2092.5000	331.093
2093.0000	331.124
2093.5000	331.196
2094.0000	331.163
2094.5000	331.243
2095.0000	331.246
2095.5000	331.262
2096.0000	331.301
2096.5000	331.277
2097.0000	331.302
2097.5000	331.294
2098.0000	331.245
2098.5000	331.255
2099.0000	331.215
2099.5000	331.29
2100.0000	331.313
2100.5000	331.326
2101.0000	331.368
2101.5000	331.324
2102.0000	331.339
2102.5000	331.368
2103.0000	331.388
2103.5000	331.399
2104.0000	331.41
2104.5000	331.42
2105.0000	331.43
2105.5000	331.471
2106.0000	331.505
2106.5000	331.45
2107.0000	331.483
2107.5000	331.473
2108.0000	331.517
2108.5000	331.554
2109.0000	331.51
2109.5000	331.508
2110.0000	331.487
2110.5000	331.5
2111.0000	331.527
2111.5000	331.495
2112.0000	331.502
2112.5000	331.552
2113.0000	331.544
2113.5000	331.601
2114.0000	331.548
2114.5000	331.576
2115.0000	331.624
2115.5000	331.641
2116.0000	331.699
2116.5000	331.681
2117.0000	331.678
2117.5000	331.713
2118.0000	331.727
2118.5000	331.712
2119.0000	331.729
2119.5000	331.667
2120.0000	331.739
2120.5000	331.77
2121.0000	331.784
2121.5000	331.839
2122.0000	331.792
2122.5000	331.769
2123.0000	331.717
2123.5000	331.73
2124.0000	331.743
2124.5000	331.733
2125.0000	331.825
2125.5000	331.853
2126.0000	331.849
2126.5000	331.931
2127.0000	331.915
2127.5000	331.942
2128.0000	331.93
2128.5000	331.898
2129.0000	331.887
2129.5000	331.886
2130.0000	331.906
2130.5000	331.96
2131.0000	331.996
2131.5000	332.021
2132.0000	332.075
2132.5000	332.072
2133.0000	332.148
2133.5000	332.105
2134.0000	332.089
2134.5000	332.108
2135.0000	332.09
2135.5000	332.119
2136.0000	332.124
2136.5000	332.104
2137.0000	332.099
2137.5000	332.042
2138.0000	332.065
2138.5000	332.081
2139.0000	332.06
2139.5000	332.085
2140.0000	332.113
2140.5000	332.111
2141.0000	332.095
2141.5000	332.178
2142.0000	332.192
2142.5000	332.227
2143.0000	332.297
2143.5000	332.308
2144.0000	332.31
2144.5000	332.31
2145.0000	332.239
2145.5000	332.27
2146.0000	332.288
2146.5000	332.287
2147.0000	332.377
2147.5000	332.395
2148.0000	332.397
2148.5000	332.402
2149.0000	332.387
2149.5000	332.361
2150.0000	332.379
2150.5000	332.411
2151.0000	332.429
2151.5000	332.438
2152.0000	332.43
2152.5000	332.503
2153.0000	332.547
2153.5000	332.57
2154.0000	332.649
2154.5000	332.625
2155.0000	332.575
2155.5000	332.667
2156.0000	332.632
2156.5000	332.613
2157.0000	332.696
2157.5000	332.611
2158.0000	332.591
2158.5000	332.655
2159.0000	332.578
2159.5000	332.544
2160.0000	332.589
2160.5000	332.537
2161.0000	332.64
2161.5000	332.731
2162.0000	332.673
2162.5000	332.725
2163.0000	332.718
2163.5000	332.721
2164.0000	332.748
2164.5000	332.74
2165.0000	332.749
2165.5000	332.693
2166.0000	332.788
2166.5000	332.843
2167.0000	332.795
2167.5000	332.834
2168.0000	332.81
2168.5000	332.739
2169.0000	332.792
2169.5000	332.836
2170.0000	332.805
2170.5000	332.831
2171.0000	332.877
2171.5000	332.855
2172.0000	332.838
2172.5000	332.875
2173.0000	332.891
2173.5000	332.948
2174.0000	332.966
2174.5000	333.029
2175.0000	333.074
2175.5000	333.047
2176.0000	333.091
2176.5000	333.099
2177.0000	333
2177.5000	333.018
2178.0000	333.013
2178.5000	333.021
2179.0000	333.081
2179.5000	333.064
2180.0000	333.112
2180.5000	333.122
2181.0000	333.087
2181.5000	333.106
2182.0000	333.071
2182.5000	333.033
2183.0000	333.096
2183.5000	333.142
2184.0000	333.164
2184.5000	333.141
2185.0000	333.15
2185.5000	333.145
2186.0000	333.187
2186.5000	333.263
2187.0000	333.263
2187.5000	333.303
2188.0000	333.248
2188.5000	333.253
2189.0000	333.302
2189.5000	333.278
2190.0000	333.404
2190.5000	333.429
2191.0000	333.319
2191.5000	333.368
2192.0000	333.352
2192.5000	333.321
2193.0000	333.399
2193.5000	333.372
2194.0000	333.322
2194.5000	333.399
2195.0000	333.421
2195.5000	333.427
2196.0000	333.439
2196.5000	333.396
2197.0000	333.361
2197.5000	333.423
2198.0000	333.469
2198.5000	333.535
2199.0000	333.623
2199.5000	333.582
2200.0000	333.557
2200.5000	333.511
2201.0000	333.44
2201.5000	333.458
2202.0000	333.525
2202.5000	333.557
2203.0000	333.616
2203.5000	333.616
2204.0000	333.638
2204.5000	333.624
2205.0000	333.578
2205.5000	333.612
2206.0000	333.65
2206.5000	333.635
2207.0000	333.679
2207.5000	333.687
2208.0000	333.627
2208.5000	333.69
2209.0000	333.687
2209.5000	333.688
2210.0000	333.802
2210.5000	333.791
2211.0000	333.826
2211.5000	333.842
2212.0000	333.771
2212.5000	333.778
2213.0000	333.797
2213.5000	333.911
2214.0000	333.929
2214.5000	333.925
2215.0000	333.94
2215.5000	333.851
2216.0000	333.822
2216.5000	333.849
2217.0000	333.934
2217.5000	333.966
2218.0000	334.025
2218.5000	334.026
2219.0000	333.916
2219.5000	333.923
2220.0000	333.865
2220.5000	333.938
2221.0000	333.958
2221.5000	334.006
2222.0000	334.027
2222.5000	333.998
2223.0000	334.026
2223.5000	333.96
2224.0000	334.019
2224.5000	334.046
2225.0000	334.099
2225.5000	334.051
2226.0000	334.075
2226.5000	334.094
2227.0000	334.112
2227.5000	334.194
2228.0000	334.128
2228.5000	334.119
2229.0000	334.088
2229.5000	334.1
2230.0000	334.208
2230.5000	334.175
2231.0000	334.19
2231.5000	334.161
2232.0000	334.145
2232.5000	334.194
2233.0000	334.222
2233.5000	334.288
2234.0000	334.296
2234.5000	334.317
2235.0000	334.35
2235.5000	334.411
2236.0000	334.43
2236.5000	334.422
2237.0000	334.372
2237.5000	334.336
2238.0000	334.339
2238.5000	334.31
2239.0000	334.276
2239.5000	334.331
2240.0000	334.315
2240.5000	334.38
2241.0000	334.45
2241.5000	334.377
2242.0000	334.412
2242.5000	334.347
2243.0000	334.38
2243.5000	334.466
2244.0000	334.464
2244.5000	334.556
2245.0000	334.529
2245.5000	334.49
2246.0000	334.467
2246.5000	334.484
2247.0000	334.537
2247.5000	334.572
2248.0000	334.625
2248.5000	334.578
2249.0000	334.611
2249.5000	334.623
2250.0000	334.638
2250.5000	334.674
2251.0000	334.675
2251.5000	334.608
2252.0000	334.584
2252.5000	334.655
2253.0000	334.605
2253.5000	334.688
2254.0000	334.78
2254.5000	334.763
2255.0000	334.775
2255.5000	334.721
2256.0000	334.638
2256.5000	334.553
2257.0000	334.614
2257.5000	334.639
2258.0000	334.709
2258.5000	334.773
2259.0000	334.723
2259.5000	334.772
2260.0000	334.739
2260.5000	334.776
2261.0000	334.863
2261.5000	334.807
2262.0000	334.816
2262.5000	334.847
2263.0000	334.828
2263.5000	334.89
2264.0000	334.911
2264.5000	334.886
2265.0000	334.883
2265.5000	334.854
2266.0000	334.909
2266.5000	334.895
2267.0000	334.888
2267.5000	334.915
2268.0000	334.867
2268.5000	334.892
2269.0000	334.923
2269.5000	334.986
2270.0000	335.002
2270.5000	335.049
2271.0000	335.039
2271.5000	334.973
2272.0000	334.99
2272.5000	334.976
2273.0000	334.984
2273.5000	335.076
2274.0000	335.048
2274.5000	335.077
2275.0000	335.094
2275.5000	335.067
2276.0000	335.131
2276.5000	335.158
2277.0000	335.21
2277.5000	335.252
2278.0000	335.263
2278.5000	335.229
2279.0000	335.284
2279.5000	335.273
2280.0000	335.228
2280.5000	335.253
2281.0000	335.195
2281.5000	335.194
2282.0000	335.228
2282.5000	335.225
2283.0000	335.227
2283.5000	335.306
2284.0000	335.337
2284.5000	335.335
2285.0000	335.35
2285.5000	335.306
2286.0000	335.324
2286.5000	335.363
2287.0000	335.388
2287.5000	335.405
2288.0000	335.401
2288.5000	335.463
2289.0000	335.445
2289.5000	335.399
2290.0000	335.465
2290.5000	335.394
2291.0000	335.408
2291.5000	335.473
2292.0000	335.401
2292.5000	335.441
2293.0000	335.456
2293.5000	335.483
2294.0000	335.513
2294.5000	335.539
2295.0000	335.53
2295.5000	335.47
2296.0000	335.545
2296.5000	335.546
2297.0000	335.539
2297.5000	335.56
2298.0000	335.535
2298.5000	335.507
2299.0000	335.536
2299.5000	335.591
2300.0000	335.623
2300.5000	335.636
2301.0000	335.695
2301.5000	335.633
2302.0000	335.611
2302.5000	335.695
2303.0000	335.641
2303.5000	335.726
2304.0000	335.709
2304.5000	335.547
2305.0000	335.61
2305.5000	335.584
2306.0000	335.585
2306.5000	335.696
2307.0000	335.687
2307.5000	335.755
2308.0000	335.827
2308.5000	335.856
2309.0000	335.85
2309.5000	335.84
2310.0000	335.812
2310.5000	335.815
2311.0000	335.811
2311.5000	335.763
2312.0000	335.808
2312.5000	335.874
2313.0000	335.902
2313.5000	335.885
2314.0000	335.862
2314.5000	335.798
2315.0000	335.763
2315.5000	335.821
2316.0000	335.846
2316.5000	335.858
2317.0000	335.898
2317.5000	335.897
2318.0000	335.929
2318.5000	336.005
2319.0000	336
2319.5000	336.037
2320.0000	335.978
2320.5000	335.945
2321.0000	335.959
2321.5000	336.012
2322.0000	336.068
2322.5000	336.069
2323.0000	336.1
2323.5000	336.038
2324.0000	335.962
2324.5000	335.952
2325.0000	336.031
2325.5000	336.057
2326.0000	336.131
2326.5000	336.18
2327.0000	336.072
2327.5000	336.037
2328.0000	336.025
2328.5000	336.027
2329.0000	336.128
2329.5000	336.143
2330.0000	336.218
2330.5000	336.2
2331.0000	336.13
2331.5000	336.133
2332.0000	336.081
2332.5000	336.098
2333.0000	336.16
2333.5000	336.195
2334.0000	336.247
2334.5000	336.287
2335.0000	336.351
2335.5000	336.36
2336.0000	336.324
2336.5000	336.27
2337.0000	336.182
2337.5000	336.153
2338.0000	336.155
2338.5000	336.224
2339.0000	336.257
2339.5000	336.349
2340.0000	336.428
2340.5000	336.436
2341.0000	336.44
2341.5000	336.423
2342.0000	336.383
2342.5000	336.373
2343.0000	336.397
2343.5000	336.482
2344.0000	336.464
2344.5000	336.451
2345.0000	336.413
2345.5000	336.356
2346.0000	336.362
2346.5000	336.47
2347.0000	336.516
2347.5000	336.459
2348.0000	336.479
2348.5000	336.382
2349.0000	336.401
2349.5000	336.469
2350.0000	336.489
2350.5000	336.524
2351.0000	336.507
2351.5000	336.478
2352.0000	336.514
2352.5000	336.509
2353.0000	336.565
2353.5000	336.593
2354.0000	336.603
2354.5000	336.627
2355.0000	336.599
2355.5000	336.606
2356.0000	336.599
2356.5000	336.654
2357.0000	336.664
2357.5000	336.685
2358.0000	336.7
2358.5000	336.641
2359.0000	336.663
2359.5000	336.685
2360.0000	336.687
2360.5000	336.682
2361.0000	336.677
2361.5000	336.69
2362.0000	336.67
2362.5000	336.725
2363.0000	336.73
2363.5000	336.685
2364.0000	336.731
2364.5000	336.661
2365.0000	336.677
2365.5000	336.707
2366.0000	336.648
2366.5000	336.725
2367.0000	336.719
2367.5000	336.764
2368.0000	336.76
2368.5000	336.739
2369.0000	336.714
2369.5000	336.751
2370.0000	336.851
2370.5000	336.856
2371.0000	336.909
2371.5000	336.867
2372.0000	336.806
2372.5000	336.816
2373.0000	336.857
2373.5000	336.845
2374.0000	336.889
2374.5000	336.904
2375.0000	336.876
2375.5000	336.921
2376.0000	336.933
2376.5000	337.007
2377.0000	337.024
2377.5000	336.973
2378.0000	336.996
2378.5000	336.944
2379.0000	336.882
2379.5000	336.941
2380.0000	336.955
2380.5000	336.988
2381.0000	337.036
2381.5000	337.046
2382.0000	337.061
2382.5000	337.05
2383.0000	337.147
2383.5000	337.197
2384.0000	337.23
2384.5000	337.301
2385.0000	337.255
2385.5000	337.226
2386.0000	337.25
2386.5000	337.222
2387.0000	337.143
2387.5000	337.12
2388.0000	337.089
2388.5000	337.005
2389.0000	337.084
2389.5000	337.196
2390.0000	337.148
2390.5000	337.2
2391.0000	337.223
2391.5000	337.146
2392.0000	337.233
2392.5000	337.325
2393.0000	337.311
2393.5000	337.326
2394.0000	337.299
2394.5000	337.36
2395.0000	337.368
2395.5000	337.381
2396.0000	337.438
2396.5000	337.362
2397.0000	337.411
2397.5000	337.388
2398.0000	337.323
2398.5000	337.32
2399.0000	337.305
2399.5000	337.335
2400.0000	337.366
2400.5000	337.44
2401.0000	337.432
2401.5000	337.452
2402.0000	337.459
2402.5000	337.398
2403.0000	337.476
2403.5000	337.464
2404.0000	337.456
2404.5000	337.484
2405.0000	337.444
2405.5000	337.465
2406.0000	337.505
2406.5000	337.543
2407.0000	337.526
2407.5000	337.536
2408.0000	337.521
2408.5000	337.516
2409.0000	337.526
2409.5000	337.601
2410.0000	337.63
2410.5000	337.572
2411.0000	337.603
2411.5000	337.55
2412.0000	337.491
2412.5000	337.53
2413.0000	337.531
2413.5000	337.471
2414.0000	337.551
2414.5000	337.538
2415.0000	337.545
2415.5000	337.584
2416.0000	337.586
2416.5000	337.58
2417.0000	337.535
2417.5000	337.653
2418.0000	337.669
2418.5000	337.738
2419.0000	337.846
