TITLE	
DATA TYPE	
ORIGIN	JASCO
OWNER	
DATE	21/10/27
TIME	18:45:54
SPECTROMETER/DATA SYSTEM	
RESOLUTION	
DELTAX	1
XUNITS	SEC
YUNITS	INTENSITY
FIRSTX	0.0000
LASTX	5000.0000
NPOINTS	5001
FIRSTY	364.72543
MAXY	368.40204
MINY	-343.15088
XYDATA
0.0000	364.725
1.0000	368.195
2.0000	366.207
3.0000	362.535
4.0000	365.051
5.0000	366.299
6.0000	360.068
7.0000	359.659
8.0000	364.034
9.0000	366.434
10.0000	367.243
11.0000	367.501
12.0000	366.757
13.0000	366.732
14.0000	366.159
15.0000	366.13
16.0000	363.976
17.0000	361.212
18.0000	362.64
19.0000	364.435
20.0000	367.27
21.0000	365.662
22.0000	359.851
23.0000	359.156
24.0000	364.845
25.0000	363.348
26.0000	359.368
27.0000	361.727
28.0000	366.374
29.0000	368.402
30.0000	367.419
31.0000	363.556
32.0000	363.257
33.0000	364.961
34.0000	365.234
35.0000	366.081
36.0000	363.662
37.0000	360.676
38.0000	360.473
39.0000	362.423
40.0000	362.603
41.0000	364.959
42.0000	361.239
43.0000	359.744
44.0000	361.541
45.0000	362.794
46.0000	368.164
47.0000	364.959
48.0000	362.19
49.0000	364.611
50.0000	362.822
51.0000	360.937
52.0000	361.385
53.0000	352.908
54.0000	301.592
55.0000	-343.151
56.0000	-225.66
57.0000	-207.516
58.0000	-0.2622
59.0000	229.153
60.0000	203.807
61.0000	180.46
62.0000	179.298
63.0000	180.494
64.0000	181.634
65.0000	182.76
66.0000	183.255
67.0000	181.464
68.0000	180.265
69.0000	181.595
70.0000	183.207
71.0000	184.889
72.0000	185.853
73.0000	182.584
74.0000	182.501
75.0000	184.169
76.0000	181.733
77.0000	182.525
78.0000	185.564
79.0000	185.042
80.0000	184.91
81.0000	185.465
82.0000	186.688
83.0000	185.637
84.0000	183.09
85.0000	184.363
86.0000	185.489
87.0000	186.33
88.0000	186.896
89.0000	185.959
90.0000	185.944
91.0000	187.25
92.0000	186.758
93.0000	185.74
94.0000	186.329
95.0000	187.938
96.0000	187.737
97.0000	186.427
98.0000	188.535
99.0000	189.002
100.0000	189.173
101.0000	187.188
102.0000	186.164
103.0000	186.702
104.0000	185.596
105.0000	187.956
106.0000	187.731
107.0000	187.413
108.0000	188.762
109.0000	188.357
110.0000	189.586
111.0000	192.582
112.0000	189.526
113.0000	188.295
114.0000	191.772
115.0000	191.708
116.0000	191.421
117.0000	191.833
118.0000	192.723
119.0000	194.648
120.0000	193.188
121.0000	191.271
122.0000	193.114
123.0000	193.283
124.0000	192.337
125.0000	193.347
126.0000	192.548
127.0000	189.829
128.0000	189.773
129.0000	190.43
130.0000	194.015
131.0000	195.491
132.0000	194.187
133.0000	194.282
134.0000	195.612
135.0000	195.066
136.0000	194.672
137.0000	193.779
138.0000	191.738
139.0000	192.158
140.0000	193.107
141.0000	196.237
142.0000	195.324
143.0000	193.116
144.0000	193.418
145.0000	194.03
146.0000	196.427
147.0000	195.268
148.0000	192.4
149.0000	194.169
150.0000	197.085
151.0000	197.383
152.0000	196.971
153.0000	196.358
154.0000	195.732
155.0000	195.901
156.0000	199.035
157.0000	198.827
158.0000	196.335
159.0000	198.338
160.0000	201.509
161.0000	199.735
162.0000	198.562
163.0000	198.315
164.0000	197.33
165.0000	199.498
166.0000	199.83
167.0000	201.193
168.0000	201.718
169.0000	200.972
170.0000	201.954
171.0000	200.182
172.0000	197.558
173.0000	198.125
174.0000	197.634
175.0000	196.399
176.0000	199.054
177.0000	199.585
178.0000	200.615
179.0000	200.812
180.0000	200.285
181.0000	200.47
182.0000	201.308
183.0000	202.064
184.0000	201.748
185.0000	202.696
186.0000	201.485
187.0000	199.138
188.0000	199.213
189.0000	202.383
190.0000	202.293
191.0000	201.599
192.0000	203.728
193.0000	204.892
194.0000	202.845
195.0000	204.118
196.0000	205.845
197.0000	201.793
198.0000	202.14
199.0000	204.017
200.0000	203.548
201.0000	206.919
202.0000	206.775
203.0000	203.823
204.0000	203.829
205.0000	205.672
206.0000	206.935
207.0000	206.424
208.0000	204.327
209.0000	204.413
210.0000	206.767
211.0000	204.805
212.0000	202.693
213.0000	203.625
214.0000	206.303
215.0000	205.791
216.0000	202.646
217.0000	206.216
218.0000	207.984
219.0000	205.476
220.0000	205.005
221.0000	206.08
222.0000	206.631
223.0000	207.039
224.0000	209.234
225.0000	207.499
226.0000	204.816
227.0000	206.46
228.0000	205.79
229.0000	206.185
230.0000	209.412
231.0000	209.541
232.0000	210.477
233.0000	211.269
234.0000	208.662
235.0000	207.061
236.0000	208.088
237.0000	208.666
238.0000	210.549
239.0000	210.423
240.0000	209.151
241.0000	208.642
242.0000	208.602
243.0000	208.883
244.0000	210.601
245.0000	210.642
246.0000	209.131
247.0000	210.689
248.0000	209.353
249.0000	208.339
250.0000	210.772
251.0000	211.065
252.0000	211.339
253.0000	212.326
254.0000	209.673
255.0000	209.115
256.0000	211.996
257.0000	212.587
258.0000	212.73
259.0000	213.14
260.0000	211.282
261.0000	210.15
262.0000	208.9
263.0000	207.575
264.0000	208.228
265.0000	208.927
266.0000	210.38
267.0000	211.155
268.0000	210.791
269.0000	212.039
270.0000	211.603
271.0000	210.425
272.0000	211.817
273.0000	214.845
274.0000	215.428
275.0000	213.922
276.0000	213.493
277.0000	211.984
278.0000	211.877
279.0000	213.518
280.0000	213.712
281.0000	212.094
282.0000	211.199
283.0000	209.883
284.0000	208.816
285.0000	211.133
286.0000	212.491
287.0000	212.748
288.0000	212.475
289.0000	214.171
290.0000	214.991
291.0000	212.828
292.0000	212.387
293.0000	213.218
294.0000	213.617
295.0000	214.385
296.0000	214.753
297.0000	214.562
298.0000	215.84
299.0000	211.896
300.0000	212.602
301.0000	214.729
302.0000	214.21
303.0000	215.697
304.0000	214.83
305.0000	213.283
306.0000	212.42
307.0000	213.194
308.0000	213.659
309.0000	215.202
310.0000	213.462
311.0000	213.779
312.0000	216.482
313.0000	216.426
314.0000	216.167
315.0000	216.427
316.0000	216.944
317.0000	218.522
318.0000	217.813
319.0000	214.652
320.0000	215.619
321.0000	216.806
322.0000	218.165
323.0000	218.944
324.0000	217.212
325.0000	216.624
326.0000	215.2
327.0000	213.709
328.0000	215.402
329.0000	215.811
330.0000	215.331
331.0000	216.773
332.0000	216.629
333.0000	218.562
334.0000	217.008
335.0000	216.206
336.0000	216.657
337.0000	215.395
338.0000	218.301
339.0000	218.543
340.0000	216.906
341.0000	218.345
342.0000	220.182
343.0000	219.629
344.0000	219.062
345.0000	217.468
346.0000	217.27
347.0000	219.777
348.0000	218.581
349.0000	217.432
350.0000	219.432
351.0000	218.642
352.0000	215.718
353.0000	213.501
354.0000	212.88
355.0000	215.926
356.0000	219.391
357.0000	217.615
358.0000	216.146
359.0000	218.588
360.0000	220.77
361.0000	220.024
362.0000	219.09
363.0000	217.481
364.0000	218.936
365.0000	222.002
366.0000	218.703
367.0000	216.339
368.0000	217.946
369.0000	220.816
370.0000	222.32
371.0000	220.943
372.0000	219.706
373.0000	221.275
374.0000	223.477
375.0000	221.624
376.0000	219.463
377.0000	218.961
378.0000	219.555
379.0000	219.886
380.0000	219.13
381.0000	219.722
382.0000	221.713
383.0000	222.213
384.0000	222.259
385.0000	223.479
386.0000	224.084
387.0000	222.371
388.0000	221.13
389.0000	224.025
390.0000	226.047
391.0000	224.776
392.0000	222.729
393.0000	221.753
394.0000	224.494
395.0000	226.58
396.0000	223.718
397.0000	221.22
398.0000	224.077
399.0000	225.365
400.0000	221.687
401.0000	220.795
402.0000	222.551
403.0000	223.287
404.0000	226.54
405.0000	227.411
406.0000	224.213
407.0000	224.296
408.0000	225.789
409.0000	225.893
410.0000	225.217
411.0000	223.905
412.0000	223.742
413.0000	227.47
414.0000	225.513
415.0000	223.797
416.0000	227.386
417.0000	224.609
418.0000	222.323
419.0000	224.197
420.0000	225.29
421.0000	225.302
422.0000	223.936
423.0000	224.101
424.0000	225.398
425.0000	223.786
426.0000	224.563
427.0000	228.679
428.0000	230.48
429.0000	230.08
430.0000	228.032
431.0000	226.276
432.0000	225.105
433.0000	226.403
434.0000	229.721
435.0000	229.744
436.0000	226.705
437.0000	225.91
438.0000	225.608
439.0000	226.598
440.0000	229.58
441.0000	230.16
442.0000	227.201
443.0000	229.208
444.0000	230.131
445.0000	227.165
446.0000	228.504
447.0000	228.566
448.0000	231.161
449.0000	231.932
450.0000	228.89
451.0000	228.531
452.0000	230.784
453.0000	231.365
454.0000	227.288
455.0000	227.566
456.0000	228.553
457.0000	228.416
458.0000	231.935
459.0000	232.234
460.0000	230.986
461.0000	231.661
462.0000	229.833
463.0000	232.179
464.0000	233.361
465.0000	229.265
466.0000	230.307
467.0000	231.189
468.0000	230.846
469.0000	232.337
470.0000	231.933
471.0000	230.491
472.0000	229.164
473.0000	228.296
474.0000	230.666
475.0000	232.79
476.0000	232.023
477.0000	230.195
478.0000	231.778
479.0000	231.593
480.0000	230.139
481.0000	230.252
482.0000	231.114
483.0000	232.445
484.0000	232.552
485.0000	233.37
486.0000	234.072
487.0000	233.768
488.0000	233.691
489.0000	233.828
490.0000	233.072
491.0000	233.747
492.0000	236.166
493.0000	235.835
494.0000	234.99
495.0000	231.32
496.0000	229.23
497.0000	232.322
498.0000	233.392
499.0000	232.775
500.0000	232.295
501.0000	234.79
502.0000	234.62
503.0000	235.047
504.0000	236.523
505.0000	235.357
506.0000	232.91
507.0000	232.575
508.0000	232.381
509.0000	232.931
510.0000	234.038
511.0000	231.651
512.0000	233.09
513.0000	235.585
514.0000	235.181
515.0000	235.04
516.0000	235.11
517.0000	234.398
518.0000	233.873
519.0000	234.929
520.0000	236.83
521.0000	236.057
522.0000	236.11
523.0000	234.406
524.0000	233.948
525.0000	235.525
526.0000	236.088
527.0000	234.939
528.0000	234.246
529.0000	235.194
530.0000	235.157
531.0000	235.589
532.0000	235.921
533.0000	237.927
534.0000	239.559
535.0000	238.172
536.0000	238.773
537.0000	238.528
538.0000	234.326
539.0000	236.098
540.0000	238.245
541.0000	237.372
542.0000	237.477
543.0000	237.385
544.0000	238.566
545.0000	239.202
546.0000	237.574
547.0000	236.817
548.0000	237.2
549.0000	236.974
550.0000	236.442
551.0000	235.709
552.0000	236.411
553.0000	237.022
554.0000	235.997
555.0000	239.436
556.0000	240.413
557.0000	239.472
558.0000	238.95
559.0000	236.281
560.0000	236.559
561.0000	240.647
562.0000	240.448
563.0000	237.75
564.0000	237.811
565.0000	240.148
566.0000	240.792
567.0000	240.936
568.0000	240.781
569.0000	238.729
570.0000	240.32
571.0000	240.094
572.0000	239.315
573.0000	236.581
574.0000	234.84
575.0000	238.161
576.0000	240.881
577.0000	241.576
578.0000	242.446
579.0000	241.32
580.0000	238.313
581.0000	236.887
582.0000	239.48
583.0000	240.988
584.0000	238.739
585.0000	239.13
586.0000	241.178
587.0000	240.852
588.0000	241.953
589.0000	243.934
590.0000	242.834
591.0000	242.573
592.0000	239.963
593.0000	240.027
594.0000	239.592
595.0000	238.602
596.0000	243.086
597.0000	242.432
598.0000	241.423
599.0000	242.646
600.0000	239.444
601.0000	238.993
602.0000	241.662
603.0000	242.648
604.0000	243.335
605.0000	243.665
606.0000	243.824
607.0000	245.944
608.0000	246.306
609.0000	241.981
610.0000	242.362
611.0000	242.195
612.0000	239.773
613.0000	240.773
614.0000	241.239
615.0000	240.264
616.0000	243.72
617.0000	246.288
618.0000	242.881
619.0000	242.855
620.0000	243.304
621.0000	243.287
622.0000	243.934
623.0000	240.344
624.0000	238.769
625.0000	240.019
626.0000	239.343
627.0000	241.211
628.0000	242.8
629.0000	241.555
630.0000	241.725
631.0000	242.391
632.0000	242.527
633.0000	243.534
634.0000	243.506
635.0000	243.246
636.0000	242.577
637.0000	242.191
638.0000	244.151
639.0000	244.537
640.0000	244.003
641.0000	243.645
642.0000	244.664
643.0000	246.837
644.0000	244.402
645.0000	241.551
646.0000	242.661
647.0000	242.184
648.0000	241.454
649.0000	244.677
650.0000	245.391
651.0000	246.227
652.0000	247.194
653.0000	243.206
654.0000	244.01
655.0000	245.853
656.0000	246.093
657.0000	245.188
658.0000	245.365
659.0000	247.905
660.0000	249.074
661.0000	247.644
662.0000	246.633
663.0000	246.991
664.0000	246.941
665.0000	248.182
666.0000	246.317
667.0000	248.166
668.0000	249.214
669.0000	245.695
670.0000	244.611
671.0000	245.982
672.0000	245.779
673.0000	246.736
674.0000	247.698
675.0000	249.395
676.0000	249.994
677.0000	249.818
678.0000	249.886
679.0000	244.564
680.0000	244.967
681.0000	247.293
682.0000	246.6
683.0000	248.372
684.0000	247.901
685.0000	246.851
686.0000	249.155
687.0000	249.885
688.0000	246.299
689.0000	245.405
690.0000	247.451
691.0000	245.718
692.0000	246.65
693.0000	245.919
694.0000	245.634
695.0000	249.885
696.0000	249.963
697.0000	246.994
698.0000	247.102
699.0000	247.887
700.0000	248.755
701.0000	249.324
702.0000	248.808
703.0000	248.703
704.0000	249.623
705.0000	249.855
706.0000	250.213
707.0000	252.206
708.0000	249.417
709.0000	248.915
710.0000	250.269
711.0000	248.138
712.0000	249.34
713.0000	250.265
714.0000	249.36
715.0000	248.859
716.0000	251.89
717.0000	252.961
718.0000	251.443
719.0000	249.943
720.0000	248.305
721.0000	252.023
722.0000	251.875
723.0000	250.263
724.0000	250.032
725.0000	248.599
726.0000	249.825
727.0000	250.848
728.0000	250.619
729.0000	251.311
730.0000	250.174
731.0000	251.294
732.0000	251.404
733.0000	248.287
734.0000	250.019
735.0000	250.833
736.0000	249.82
737.0000	249.753
738.0000	250.593
739.0000	252.985
740.0000	254.177
741.0000	255.988
742.0000	255.447
743.0000	250.879
744.0000	248.352
745.0000	252.006
746.0000	255.173
747.0000	251.958
748.0000	253.548
749.0000	253.497
750.0000	252.047
751.0000	251.026
752.0000	250.642
753.0000	252.789
754.0000	252.272
755.0000	253.915
756.0000	252.436
757.0000	250.438
758.0000	251.496
759.0000	253.162
760.0000	253.587
761.0000	251.636
762.0000	252.126
763.0000	254.057
764.0000	252.178
765.0000	251.877
766.0000	252.416
767.0000	253.325
768.0000	256.369
769.0000	252.62
770.0000	249.598
771.0000	251.786
772.0000	255.472
773.0000	256.161
774.0000	253.585
775.0000	255.519
776.0000	255.904
777.0000	254.658
778.0000	255.254
779.0000	256.973
780.0000	256.159
781.0000	254.019
782.0000	256.032
783.0000	256.42
784.0000	255.04
785.0000	255.253
786.0000	255.62
787.0000	257.093
788.0000	255.815
789.0000	252.321
790.0000	252.703
791.0000	254.861
792.0000	252.448
793.0000	251.88
794.0000	251.734
795.0000	250.752
796.0000	253.252
797.0000	254.259
798.0000	253.957
799.0000	253.431
800.0000	255.146
801.0000	255.174
802.0000	253.862
803.0000	254.143
804.0000	254.259
805.0000	254.184
806.0000	254.371
807.0000	256.383
808.0000	256.605
809.0000	259.638
810.0000	260.181
811.0000	256.734
812.0000	257.484
813.0000	257.556
814.0000	254.141
815.0000	254.794
816.0000	256.93
817.0000	256.832
818.0000	255.313
819.0000	253.075
820.0000	255.176
821.0000	256.34
822.0000	255.231
823.0000	255.587
824.0000	254.921
825.0000	257.862
826.0000	258.294
827.0000	257.194
828.0000	259.196
829.0000	255.452
830.0000	256.893
831.0000	255.825
832.0000	256.65
833.0000	258.77
834.0000	256.829
835.0000	256.754
836.0000	255.796
837.0000	258.57
838.0000	259.975
839.0000	260.649
840.0000	258.323
841.0000	256.521
842.0000	258.404
843.0000	258.996
844.0000	257.44
845.0000	256.718
846.0000	257.548
847.0000	256.403
848.0000	258.156
849.0000	259.397
850.0000	255.894
851.0000	255.897
852.0000	258.435
853.0000	258.726
854.0000	260.206
855.0000	260.772
856.0000	259.475
857.0000	256.91
858.0000	257.065
859.0000	258.039
860.0000	259.048
861.0000	260.393
862.0000	260.157
863.0000	259.757
864.0000	259.022
865.0000	258.386
866.0000	257.022
867.0000	257.585
868.0000	256.644
869.0000	255.788
870.0000	260.213
871.0000	259.645
872.0000	259.498
873.0000	262.355
874.0000	260.17
875.0000	258.569
876.0000	258.45
877.0000	257.589
878.0000	260.388
879.0000	262.898
880.0000	261.399
881.0000	260.284
882.0000	259.935
883.0000	260.344
884.0000	258.789
885.0000	258.358
886.0000	258.392
887.0000	257.961
888.0000	257.5
889.0000	260.628
890.0000	263.276
891.0000	260.353
892.0000	261.237
893.0000	259.351
894.0000	256.815
895.0000	260.686
896.0000	262.949
897.0000	261.447
898.0000	259.248
899.0000	258.593
900.0000	258.717
901.0000	259.518
902.0000	260.416
903.0000	260.226
904.0000	260.867
905.0000	261.052
906.0000	261.388
907.0000	261.983
908.0000	259.984
909.0000	260.5
910.0000	261.763
911.0000	259.712
912.0000	259.927
913.0000	259.558
914.0000	258.08
915.0000	259.885
916.0000	262.522
917.0000	260.74
918.0000	258.134
919.0000	259.025
920.0000	262.127
921.0000	262.94
922.0000	262.237
923.0000	262.246
924.0000	262.51
925.0000	265.286
926.0000	263.022
927.0000	260.388
928.0000	260.735
929.0000	260.219
930.0000	261.781
931.0000	262.597
932.0000	260.706
933.0000	261.159
934.0000	262.595
935.0000	263.079
936.0000	260.095
937.0000	260.589
938.0000	263.302
939.0000	264.641
940.0000	264.929
941.0000	262.218
942.0000	263.646
943.0000	263.801
944.0000	261.123
945.0000	260.103
946.0000	260.924
947.0000	260.869
948.0000	263.455
949.0000	267.409
950.0000	266.212
951.0000	262.298
952.0000	261.769
953.0000	265.299
954.0000	266.562
955.0000	265.019
956.0000	262.119
957.0000	261.129
958.0000	264.654
959.0000	266.132
960.0000	264.473
961.0000	263.581
962.0000	263.495
963.0000	264.762
964.0000	263.462
965.0000	262.704
966.0000	262.749
967.0000	262.4
968.0000	264.453
969.0000	263.351
970.0000	263.131
971.0000	264.725
972.0000	265.377
973.0000	264.661
974.0000	263.132
975.0000	265.304
976.0000	266.336
977.0000	263.787
978.0000	263.8
979.0000	261.945
980.0000	262.763
981.0000	264.286
982.0000	263.728
983.0000	263.317
984.0000	261.585
985.0000	260.551
986.0000	263.721
987.0000	266.321
988.0000	265.617
989.0000	265.291
990.0000	263.648
991.0000	265.792
992.0000	268.159
993.0000	267.494
994.0000	262.582
995.0000	261.778
996.0000	265.75
997.0000	265.745
998.0000	265.303
999.0000	265.974
1000.0000	264.984
1001.0000	264.088
1002.0000	263.409
1003.0000	264.114
1004.0000	266.393
1005.0000	266.329
1006.0000	266.166
1007.0000	267.42
1008.0000	267.022
1009.0000	266.341
1010.0000	264.991
1011.0000	264.688
1012.0000	266.045
1013.0000	266.546
1014.0000	267.406
1015.0000	268.504
1016.0000	269.658
1017.0000	265.186
1018.0000	264.425
1019.0000	267.277
1020.0000	265.693
1021.0000	264.435
1022.0000	265.339
1023.0000	266.253
1024.0000	264.977
1025.0000	266.517
1026.0000	266.994
1027.0000	267.064
1028.0000	267.323
1029.0000	265.808
1030.0000	265.012
1031.0000	266.803
1032.0000	269.883
1033.0000	268.549
1034.0000	268.731
1035.0000	266.383
1036.0000	262.262
1037.0000	265.666
1038.0000	268.945
1039.0000	269.189
1040.0000	267.506
1041.0000	263.302
1042.0000	263.765
1043.0000	267.635
1044.0000	266.809
1045.0000	265.316
1046.0000	266.038
1047.0000	263.447
1048.0000	265.639
1049.0000	268.42
1050.0000	265.284
1051.0000	264.715
1052.0000	264.709
1053.0000	263.491
1054.0000	266.866
1055.0000	269.772
1056.0000	265.915
1057.0000	265.355
1058.0000	266.81
1059.0000	266.832
1060.0000	267.351
1061.0000	267.374
1062.0000	265.865
1063.0000	265.459
1064.0000	265.865
1065.0000	268.283
1066.0000	268.016
1067.0000	264.544
1068.0000	266.222
1069.0000	266.355
1070.0000	266.102
1071.0000	269.473
1072.0000	271.397
1073.0000	270.208
1074.0000	268.377
1075.0000	267.387
1076.0000	268.067
1077.0000	265.499
1078.0000	264.112
1079.0000	266.223
1080.0000	267.317
1081.0000	268.471
1082.0000	267.183
1083.0000	267.649
1084.0000	269.356
1085.0000	267.465
1086.0000	267.106
1087.0000	267.664
1088.0000	267.078
1089.0000	268.444
1090.0000	268.725
1091.0000	267.03
1092.0000	264.683
1093.0000	267.164
1094.0000	269.608
1095.0000	269.97
1096.0000	270.894
1097.0000	271.503
1098.0000	268.532
1099.0000	265.387
1100.0000	265.872
1101.0000	267.447
1102.0000	267.858
1103.0000	266.756
1104.0000	266.184
1105.0000	264.943
1106.0000	266.808
1107.0000	267.557
1108.0000	267.251
1109.0000	266.351
1110.0000	266.149
1111.0000	268.618
1112.0000	270.494
1113.0000	271.336
1114.0000	270.703
1115.0000	271.753
1116.0000	271.223
1117.0000	267.238
1118.0000	265.236
1119.0000	268.007
1120.0000	270.072
1121.0000	266.012
1122.0000	263.522
1123.0000	265.559
1124.0000	269.282
1125.0000	270.187
1126.0000	270.343
1127.0000	268.911
1128.0000	268.859
1129.0000	270.191
1130.0000	268.287
1131.0000	268.566
1132.0000	270.735
1133.0000	269.466
1134.0000	266.95
1135.0000	269.775
1136.0000	271.549
1137.0000	270.139
1138.0000	270.633
1139.0000	270.897
1140.0000	268.64
1141.0000	267.983
1142.0000	269.111
1143.0000	267.925
1144.0000	266.212
1145.0000	268.604
1146.0000	272.804
1147.0000	272.171
1148.0000	268.929
1149.0000	270.205
1150.0000	270.348
1151.0000	269.816
1152.0000	271.008
1153.0000	268.953
1154.0000	268.947
1155.0000	269.819
1156.0000	269.128
1157.0000	270.059
1158.0000	267.998
1159.0000	267.663
1160.0000	269.897
1161.0000	268.761
1162.0000	267.925
1163.0000	270.041
1164.0000	273.47
1165.0000	270.899
1166.0000	269.282
1167.0000	270.873
1168.0000	268.782
1169.0000	267.517
1170.0000	268.661
1171.0000	269.978
1172.0000	270.696
1173.0000	270.872
1174.0000	269.595
1175.0000	269.007
1176.0000	271.503
1177.0000	268.673
1178.0000	266.892
1179.0000	269.643
1180.0000	270.516
1181.0000	271.617
1182.0000	269.47
1183.0000	270.658
1184.0000	271.979
1185.0000	272.748
1186.0000	273.29
1187.0000	271.827
1188.0000	272.922
1189.0000	270.31
1190.0000	269.639
1191.0000	272.624
1192.0000	269.361
1193.0000	267.105
1194.0000	268.085
1195.0000	269.643
1196.0000	273.137
1197.0000	273.158
1198.0000	271.899
1199.0000	271.523
1200.0000	271.518
1201.0000	270.988
1202.0000	270.104
1203.0000	269.324
1204.0000	268.914
1205.0000	270.478
1206.0000	271.233
1207.0000	271.456
1208.0000	272.092
1209.0000	271.981
1210.0000	270.542
1211.0000	269.305
1212.0000	270.684
1213.0000	273.001
1214.0000	273.025
1215.0000	272.48
1216.0000	271.538
1217.0000	270.912
1218.0000	271.323
1219.0000	272.318
1220.0000	271.928
1221.0000	270.946
1222.0000	270.034
1223.0000	267.606
1224.0000	270.312
1225.0000	273.029
1226.0000	270.55
1227.0000	270.987
1228.0000	271.175
1229.0000	268.551
1230.0000	269.657
1231.0000	270.822
1232.0000	270.835
1233.0000	272.115
1234.0000	274.386
1235.0000	276.504
1236.0000	273.766
1237.0000	271.969
1238.0000	270.455
1239.0000	271.268
1240.0000	273.543
1241.0000	269.146
1242.0000	268.664
1243.0000	270.548
1244.0000	270.017
1245.0000	271.277
1246.0000	270.38
1247.0000	269.195
1248.0000	269.426
1249.0000	268.37
1250.0000	267.162
1251.0000	269.329
1252.0000	270.593
1253.0000	270.481
1254.0000	270.485
1255.0000	269.117
1256.0000	270.406
1257.0000	269.051
1258.0000	268.376
1259.0000	272.154
1260.0000	273.503
1261.0000	269.878
1262.0000	265.006
1263.0000	268.025
1264.0000	271.692
1265.0000	271.641
1266.0000	272.173
1267.0000	273.38
1268.0000	274.443
1269.0000	272.981
1270.0000	272.373
1271.0000	274.136
1272.0000	273.517
1273.0000	272.743
1274.0000	275.397
1275.0000	270.392
1276.0000	264.372
1277.0000	267.702
1278.0000	271.856
1279.0000	271.098
1280.0000	271.939
1281.0000	273.852
1282.0000	270.528
1283.0000	270.302
1284.0000	273
1285.0000	271.6
1286.0000	270.334
1287.0000	271.318
1288.0000	271.508
1289.0000	270.167
1290.0000	271.991
1291.0000	277.33
1292.0000	277.307
1293.0000	274.321
1294.0000	274.772
1295.0000	275.311
1296.0000	273.181
1297.0000	272.232
1298.0000	273.394
1299.0000	272.563
1300.0000	271.563
1301.0000	271.579
1302.0000	275.382
1303.0000	275.054
1304.0000	270.396
1305.0000	270.638
1306.0000	269.888
1307.0000	270.382
1308.0000	271.085
1309.0000	267.168
1310.0000	269.613
1311.0000	273.907
1312.0000	271.379
1313.0000	269.27
1314.0000	271.278
1315.0000	272.352
1316.0000	272.237
1317.0000	270.767
1318.0000	268.909
1319.0000	269.656
1320.0000	270.811
1321.0000	269.098
1322.0000	270.018
1323.0000	272.188
1324.0000	271.972
1325.0000	273.143
1326.0000	274.398
1327.0000	268.255
1328.0000	267.545
1329.0000	274.468
1330.0000	272.826
1331.0000	269.925
1332.0000	268.715
1333.0000	271.003
1334.0000	272.464
1335.0000	269.163
1336.0000	269.046
1337.0000	270.149
1338.0000	268.061
1339.0000	270.31
1340.0000	273.524
1341.0000	273.635
1342.0000	271.846
1343.0000	270.746
1344.0000	270.494
1345.0000	269.319
1346.0000	272.274
1347.0000	274.989
1348.0000	271.15
1349.0000	272.118
1350.0000	274.27
1351.0000	272.006
1352.0000	272.977
1353.0000	272.144
1354.0000	271.53
1355.0000	271.876
1356.0000	271.658
1357.0000	273.923
1358.0000	273.64
1359.0000	272.807
1360.0000	273.141
1361.0000	272.238
1362.0000	274.078
1363.0000	274.404
1364.0000	271.214
1365.0000	271.938
1366.0000	270.216
1367.0000	269.184
1368.0000	271.609
1369.0000	271.521
1370.0000	272.148
1371.0000	273.571
1372.0000	271.578
1373.0000	271.57
1374.0000	275.515
1375.0000	274.227
1376.0000	272.806
1377.0000	273.134
1378.0000	273.246
1379.0000	273.333
1380.0000	274.933
1381.0000	275.148
1382.0000	273.171
1383.0000	272.694
1384.0000	273.636
1385.0000	274.304
1386.0000	274.576
1387.0000	273.638
1388.0000	270.182
1389.0000	270.826
1390.0000	271.514
1391.0000	272.982
1392.0000	274.589
1393.0000	273.158
1394.0000	273.748
1395.0000	274.546
1396.0000	272.997
1397.0000	270.45
1398.0000	271.084
1399.0000	273.943
1400.0000	274.233
1401.0000	270.488
1402.0000	269.984
1403.0000	270.754
1404.0000	271.658
1405.0000	272.356
1406.0000	271.228
1407.0000	273.389
1408.0000	275.315
1409.0000	276.486
1410.0000	272.503
1411.0000	270.821
1412.0000	275.25
1413.0000	273.634
1414.0000	273.893
1415.0000	275.215
1416.0000	272.308
1417.0000	271.258
1418.0000	273.989
1419.0000	273.769
1420.0000	269.63
1421.0000	267.901
1422.0000	268.249
1423.0000	268.044
1424.0000	268.935
1425.0000	272.448
1426.0000	273.786
1427.0000	271.629
1428.0000	269.863
1429.0000	269.686
1430.0000	269.413
1431.0000	269.467
1432.0000	270.632
1433.0000	272.562
1434.0000	272.711
1435.0000	270.429
1436.0000	269.959
1437.0000	272.235
1438.0000	271.314
1439.0000	268.874
1440.0000	271.203
1441.0000	272.15
1442.0000	272.39
1443.0000	275.25
1444.0000	272.51
1445.0000	270.132
1446.0000	273.045
1447.0000	273.48
1448.0000	273.242
1449.0000	273.637
1450.0000	271.77
1451.0000	270.642
1452.0000	272.183
1453.0000	273.238
1454.0000	273.939
1455.0000	273.492
1456.0000	272.825
1457.0000	271.579
1458.0000	269.35
1459.0000	271.894
1460.0000	272.238
1461.0000	272.249
1462.0000	273.706
1463.0000	272.912
1464.0000	271.85
1465.0000	271.398
1466.0000	269.94
1467.0000	269.186
1468.0000	268.066
1469.0000	271.195
1470.0000	274.948
1471.0000	271.233
1472.0000	270.059
1473.0000	269.119
1474.0000	268.603
1475.0000	268.398
1476.0000	270.376
1477.0000	275.451
1478.0000	276.862
1479.0000	275.213
1480.0000	274.298
1481.0000	273.197
1482.0000	270.289
1483.0000	269.362
1484.0000	271.637
1485.0000	272.889
1486.0000	274.884
1487.0000	276.229
1488.0000	273.268
1489.0000	272.01
1490.0000	273.621
1491.0000	272.592
1492.0000	270.89
1493.0000	273.162
1494.0000	272.024
1495.0000	268.188
1496.0000	271.39
1497.0000	273.546
1498.0000	271.583
1499.0000	270.847
1500.0000	272.291
1501.0000	273.758
1502.0000	273.43
1503.0000	273.581
1504.0000	272.185
1505.0000	271.875
1506.0000	272.446
1507.0000	271.894
1508.0000	272.581
1509.0000	272.896
1510.0000	271.159
1511.0000	269.669
1512.0000	270.79
1513.0000	273.578
1514.0000	273.203
1515.0000	272.802
1516.0000	274.685
1517.0000	275.638
1518.0000	275.326
1519.0000	273.658
1520.0000	272.098
1521.0000	270.442
1522.0000	269.372
1523.0000	271.186
1524.0000	275.665
1525.0000	274.737
1526.0000	273.203
1527.0000	276.53
1528.0000	275.564
1529.0000	273.968
1530.0000	274.495
1531.0000	274.132
1532.0000	274.845
1533.0000	273.194
1534.0000	270.975
1535.0000	274.904
1536.0000	271.594
1537.0000	269.639
1538.0000	275.08
1539.0000	271.26
1540.0000	268.59
1541.0000	273.641
1542.0000	277.33
1543.0000	272.924
1544.0000	269.406
1545.0000	273.029
1546.0000	272.81
1547.0000	271.077
1548.0000	271.908
1549.0000	270.61
1550.0000	270.882
1551.0000	271.636
1552.0000	272.79
1553.0000	273.85
1554.0000	272.6
1555.0000	273.357
1556.0000	271.668
1557.0000	269.522
1558.0000	269.291
1559.0000	271.85
1560.0000	274.598
1561.0000	273.541
1562.0000	276.674
1563.0000	276.984
1564.0000	273.365
1565.0000	270.698
1566.0000	270.202
1567.0000	271.932
1568.0000	273.736
1569.0000	276.439
1570.0000	274.822
1571.0000	271.37
1572.0000	271.673
1573.0000	271.094
1574.0000	267.825
1575.0000	268.604
1576.0000	272.239
1577.0000	274.909
1578.0000	274.685
1579.0000	273.03
1580.0000	271.951
1581.0000	272.488
1582.0000	274.005
1583.0000	274.737
1584.0000	271.345
1585.0000	270.374
1586.0000	272.042
1587.0000	271.806
1588.0000	272.487
1589.0000	270.033
1590.0000	269.349
1591.0000	269.93
1592.0000	271.405
1593.0000	274.904
1594.0000	274.334
1595.0000	271.931
1596.0000	271.331
1597.0000	272.691
1598.0000	273.629
1599.0000	272.501
1600.0000	271.791
1601.0000	270.249
1602.0000	270.283
1603.0000	272.593
1604.0000	272.536
1605.0000	273.484
1606.0000	274.375
1607.0000	274.702
1608.0000	273.506
1609.0000	271.629
1610.0000	271.933
1611.0000	271.265
1612.0000	271.548
1613.0000	270.299
1614.0000	270.035
1615.0000	270.765
1616.0000	270.527
1617.0000	271.136
1618.0000	270.27
1619.0000	270.557
1620.0000	272.255
1621.0000	272.203
1622.0000	272.212
1623.0000	274.87
1624.0000	274.965
1625.0000	272.684
1626.0000	272.393
1627.0000	271.065
1628.0000	271.385
1629.0000	273.034
1630.0000	272.755
1631.0000	276.293
1632.0000	274.885
1633.0000	272.743
1634.0000	275.605
1635.0000	272.928
1636.0000	272.693
1637.0000	272.098
1638.0000	272.032
1639.0000	272.745
1640.0000	270.321
1641.0000	272.59
1642.0000	273.506
1643.0000	270.244
1644.0000	269.848
1645.0000	272.9
1646.0000	273.014
1647.0000	271.524
1648.0000	273.221
1649.0000	273.424
1650.0000	272.81
1651.0000	271.906
1652.0000	271.08
1653.0000	269.639
1654.0000	269.452
1655.0000	271.625
1656.0000	272.765
1657.0000	273.317
1658.0000	273.854
1659.0000	272.152
1660.0000	271.803
1661.0000	271.651
1662.0000	270.8
1663.0000	270.54
1664.0000	272.045
1665.0000	274.24
1666.0000	272.108
1667.0000	271.643
1668.0000	271.316
1669.0000	271.111
1670.0000	273.017
1671.0000	273.594
1672.0000	272.749
1673.0000	271.205
1674.0000	272.673
1675.0000	270.537
1676.0000	269.168
1677.0000	275.266
1678.0000	276.687
1679.0000	275.342
1680.0000	272.564
1681.0000	272.483
1682.0000	272.978
1683.0000	269.925
1684.0000	270.804
1685.0000	271.297
1686.0000	271.355
1687.0000	271.793
1688.0000	271.105
1689.0000	270.657
1690.0000	271.603
1691.0000	270.757
1692.0000	272.296
1693.0000	273.441
1694.0000	273.032
1695.0000	275.14
1696.0000	273.601
1697.0000	272.579
1698.0000	274.601
1699.0000	275.69
1700.0000	273.608
1701.0000	271.614
1702.0000	271.43
1703.0000	271.694
1704.0000	270.501
1705.0000	272.085
1706.0000	276.066
1707.0000	277.346
1708.0000	274.92
1709.0000	273.288
1710.0000	273.428
1711.0000	274.199
1712.0000	273.193
1713.0000	270.91
1714.0000	271.509
1715.0000	271.555
1716.0000	272.407
1717.0000	272.36
1718.0000	270.435
1719.0000	272.479
1720.0000	272.065
1721.0000	270.894
1722.0000	271.434
1723.0000	271.042
1724.0000	273.65
1725.0000	273.349
1726.0000	274.204
1727.0000	274.864
1728.0000	270.33
1729.0000	271.748
1730.0000	274.018
1731.0000	269.095
1732.0000	269.628
1733.0000	272.89
1734.0000	271.684
1735.0000	274.002
1736.0000	273.724
1737.0000	271.64
1738.0000	272.446
1739.0000	272.237
1740.0000	272.677
1741.0000	271.67
1742.0000	269.488
1743.0000	271.118
1744.0000	273.72
1745.0000	271.577
1746.0000	269.852
1747.0000	271.959
1748.0000	273.662
1749.0000	273.661
1750.0000	273.214
1751.0000	274.059
1752.0000	271.163
1753.0000	269.556
1754.0000	271.842
1755.0000	272.964
1756.0000	274.67
1757.0000	273.405
1758.0000	270.639
1759.0000	272.318
1760.0000	273.97
1761.0000	274.155
1762.0000	275.452
1763.0000	276.033
1764.0000	273.097
1765.0000	273.742
1766.0000	275.375
1767.0000	273.752
1768.0000	274.036
1769.0000	273.391
1770.0000	270.774
1771.0000	271.486
1772.0000	275.568
1773.0000	274.875
1774.0000	274.823
1775.0000	273.885
1776.0000	273.616
1777.0000	274.921
1778.0000	272.962
1779.0000	274.921
1780.0000	274.037
1781.0000	271.714
1782.0000	271.813
1783.0000	272.072
1784.0000	272.409
1785.0000	273.249
1786.0000	274.101
1787.0000	273.492
1788.0000	272.399
1789.0000	272.35
1790.0000	271.926
1791.0000	271.078
1792.0000	276.222
1793.0000	276.049
1794.0000	273.187
1795.0000	273.226
1796.0000	274.347
1797.0000	274.804
1798.0000	273.003
1799.0000	272.602
1800.0000	269.225
1801.0000	271.584
1802.0000	274.594
1803.0000	270.776
1804.0000	272.589
1805.0000	273.819
1806.0000	268.376
1807.0000	266.916
1808.0000	269.037
1809.0000	268.129
1810.0000	272.015
1811.0000	275.627
1812.0000	275.084
1813.0000	274.409
1814.0000	272.87
1815.0000	273.205
1816.0000	274.692
1817.0000	274.536
1818.0000	274.842
1819.0000	275.154
1820.0000	272.401
1821.0000	272.91
1822.0000	274.495
1823.0000	273.77
1824.0000	274.158
1825.0000	273.852
1826.0000	274.373
1827.0000	276.406
1828.0000	276.003
1829.0000	276.618
1830.0000	277.019
1831.0000	272.19
1832.0000	270.559
1833.0000	269.72
1834.0000	270.049
1835.0000	273.762
1836.0000	274.456
1837.0000	273.79
1838.0000	273.865
1839.0000	276.375
1840.0000	277.088
1841.0000	275.449
1842.0000	274.192
1843.0000	274.031
1844.0000	276.789
1845.0000	277.67
1846.0000	273.012
1847.0000	271.589
1848.0000	274.107
1849.0000	270.156
1850.0000	268.522
1851.0000	270.169
1852.0000	269.477
1853.0000	272.383
1854.0000	272.46
1855.0000	271.031
1856.0000	270.685
1857.0000	270.546
1858.0000	271.953
1859.0000	271.286
1860.0000	271.001
1861.0000	273.217
1862.0000	272.584
1863.0000	272.836
1864.0000	274.477
1865.0000	273.89
1866.0000	272.601
1867.0000	271.129
1868.0000	273.466
1869.0000	273.496
1870.0000	272.214
1871.0000	272.677
1872.0000	272.875
1873.0000	273.994
1874.0000	273.773
1875.0000	274.959
1876.0000	275.107
1877.0000	274.71
1878.0000	273.994
1879.0000	274.575
1880.0000	276.905
1881.0000	275.3
1882.0000	273.106
1883.0000	275.392
1884.0000	276.891
1885.0000	273.627
1886.0000	270.063
1887.0000	272.128
1888.0000	275.028
1889.0000	275.735
1890.0000	277.806
1891.0000	278.524
1892.0000	275.233
1893.0000	273.737
1894.0000	277.948
1895.0000	277.839
1896.0000	275.004
1897.0000	273.708
1898.0000	272.557
1899.0000	273.685
1900.0000	275.539
1901.0000	273.827
1902.0000	269.15
1903.0000	268.574
1904.0000	272.651
1905.0000	275.146
1906.0000	275.547
1907.0000	274.839
1908.0000	273.599
1909.0000	274.646
1910.0000	274.471
1911.0000	271.642
1912.0000	273.695
1913.0000	275.329
1914.0000	273.64
1915.0000	273.852
1916.0000	273.577
1917.0000	274.067
1918.0000	274.56
1919.0000	274.284
1920.0000	273.129
1921.0000	271.767
1922.0000	271.459
1923.0000	272.161
1924.0000	273.703
1925.0000	274.39
1926.0000	275.947
1927.0000	274.361
1928.0000	273.633
1929.0000	272.501
1930.0000	270.41
1931.0000	273
1932.0000	273.745
1933.0000	274.506
1934.0000	274.673
1935.0000	273.244
1936.0000	272.939
1937.0000	271.359
1938.0000	271.757
1939.0000	272.784
1940.0000	270.27
1941.0000	269.56
1942.0000	272.705
1943.0000	274.681
1944.0000	274.641
1945.0000	274.558
1946.0000	274.008
1947.0000	273.656
1948.0000	271.722
1949.0000	271.43
1950.0000	273.548
1951.0000	277.352
1952.0000	277.775
1953.0000	275.736
1954.0000	275.453
1955.0000	273.586
1956.0000	275.233
1957.0000	274.333
1958.0000	273.513
1959.0000	274.099
1960.0000	275.335
1961.0000	275.24
1962.0000	273.713
1963.0000	275.617
1964.0000	273.089
1965.0000	271.121
1966.0000	272.159
1967.0000	274.395
1968.0000	275.539
1969.0000	273.802
1970.0000	275.523
1971.0000	274.892
1972.0000	273.782
1973.0000	274.209
1974.0000	271.713
1975.0000	272.863
1976.0000	276.31
1977.0000	278.022
1978.0000	276.307
1979.0000	274.968
1980.0000	275.446
1981.0000	275.011
1982.0000	274.505
1983.0000	272.795
1984.0000	270.417
1985.0000	270.553
1986.0000	271.73
1987.0000	273.199
1988.0000	275.803
1989.0000	275.352
1990.0000	272.389
1991.0000	271.487
1992.0000	276.159
1993.0000	276.513
1994.0000	272.844
1995.0000	274.05
1996.0000	275.843
1997.0000	275.743
1998.0000	277.212
1999.0000	275.82
2000.0000	275.631
2001.0000	276.996
2002.0000	273.816
2003.0000	271.23
2004.0000	270.938
2005.0000	274.845
2006.0000	275.934
2007.0000	274.528
2008.0000	274.831
2009.0000	273.876
2010.0000	272.788
2011.0000	273.036
2012.0000	275.787
2013.0000	274.85
2014.0000	275.206
2015.0000	278.222
2016.0000	276.11
2017.0000	274.905
2018.0000	274.889
2019.0000	276.602
2020.0000	277.019
2021.0000	273.883
2022.0000	273.824
2023.0000	277.204
2024.0000	275.237
2025.0000	274.931
2026.0000	276.21
2027.0000	273.089
2028.0000	275.887
2029.0000	277.897
2030.0000	275.648
2031.0000	278.782
2032.0000	278.439
2033.0000	274.71
2034.0000	273.591
2035.0000	275.363
2036.0000	273.39
2037.0000	273.121
2038.0000	277.485
2039.0000	274.372
2040.0000	273.121
2041.0000	273.307
2042.0000	273.749
2043.0000	276.671
2044.0000	274.813
2045.0000	272.817
2046.0000	274.207
2047.0000	275.44
2048.0000	273.075
2049.0000	275.701
2050.0000	277.66
2051.0000	274.309
2052.0000	276.25
2053.0000	277.827
2054.0000	277.781
2055.0000	277.92
2056.0000	279.069
2057.0000	277.948
2058.0000	274.634
2059.0000	274.831
2060.0000	277.293
2061.0000	275.627
2062.0000	274.158
2063.0000	276.381
2064.0000	273.823
2065.0000	272.776
2066.0000	278.239
2067.0000	277.991
2068.0000	274.69
2069.0000	274.25
2070.0000	276.193
2071.0000	276.458
2072.0000	275.441
2073.0000	274
2074.0000	273.413
2075.0000	274.306
2076.0000	273.123
2077.0000	273.953
2078.0000	278.09
2079.0000	276.927
2080.0000	277.039
2081.0000	278.896
2082.0000	277.419
2083.0000	278.633
2084.0000	277.669
2085.0000	276.955
2086.0000	278.559
2087.0000	278.642
2088.0000	275.271
2089.0000	275.18
2090.0000	274.656
2091.0000	276.183
2092.0000	276.71
2093.0000	273.32
2094.0000	273.562
2095.0000	276.525
2096.0000	281.088
2097.0000	279.845
2098.0000	275.36
2099.0000	275.569
2100.0000	277.82
2101.0000	276.726
2102.0000	275.849
2103.0000	275.479
2104.0000	274.585
2105.0000	274.811
2106.0000	274.049
2107.0000	275.558
2108.0000	277.002
2109.0000	274.891
2110.0000	274.424
2111.0000	273.812
2112.0000	273.864
2113.0000	276.517
2114.0000	277.136
2115.0000	277.698
2116.0000	277.926
2117.0000	277.214
2118.0000	277.66
2119.0000	278.203
2120.0000	278.512
2121.0000	276.886
2122.0000	274.979
2123.0000	274.495
2124.0000	274.856
2125.0000	278.478
2126.0000	277.931
2127.0000	276.967
2128.0000	278.866
2129.0000	277.384
2130.0000	276.254
2131.0000	277.013
2132.0000	277.602
2133.0000	274.661
2134.0000	276.86
2135.0000	277.559
2136.0000	277.862
2137.0000	281.606
2138.0000	277.282
2139.0000	273.102
2140.0000	274.71
2141.0000	276.781
2142.0000	276.509
2143.0000	277.345
2144.0000	277.138
2145.0000	274.97
2146.0000	276.133
2147.0000	276.369
2148.0000	276.302
2149.0000	276.476
2150.0000	274.621
2151.0000	277.624
2152.0000	280.227
2153.0000	278.811
2154.0000	279.089
2155.0000	278.463
2156.0000	276.548
2157.0000	275.74
2158.0000	276.36
2159.0000	277.803
2160.0000	277.953
2161.0000	276.509
2162.0000	278.588
2163.0000	279.506
2164.0000	277.684
2165.0000	277.597
2166.0000	276.058
2167.0000	273.026
2168.0000	276.065
2169.0000	280.811
2170.0000	281.027
2171.0000	280.085
2172.0000	279.968
2173.0000	282.397
2174.0000	282.639
2175.0000	280.624
2176.0000	278.396
2177.0000	277.908
2178.0000	277.008
2179.0000	274.786
2180.0000	275.167
2181.0000	281.203
2182.0000	279.982
2183.0000	275.481
2184.0000	275.753
2185.0000	275.132
2186.0000	277.046
2187.0000	280.07
2188.0000	278.162
2189.0000	276.757
2190.0000	277.975
2191.0000	277.199
2192.0000	276.765
2193.0000	275.692
2194.0000	276.838
2195.0000	278.352
2196.0000	280.657
2197.0000	280.324
2198.0000	277.87
2199.0000	276.805
2200.0000	275.483
2201.0000	275.969
2202.0000	277.485
2203.0000	279.192
2204.0000	281
2205.0000	281.374
2206.0000	278.981
2207.0000	279.682
2208.0000	280.73
2209.0000	279.707
2210.0000	283.053
2211.0000	282.646
2212.0000	279.411
2213.0000	279.967
2214.0000	279.704
2215.0000	279.72
2216.0000	277.734
2217.0000	278.812
2218.0000	278.756
2219.0000	276.862
2220.0000	276.658
2221.0000	276.204
2222.0000	276.263
2223.0000	277.613
2224.0000	278.947
2225.0000	280.31
2226.0000	282.547
2227.0000	280.381
2228.0000	277.174
2229.0000	276.604
2230.0000	275.669
2231.0000	276.539
2232.0000	280.916
2233.0000	283.872
2234.0000	282.824
2235.0000	278.573
2236.0000	279.708
2237.0000	282.644
2238.0000	281.031
2239.0000	275.281
2240.0000	276.378
2241.0000	277.998
2242.0000	276.664
2243.0000	277.771
2244.0000	278.055
2245.0000	279.934
2246.0000	281.984
2247.0000	281.483
2248.0000	278.571
2249.0000	277.192
2250.0000	279.612
2251.0000	281.146
2252.0000	277.699
2253.0000	276.679
2254.0000	277.725
2255.0000	277.928
2256.0000	279.619
2257.0000	279.946
2258.0000	281.851
2259.0000	283.928
2260.0000	279.84
2261.0000	277.191
2262.0000	281.966
2263.0000	283.702
2264.0000	277.346
2265.0000	275.372
2266.0000	277.721
2267.0000	278.387
2268.0000	278.985
2269.0000	278.269
2270.0000	279.039
2271.0000	280.541
2272.0000	280.029
2273.0000	278.583
2274.0000	276.833
2275.0000	279.358
2276.0000	283.7
2277.0000	284.333
2278.0000	281.817
2279.0000	278.358
2280.0000	278.751
2281.0000	280.872
2282.0000	280.761
2283.0000	278.897
2284.0000	279.627
2285.0000	280.636
2286.0000	279.649
2287.0000	280.27
2288.0000	282.007
2289.0000	281.241
2290.0000	278.234
2291.0000	279.558
2292.0000	280.418
2293.0000	280.073
2294.0000	280.545
2295.0000	281.598
2296.0000	281.312
2297.0000	278.627
2298.0000	278.595
2299.0000	281.801
2300.0000	281.974
2301.0000	280.577
2302.0000	281.841
2303.0000	280.423
2304.0000	280.631
2305.0000	280.959
2306.0000	280.139
2307.0000	280.475
2308.0000	281.134
2309.0000	281.956
2310.0000	278.627
2311.0000	278.016
2312.0000	281.219
2313.0000	278.838
2314.0000	276.275
2315.0000	278.367
2316.0000	280.703
2317.0000	280.651
2318.0000	279.894
2319.0000	279.733
2320.0000	278.09
2321.0000	279.631
2322.0000	280.234
2323.0000	278.289
2324.0000	278.707
2325.0000	280.531
2326.0000	281.274
2327.0000	280.21
2328.0000	281.189
2329.0000	282.758
2330.0000	281.173
2331.0000	281.283
2332.0000	280.939
2333.0000	279.835
2334.0000	278.618
2335.0000	277.495
2336.0000	279.32
2337.0000	279.284
2338.0000	278.951
2339.0000	280.097
2340.0000	282.111
2341.0000	282.015
2342.0000	278.722
2343.0000	279.374
2344.0000	281.677
2345.0000	280.361
2346.0000	280.105
2347.0000	281.15
2348.0000	280.186
2349.0000	279.113
2350.0000	280.906
2351.0000	282.128
2352.0000	278.841
2353.0000	280.553
2354.0000	283.711
2355.0000	283.461
2356.0000	284.123
2357.0000	282.512
2358.0000	280.965
2359.0000	279.39
2360.0000	278.781
2361.0000	281.681
2362.0000	284.741
2363.0000	282.112
2364.0000	281.254
2365.0000	283.166
2366.0000	283.756
2367.0000	281.567
2368.0000	281.137
2369.0000	282.419
2370.0000	281.927
2371.0000	281.799
2372.0000	281.019
2373.0000	280.377
2374.0000	282.01
2375.0000	282.834
2376.0000	282.24
2377.0000	282.29
2378.0000	279.098
2379.0000	281.156
2380.0000	281.738
2381.0000	278.955
2382.0000	280.25
2383.0000	278.548
2384.0000	277.134
2385.0000	280.252
2386.0000	283.134
2387.0000	282.719
2388.0000	283.67
2389.0000	284.495
2390.0000	282.837
2391.0000	282.132
2392.0000	281.67
2393.0000	282.533
2394.0000	284.533
2395.0000	282.782
2396.0000	279.91
2397.0000	280.657
2398.0000	281.285
2399.0000	280.609
2400.0000	280.355
2401.0000	280.848
2402.0000	281.533
2403.0000	282.022
2404.0000	283.017
2405.0000	284.098
2406.0000	285.39
2407.0000	283.734
2408.0000	280.536
2409.0000	283.473
2410.0000	282.441
2411.0000	280.833
2412.0000	282.543
2413.0000	283.26
2414.0000	286.188
2415.0000	285.37
2416.0000	282.488
2417.0000	282.566
2418.0000	281.833
2419.0000	281.753
2420.0000	284.713
2421.0000	284.154
2422.0000	282.516
2423.0000	282.474
2424.0000	282.193
2425.0000	281.496
2426.0000	280.131
2427.0000	279.717
2428.0000	279.634
2429.0000	282.089
2430.0000	285.71
2431.0000	283.359
2432.0000	280.657
2433.0000	283.949
2434.0000	286.835
2435.0000	282.588
2436.0000	281.485
2437.0000	284.865
2438.0000	283.342
2439.0000	283.773
2440.0000	284.414
2441.0000	281.312
2442.0000	283.477
2443.0000	286.198
2444.0000	285.924
2445.0000	284.631
2446.0000	283.646
2447.0000	285.32
2448.0000	283.679
2449.0000	281.847
2450.0000	284.574
2451.0000	286.322
2452.0000	283.247
2453.0000	283.053
2454.0000	283.666
2455.0000	283.32
2456.0000	284.744
2457.0000	282.729
2458.0000	281.902
2459.0000	283.798
2460.0000	283.261
2461.0000	283.84
2462.0000	283.488
2463.0000	282.717
2464.0000	283.575
2465.0000	286.353
2466.0000	286.903
2467.0000	282.419
2468.0000	281.745
2469.0000	281.812
2470.0000	281.583
2471.0000	280.142
2472.0000	280.077
2473.0000	283.747
2474.0000	283.068
2475.0000	280.444
2476.0000	281.202
2477.0000	282.546
2478.0000	283.115
2479.0000	284.308
2480.0000	282.683
2481.0000	279.899
2482.0000	283.205
2483.0000	285.201
2484.0000	282.587
2485.0000	282.909
2486.0000	285.402
2487.0000	283.172
2488.0000	282.338
2489.0000	284.373
2490.0000	285.358
2491.0000	287.905
2492.0000	287.469
2493.0000	282.343
2494.0000	280.848
2495.0000	283.709
2496.0000	283.9
2497.0000	281.595
2498.0000	283.248
2499.0000	285.796
2500.0000	282.013
2501.0000	283.972
2502.0000	284.765
2503.0000	281.804
2504.0000	282.789
2505.0000	284.504
2506.0000	287.267
2507.0000	287.053
2508.0000	285.69
2509.0000	285.089
2510.0000	281.768
2511.0000	281.121
2512.0000	281.616
2513.0000	282.029
2514.0000	283.539
2515.0000	284.898
2516.0000	284.697
2517.0000	283.106
2518.0000	282.771
2519.0000	285.346
2520.0000	284.086
2521.0000	281.371
2522.0000	283.201
2523.0000	285.135
2524.0000	287.699
2525.0000	288.229
2526.0000	287.821
2527.0000	288.381
2528.0000	285.44
2529.0000	281.157
2530.0000	284.001
2531.0000	286.074
2532.0000	284.88
2533.0000	285.105
2534.0000	286.38
2535.0000	285.629
2536.0000	286.177
2537.0000	289.033
2538.0000	287.336
2539.0000	284.11
2540.0000	284.673
2541.0000	285.408
2542.0000	285.25
2543.0000	284.257
2544.0000	280.999
2545.0000	281.791
2546.0000	284.292
2547.0000	283.538
2548.0000	285.797
2549.0000	289.494
2550.0000	291.674
2551.0000	291.369
2552.0000	286.452
2553.0000	285.267
2554.0000	288.507
2555.0000	284.595
2556.0000	284.328
2557.0000	285.327
2558.0000	286.079
2559.0000	290.344
2560.0000	289.582
2561.0000	287.633
2562.0000	285.33
2563.0000	283.497
2564.0000	286.475
2565.0000	286.923
2566.0000	283.21
2567.0000	284.726
2568.0000	285.445
2569.0000	286.337
2570.0000	287.759
2571.0000	290.237
2572.0000	288.683
2573.0000	284.568
2574.0000	287.495
2575.0000	286.339
2576.0000	282.338
2577.0000	284.913
2578.0000	286.949
2579.0000	286.464
2580.0000	285.793
2581.0000	284.103
2582.0000	285.968
2583.0000	289.984
2584.0000	287.383
2585.0000	283.606
2586.0000	282.97
2587.0000	286.474
2588.0000	287.461
2589.0000	284.878
2590.0000	285.725
2591.0000	283.426
2592.0000	283.552
2593.0000	286.289
2594.0000	287.074
2595.0000	288.189
2596.0000	287.26
2597.0000	285.938
2598.0000	285.353
2599.0000	285.45
2600.0000	284.824
2601.0000	285.714
2602.0000	286.439
2603.0000	282.469
2604.0000	284.38
2605.0000	287.284
2606.0000	283.977
2607.0000	285.866
2608.0000	288.302
2609.0000	286.543
2610.0000	286.777
2611.0000	287.186
2612.0000	285.399
2613.0000	283.591
2614.0000	285.276
2615.0000	285.971
2616.0000	285.969
2617.0000	284.477
2618.0000	282.341
2619.0000	283.675
2620.0000	286.595
2621.0000	292.11
2622.0000	292.852
2623.0000	289.518
2624.0000	288.154
2625.0000	287.053
2626.0000	284.734
2627.0000	284.225
2628.0000	285.851
2629.0000	286.067
2630.0000	287.512
2631.0000	285.93
2632.0000	284.096
2633.0000	285.261
2634.0000	286.1
2635.0000	285.465
2636.0000	285.888
2637.0000	288.797
2638.0000	288.551
2639.0000	285.986
2640.0000	284.995
2641.0000	285.767
2642.0000	287.357
2643.0000	287.093
2644.0000	286.405
2645.0000	287.565
2646.0000	287.563
2647.0000	285.248
2648.0000	285.853
2649.0000	284.862
2650.0000	285.172
2651.0000	283.83
2652.0000	283.41
2653.0000	286.571
2654.0000	287.398
2655.0000	291.016
2656.0000	291.085
2657.0000	287.836
2658.0000	287.383
2659.0000	285.217
2660.0000	285.911
2661.0000	289.628
2662.0000	288.502
2663.0000	288.093
2664.0000	289.372
2665.0000	291.14
2666.0000	289.832
2667.0000	286.219
2668.0000	286.697
2669.0000	288.195
2670.0000	286.73
2671.0000	285.65
2672.0000	284.768
2673.0000	286.81
2674.0000	289.784
2675.0000	287.931
2676.0000	284.952
2677.0000	284.689
2678.0000	287.692
2679.0000	288.864
2680.0000	288.992
2681.0000	286.86
2682.0000	282.645
2683.0000	284.943
2684.0000	285.924
2685.0000	285.277
2686.0000	288.659
2687.0000	286.25
2688.0000	282.738
2689.0000	285.138
2690.0000	287.18
2691.0000	286.764
2692.0000	284.063
2693.0000	286.09
2694.0000	288.298
2695.0000	287.099
2696.0000	286.787
2697.0000	285.224
2698.0000	286.871
2699.0000	288.61
2700.0000	287.352
2701.0000	286.677
2702.0000	285.329
2703.0000	286.352
2704.0000	290.123
2705.0000	292.159
2706.0000	289.499
2707.0000	287.216
2708.0000	290.533
2709.0000	290.006
2710.0000	287.524
2711.0000	287.052
2712.0000	286.838
2713.0000	287.502
2714.0000	287.365
2715.0000	288.24
2716.0000	289.337
2717.0000	288.032
2718.0000	284.921
2719.0000	282.98
2720.0000	283.119
2721.0000	288.006
2722.0000	289.56
2723.0000	288.801
2724.0000	288.064
2725.0000	287.353
2726.0000	289.275
2727.0000	287.521
2728.0000	288.248
2729.0000	291.292
2730.0000	292.658
2731.0000	293.153
2732.0000	291.86
2733.0000	288.029
2734.0000	286.34
2735.0000	284.73
2736.0000	284.668
2737.0000	286.305
2738.0000	285.705
2739.0000	286.081
2740.0000	288.602
2741.0000	289.067
2742.0000	287.325
2743.0000	287.328
2744.0000	287.236
2745.0000	287.831
2746.0000	286.761
2747.0000	288.131
2748.0000	288.782
2749.0000	288.334
2750.0000	291.667
2751.0000	289.86
2752.0000	286.741
2753.0000	289.174
2754.0000	290.36
2755.0000	287.527
2756.0000	285.059
2757.0000	284.709
2758.0000	287.671
2759.0000	287.448
2760.0000	285.51
2761.0000	287.684
2762.0000	290.332
2763.0000	290.054
2764.0000	288.114
2765.0000	289.624
2766.0000	289.569
2767.0000	288.25
2768.0000	289.548
2769.0000	291.168
2770.0000	288.706
2771.0000	285.31
2772.0000	289.036
2773.0000	289.546
2774.0000	287.988
2775.0000	288.327
2776.0000	287.704
2777.0000	286.912
2778.0000	286.145
2779.0000	287.123
2780.0000	287.529
2781.0000	288.362
2782.0000	287.018
2783.0000	287.328
2784.0000	288.889
2785.0000	289.702
2786.0000	290.105
2787.0000	288.679
2788.0000	288.382
2789.0000	289.425
2790.0000	290.435
2791.0000	287.832
2792.0000	286.124
2793.0000	284.862
2794.0000	285.517
2795.0000	289.955
2796.0000	292.186
2797.0000	290.002
2798.0000	289.776
2799.0000	292.117
2800.0000	288.177
2801.0000	285.98
2802.0000	289.68
2803.0000	290.039
2804.0000	288.052
2805.0000	286.721
2806.0000	287.999
2807.0000	288.279
2808.0000	289.35
2809.0000	289.875
2810.0000	289.778
2811.0000	290.627
2812.0000	289.701
2813.0000	290.476
2814.0000	290.845
2815.0000	290.288
2816.0000	289.403
2817.0000	288.019
2818.0000	287.775
2819.0000	291.513
2820.0000	292.183
2821.0000	289.557
2822.0000	291.7
2823.0000	294.209
2824.0000	291.696
2825.0000	290.77
2826.0000	291.436
2827.0000	289.503
2828.0000	290.767
2829.0000	291.633
2830.0000	289.261
2831.0000	288.733
2832.0000	288.947
2833.0000	289.871
2834.0000	290.231
2835.0000	289.769
2836.0000	290.146
2837.0000	289.808
2838.0000	289.246
2839.0000	292.128
2840.0000	291.62
2841.0000	287.575
2842.0000	287.565
2843.0000	286.592
2844.0000	287.918
2845.0000	289.907
2846.0000	288.088
2847.0000	288.048
2848.0000	289.936
2849.0000	288.981
2850.0000	290.411
2851.0000	291.888
2852.0000	290.582
2853.0000	289.582
2854.0000	289.264
2855.0000	289.11
2856.0000	290.795
2857.0000	293.497
2858.0000	294.696
2859.0000	293.689
2860.0000	291.981
2861.0000	291.139
2862.0000	290.478
2863.0000	290.368
2864.0000	288.35
2865.0000	291.308
2866.0000	291.644
2867.0000	290.089
2868.0000	289.903
2869.0000	289.46
2870.0000	290.945
2871.0000	290.077
2872.0000	288.314
2873.0000	288.063
2874.0000	289.276
2875.0000	290.848
2876.0000	289.041
2877.0000	287.24
2878.0000	290.229
2879.0000	289.863
2880.0000	289.15
2881.0000	291.168
2882.0000	290.029
2883.0000	288.221
2884.0000	289.409
2885.0000	292.612
2886.0000	292.449
2887.0000	291.265
2888.0000	292.683
2889.0000	292.57
2890.0000	291.299
2891.0000	289.701
2892.0000	291.124
2893.0000	290.805
2894.0000	291.172
2895.0000	289.583
2896.0000	286.899
2897.0000	290.041
2898.0000	292.956
2899.0000	291.781
2900.0000	289.678
2901.0000	292.997
2902.0000	290.279
2903.0000	289.847
2904.0000	291.222
2905.0000	290.811
2906.0000	292.215
2907.0000	293.315
2908.0000	291.699
2909.0000	288.041
2910.0000	289.972
2911.0000	293.2
2912.0000	292.318
2913.0000	289.936
2914.0000	290.139
2915.0000	288.908
2916.0000	289.717
2917.0000	290.891
2918.0000	288.545
2919.0000	289.831
2920.0000	291.135
2921.0000	287.636
2922.0000	287.13
2923.0000	287.652
2924.0000	286.205
2925.0000	286.792
2926.0000	289.077
2927.0000	292.656
2928.0000	293.846
2929.0000	292.924
2930.0000	291.739
2931.0000	291.837
2932.0000	292.816
2933.0000	289.912
2934.0000	289.04
2935.0000	290.599
2936.0000	292.282
2937.0000	292.679
2938.0000	290.273
2939.0000	289.671
2940.0000	288.749
2941.0000	289.518
2942.0000	290.667
2943.0000	291.633
2944.0000	292.277
2945.0000	291.033
2946.0000	291.444
2947.0000	289.758
2948.0000	291.115
2949.0000	293.316
2950.0000	294.811
2951.0000	292.697
2952.0000	291.052
2953.0000	289.767
2954.0000	287.348
2955.0000	291.774
2956.0000	293.005
2957.0000	293.514
2958.0000	291.47
2959.0000	291.166
2960.0000	295.663
2961.0000	294.652
2962.0000	291.724
2963.0000	291.991
2964.0000	293.027
2965.0000	292.749
2966.0000	292.543
2967.0000	289.773
2968.0000	289.563
2969.0000	289.879
2970.0000	290.895
2971.0000	291
2972.0000	291.321
2973.0000	294.587
2974.0000	292.654
2975.0000	292.111
2976.0000	296.275
2977.0000	297.39
2978.0000	293.475
2979.0000	292.873
2980.0000	291.173
2981.0000	287.313
2982.0000	288.342
2983.0000	290.904
2984.0000	290.401
2985.0000	289.941
2986.0000	290.511
2987.0000	289.847
2988.0000	288.835
2989.0000	287.022
2990.0000	288.578
2991.0000	289.947
2992.0000	293.116
2993.0000	292.401
2994.0000	291.844
2995.0000	295.257
2996.0000	290.409
2997.0000	285.697
2998.0000	288.289
2999.0000	291.492
3000.0000	293.195
3001.0000	295.01
3002.0000	292.091
3003.0000	290.164
3004.0000	293.304
3005.0000	296.364
3006.0000	295.396
3007.0000	294.205
3008.0000	295.035
3009.0000	294.191
3010.0000	292.655
3011.0000	293.478
3012.0000	292.628
3013.0000	291.959
3014.0000	291.308
3015.0000	291.84
3016.0000	293.439
3017.0000	292.688
3018.0000	290.557
3019.0000	291.053
3020.0000	293.316
3021.0000	291.94
3022.0000	290.223
3023.0000	288.552
3024.0000	290.092
3025.0000	293.285
3026.0000	293.623
3027.0000	292.906
3028.0000	292.797
3029.0000	293.845
3030.0000	291.896
3031.0000	290.458
3032.0000	292.265
3033.0000	290.999
3034.0000	292.158
3035.0000	297.022
3036.0000	294.651
3037.0000	291.723
3038.0000	294.014
3039.0000	293.672
3040.0000	291.502
3041.0000	289.722
3042.0000	290.44
3043.0000	291.602
3044.0000	290.246
3045.0000	291.36
3046.0000	292.707
3047.0000	293.185
3048.0000	291.517
3049.0000	290.69
3050.0000	291.862
3051.0000	293.105
3052.0000	294.544
3053.0000	292.759
3054.0000	290.745
3055.0000	289.375
3056.0000	290.036
3057.0000	292.511
3058.0000	290.815
3059.0000	293.255
3060.0000	292.871
3061.0000	288.261
3062.0000	291.957
3063.0000	292.747
3064.0000	291.362
3065.0000	292.188
3066.0000	291.14
3067.0000	292.071
3068.0000	293.277
3069.0000	293.287
3070.0000	292.585
3071.0000	293.087
3072.0000	293.227
3073.0000	290.955
3074.0000	291.035
3075.0000	292.038
3076.0000	292.272
3077.0000	290.808
3078.0000	294.282
3079.0000	296.455
3080.0000	295.625
3081.0000	294.454
3082.0000	292.308
3083.0000	294.135
3084.0000	292.249
3085.0000	291.158
3086.0000	294.093
3087.0000	293.125
3088.0000	293.594
3089.0000	291.867
3090.0000	289.777
3091.0000	290.772
3092.0000	292.528
3093.0000	293.938
3094.0000	291.996
3095.0000	293.404
3096.0000	297.121
3097.0000	294.733
3098.0000	291.256
3099.0000	290.441
3100.0000	290.634
3101.0000	293.461
3102.0000	293.996
3103.0000	292.85
3104.0000	293.126
3105.0000	291.124
3106.0000	291.48
3107.0000	294.709
3108.0000	292.91
3109.0000	292.291
3110.0000	291.804
3111.0000	290.981
3112.0000	291.422
3113.0000	289.696
3114.0000	288.619
3115.0000	291.816
3116.0000	293.745
3117.0000	294.11
3118.0000	295.086
3119.0000	294.04
3120.0000	295.756
3121.0000	296.432
3122.0000	295.164
3123.0000	294.423
3124.0000	291.642
3125.0000	291.913
3126.0000	292.466
3127.0000	288.883
3128.0000	290.724
3129.0000	293.733
3130.0000	291.735
3131.0000	292.76
3132.0000	296.604
3133.0000	294.818
3134.0000	293.582
3135.0000	291.696
3136.0000	288.909
3137.0000	290.922
3138.0000	291.073
3139.0000	291.191
3140.0000	292.523
3141.0000	292.05
3142.0000	292.257
3143.0000	291.872
3144.0000	292.091
3145.0000	293.652
3146.0000	292.792
3147.0000	293.866
3148.0000	292.107
3149.0000	289.144
3150.0000	290.887
3151.0000	293.966
3152.0000	293.244
3153.0000	292.818
3154.0000	291.974
3155.0000	290.629
3156.0000	294.334
3157.0000	294.186
3158.0000	291.875
3159.0000	291.459
3160.0000	291.628
3161.0000	292.44
3162.0000	292.493
3163.0000	290.878
3164.0000	292.011
3165.0000	290.558
3166.0000	290.344
3167.0000	294.75
3168.0000	294.176
3169.0000	292.896
3170.0000	292.127
3171.0000	294.571
3172.0000	297.051
3173.0000	296.626
3174.0000	293.987
3175.0000	293.12
3176.0000	291.399
3177.0000	291.481
3178.0000	295.74
3179.0000	294.125
3180.0000	292.088
3181.0000	291.959
3182.0000	294.192
3183.0000	296.036
3184.0000	295.938
3185.0000	293.488
3186.0000	290.784
3187.0000	292.183
3188.0000	293.81
3189.0000	290.3
3190.0000	287.931
3191.0000	291.583
3192.0000	291.978
3193.0000	293.034
3194.0000	295.848
3195.0000	295.935
3196.0000	294.327
3197.0000	291.271
3198.0000	291.808
3199.0000	293.253
3200.0000	292.93
3201.0000	292.174
3202.0000	290.63
3203.0000	292.714
3204.0000	296.319
3205.0000	296.197
3206.0000	294.208
3207.0000	293.906
3208.0000	292.257
3209.0000	292.501
3210.0000	293.737
3211.0000	293.934
3212.0000	294.296
3213.0000	291.991
3214.0000	291.495
3215.0000	293.82
3216.0000	295.388
3217.0000	296.149
3218.0000	296.774
3219.0000	293.434
3220.0000	291.142
3221.0000	295.624
3222.0000	298.88
3223.0000	295.982
3224.0000	296.399
3225.0000	296.809
3226.0000	292.77
3227.0000	292.978
3228.0000	293.563
3229.0000	290.879
3230.0000	291.834
3231.0000	293.551
3232.0000	293.74
3233.0000	295.954
3234.0000	297.98
3235.0000	297.062
3236.0000	293.25
3237.0000	294.436
3238.0000	292.081
3239.0000	289.87
3240.0000	296.729
3241.0000	298.205
3242.0000	297.353
3243.0000	295.019
3244.0000	294.258
3245.0000	292.718
3246.0000	291.571
3247.0000	294.632
3248.0000	296.499
3249.0000	296.784
3250.0000	297.742
3251.0000	296.647
3252.0000	295.494
3253.0000	294.062
3254.0000	297.109
3255.0000	298.606
3256.0000	295.935
3257.0000	296.574
3258.0000	292.914
3259.0000	294.399
3260.0000	294.403
3261.0000	294.482
3262.0000	294.165
3263.0000	291.771
3264.0000	294.961
3265.0000	297.418
3266.0000	296.638
3267.0000	295.735
3268.0000	297.47
3269.0000	300.951
3270.0000	300.444
3271.0000	294.528
3272.0000	292.11
3273.0000	295.685
3274.0000	298.489
3275.0000	299.175
3276.0000	297.864
3277.0000	293.752
3278.0000	290.345
3279.0000	290.941
3280.0000	291.438
3281.0000	294.57
3282.0000	298.418
3283.0000	297.542
3284.0000	297.69
3285.0000	296.529
3286.0000	296.229
3287.0000	296.238
3288.0000	295.584
3289.0000	295.008
3290.0000	293.838
3291.0000	292.999
3292.0000	294.206
3293.0000	296.699
3294.0000	296.997
3295.0000	296.287
3296.0000	297.297
3297.0000	294.991
3298.0000	292.884
3299.0000	297.906
3300.0000	296.095
3301.0000	293.231
3302.0000	293.889
3303.0000	292.004
3304.0000	292.862
3305.0000	292.863
3306.0000	295.223
3307.0000	298.156
3308.0000	297.5
3309.0000	294.643
3310.0000	296.569
3311.0000	298.441
3312.0000	294.157
3313.0000	293.077
3314.0000	293.277
3315.0000	294.348
3316.0000	295.5
3317.0000	295.952
3318.0000	297.068
3319.0000	296.705
3320.0000	296.373
3321.0000	296.791
3322.0000	294.049
3323.0000	293.37
3324.0000	295.972
3325.0000	296.439
3326.0000	297.784
3327.0000	296.979
3328.0000	295.95
3329.0000	298.09
3330.0000	299.781
3331.0000	300.499
3332.0000	299.554
3333.0000	297.082
3334.0000	294.698
3335.0000	295.173
3336.0000	293.67
3337.0000	294.014
3338.0000	292.762
3339.0000	294.813
3340.0000	298.249
3341.0000	293.681
3342.0000	293.405
3343.0000	294.728
3344.0000	293.883
3345.0000	293.546
3346.0000	295.787
3347.0000	295.963
3348.0000	293.917
3349.0000	293.169
3350.0000	292.264
3351.0000	293.301
3352.0000	295.136
3353.0000	295.694
3354.0000	296.059
3355.0000	296.377
3356.0000	296.946
3357.0000	295.702
3358.0000	293.121
3359.0000	294.4
3360.0000	296.718
3361.0000	297.683
3362.0000	298.226
3363.0000	297.629
3364.0000	296.124
3365.0000	295.512
3366.0000	295.313
3367.0000	295.668
3368.0000	298.748
3369.0000	297.818
3370.0000	295.656
3371.0000	297.372
3372.0000	296.721
3373.0000	295.515
3374.0000	297.061
3375.0000	297.134
3376.0000	295.656
3377.0000	294.198
3378.0000	296.049
3379.0000	297.321
3380.0000	295.483
3381.0000	295.163
3382.0000	294.822
3383.0000	292.037
3384.0000	295.13
3385.0000	297.46
3386.0000	297.869
3387.0000	299.806
3388.0000	296.83
3389.0000	295.624
3390.0000	296.272
3391.0000	296.919
3392.0000	295.671
3393.0000	295.409
3394.0000	298.436
3395.0000	301.6
3396.0000	298.614
3397.0000	294.641
3398.0000	294.307
3399.0000	297.145
3400.0000	297.534
3401.0000	295.38
3402.0000	295.675
3403.0000	296.795
3404.0000	298.812
3405.0000	301.84
3406.0000	301.306
3407.0000	297.004
3408.0000	295.246
3409.0000	293.736
3410.0000	294.21
3411.0000	295.933
3412.0000	296.118
3413.0000	295.843
3414.0000	295.983
3415.0000	297.742
3416.0000	298.833
3417.0000	295.313
3418.0000	294.09
3419.0000	296.198
3420.0000	298.328
3421.0000	296.652
3422.0000	294.993
3423.0000	299.255
3424.0000	299.03
3425.0000	297.775
3426.0000	298.951
3427.0000	298.632
3428.0000	297.701
3429.0000	298.774
3430.0000	297.234
3431.0000	293.518
3432.0000	293.843
3433.0000	295.671
3434.0000	293.925
3435.0000	293.171
3436.0000	293.591
3437.0000	294.012
3438.0000	296.716
3439.0000	296.519
3440.0000	296.69
3441.0000	297.158
3442.0000	297.848
3443.0000	296.542
3444.0000	296.463
3445.0000	298.568
3446.0000	296.176
3447.0000	295.946
3448.0000	297.184
3449.0000	294.681
3450.0000	293.755
3451.0000	299.487
3452.0000	300.01
3453.0000	297.293
3454.0000	297.287
3455.0000	294.879
3456.0000	295.8
3457.0000	297.533
3458.0000	298.519
3459.0000	299.528
3460.0000	299.598
3461.0000	297.462
3462.0000	297.977
3463.0000	298.816
3464.0000	296.159
3465.0000	295.281
3466.0000	294.906
3467.0000	295.741
3468.0000	297.355
3469.0000	296.924
3470.0000	294.172
3471.0000	293.94
3472.0000	297.909
3473.0000	299.531
3474.0000	298.19
3475.0000	296.717
3476.0000	297.482
3477.0000	299.241
3478.0000	295.935
3479.0000	294.924
3480.0000	298.658
3481.0000	297.004
3482.0000	294.314
3483.0000	296.651
3484.0000	298.488
3485.0000	298.627
3486.0000	297.356
3487.0000	297.597
3488.0000	299.897
3489.0000	300.425
3490.0000	299.029
3491.0000	297.514
3492.0000	296.449
3493.0000	297.581
3494.0000	296.34
3495.0000	295.586
3496.0000	298.602
3497.0000	298.486
3498.0000	298.664
3499.0000	296.098
3500.0000	292.435
3501.0000	295.691
3502.0000	298.04
3503.0000	297.213
3504.0000	297.659
3505.0000	298.184
3506.0000	297.03
3507.0000	296.085
3508.0000	299.974
3509.0000	299.046
3510.0000	295.755
3511.0000	297.304
3512.0000	298.768
3513.0000	298.917
3514.0000	300.224
3515.0000	301.388
3516.0000	298.903
3517.0000	296.532
3518.0000	299.41
3519.0000	300.269
3520.0000	296.545
3521.0000	296.624
3522.0000	298.804
3523.0000	299.463
3524.0000	301.24
3525.0000	298.823
3526.0000	295.048
3527.0000	296.818
3528.0000	295.598
3529.0000	294.61
3530.0000	295.691
3531.0000	297.666
3532.0000	298.912
3533.0000	296.003
3534.0000	295.939
3535.0000	296.62
3536.0000	296.105
3537.0000	295.733
3538.0000	294.271
3539.0000	296.659
3540.0000	298.717
3541.0000	295.412
3542.0000	295.211
3543.0000	298.125
3544.0000	299.874
3545.0000	300.144
3546.0000	298.11
3547.0000	297.44
3548.0000	297.047
3549.0000	296.631
3550.0000	297.707
3551.0000	296.666
3552.0000	294.436
3553.0000	296.694
3554.0000	299.769
3555.0000	301.074
3556.0000	297.921
3557.0000	294.689
3558.0000	295.879
3559.0000	297.044
3560.0000	298.388
3561.0000	297.608
3562.0000	296.062
3563.0000	296.546
3564.0000	295.612
3565.0000	296.93
3566.0000	296.365
3567.0000	295.985
3568.0000	296.942
3569.0000	297.569
3570.0000	298.548
3571.0000	294.879
3572.0000	295.714
3573.0000	298.454
3574.0000	298.409
3575.0000	300.351
3576.0000	299.995
3577.0000	300.142
3578.0000	301.007
3579.0000	298.001
3580.0000	298.231
3581.0000	297.341
3582.0000	295.708
3583.0000	297.81
3584.0000	298.385
3585.0000	296.175
3586.0000	295.764
3587.0000	299.571
3588.0000	297.605
3589.0000	296.826
3590.0000	297.239
3591.0000	294.673
3592.0000	295.408
3593.0000	299.137
3594.0000	300.895
3595.0000	299.567
3596.0000	299.299
3597.0000	300.861
3598.0000	302.875
3599.0000	302.103
3600.0000	300.094
3601.0000	296.633
3602.0000	295.175
3603.0000	294.766
3604.0000	293.062
3605.0000	296.125
3606.0000	298.683
3607.0000	297.001
3608.0000	294.424
3609.0000	294.693
3610.0000	295.724
3611.0000	297.686
3612.0000	298
3613.0000	295.976
3614.0000	297.942
3615.0000	296.642
3616.0000	294.633
3617.0000	296.141
3618.0000	298.333
3619.0000	299.76
3620.0000	299.219
3621.0000	297.962
3622.0000	298.6
3623.0000	297.937
3624.0000	297.759
3625.0000	298.521
3626.0000	298.11
3627.0000	297.556
3628.0000	299.552
3629.0000	300.475
3630.0000	297.188
3631.0000	296.986
3632.0000	298.34
3633.0000	296.665
3634.0000	296.437
3635.0000	297.803
3636.0000	297.005
3637.0000	296.042
3638.0000	296.841
3639.0000	298.003
3640.0000	297.192
3641.0000	298.725
3642.0000	298.993
3643.0000	298.388
3644.0000	295.337
3645.0000	292.553
3646.0000	297.519
3647.0000	300.471
3648.0000	300.903
3649.0000	299.627
3650.0000	299.392
3651.0000	299.206
3652.0000	299.116
3653.0000	299.19
3654.0000	300.199
3655.0000	301.865
3656.0000	298.863
3657.0000	297.945
3658.0000	301.088
3659.0000	302.256
3660.0000	301.032
3661.0000	301.558
3662.0000	302.511
3663.0000	301.04
3664.0000	301.019
3665.0000	301.529
3666.0000	301.393
3667.0000	298.465
3668.0000	297.367
3669.0000	298.514
3670.0000	297.827
3671.0000	297.821
3672.0000	297.029
3673.0000	298.671
3674.0000	299.192
3675.0000	297.069
3676.0000	298.727
3677.0000	301.55
3678.0000	300.08
3679.0000	297.78
3680.0000	296.902
3681.0000	298.427
3682.0000	301.942
3683.0000	302.201
3684.0000	299.42
3685.0000	296.327
3686.0000	296.954
3687.0000	298.718
3688.0000	300.85
3689.0000	300.674
3690.0000	295.081
3691.0000	296.623
3692.0000	301.954
3693.0000	302.721
3694.0000	302.375
3695.0000	299.258
3696.0000	297.104
3697.0000	300.3
3698.0000	300.752
3699.0000	297.869
3700.0000	296.913
3701.0000	298.252
3702.0000	299.142
3703.0000	299.513
3704.0000	298.861
3705.0000	299.383
3706.0000	301.284
3707.0000	301.039
3708.0000	298.692
3709.0000	296.75
3710.0000	297.653
3711.0000	299.331
3712.0000	302.181
3713.0000	302.988
3714.0000	296.94
3715.0000	296.289
3716.0000	302.533
3717.0000	301.583
3718.0000	298.262
3719.0000	296.273
3720.0000	295.01
3721.0000	296.863
3722.0000	298.032
3723.0000	296.763
3724.0000	299.888
3725.0000	300.144
3726.0000	297.829
3727.0000	296.969
3728.0000	295.658
3729.0000	298.108
3730.0000	299.167
3731.0000	299.251
3732.0000	297.066
3733.0000	294.968
3734.0000	297.769
3735.0000	301.156
3736.0000	299.506
3737.0000	298.573
3738.0000	297.759
3739.0000	296.724
3740.0000	297.629
3741.0000	297.711
3742.0000	298.227
3743.0000	298.109
3744.0000	298.602
3745.0000	300.43
3746.0000	301.458
3747.0000	299.677
3748.0000	296.915
3749.0000	298.302
3750.0000	300.4
3751.0000	301.059
3752.0000	299.314
3753.0000	296.464
3754.0000	298.415
3755.0000	301.95
3756.0000	302.205
3757.0000	301.852
3758.0000	299.867
3759.0000	298.918
3760.0000	301.593
3761.0000	299.028
3762.0000	296.725
3763.0000	297.429
3764.0000	298.098
3765.0000	298.764
3766.0000	297.249
3767.0000	298.977
3768.0000	301.32
3769.0000	299.077
3770.0000	298.104
3771.0000	299.848
3772.0000	303.184
3773.0000	298.927
3774.0000	294.974
3775.0000	298.688
3776.0000	301.368
3777.0000	302.088
3778.0000	302.326
3779.0000	301.13
3780.0000	300.974
3781.0000	303.043
3782.0000	300.342
3783.0000	300.619
3784.0000	302.764
3785.0000	301.277
3786.0000	301.8
3787.0000	301.021
3788.0000	300.859
3789.0000	301.53
3790.0000	304.211
3791.0000	303.715
3792.0000	299.443
3793.0000	300.263
3794.0000	300.835
3795.0000	300.474
3796.0000	302.903
3797.0000	302.955
3798.0000	300.782
3799.0000	300.265
3800.0000	299.401
3801.0000	303.202
3802.0000	303.037
3803.0000	299.328
3804.0000	300.237
3805.0000	299.933
3806.0000	300.02
3807.0000	300.701
3808.0000	299.269
3809.0000	299.913
3810.0000	299.089
3811.0000	299.14
3812.0000	301.276
3813.0000	300.498
3814.0000	301.037
3815.0000	301.443
3816.0000	302.418
3817.0000	300.845
3818.0000	299.285
3819.0000	300.211
3820.0000	297.918
3821.0000	297.077
3822.0000	296.818
3823.0000	295.914
3824.0000	298.813
3825.0000	298.526
3826.0000	298.242
3827.0000	300.318
3828.0000	300.609
3829.0000	301.212
3830.0000	301.513
3831.0000	298.177
3832.0000	296.15
3833.0000	298.797
3834.0000	298.882
3835.0000	298.9
3836.0000	300.736
3837.0000	300.306
3838.0000	299.595
3839.0000	301.101
3840.0000	299.98
3841.0000	297.692
3842.0000	299.96
3843.0000	305.32
3844.0000	305.045
3845.0000	299.98
3846.0000	298.494
3847.0000	297.529
3848.0000	297.209
3849.0000	300.107
3850.0000	300.903
3851.0000	298.45
3852.0000	301.051
3853.0000	299.845
3854.0000	295.56
3855.0000	299.935
3856.0000	300.204
3857.0000	299.138
3858.0000	301.402
3859.0000	301.192
3860.0000	301.153
3861.0000	301.409
3862.0000	302.799
3863.0000	300.063
3864.0000	297.209
3865.0000	299.17
3866.0000	299.677
3867.0000	300.804
3868.0000	299.238
3869.0000	299.365
3870.0000	299.972
3871.0000	298.592
3872.0000	301.142
3873.0000	300.736
3874.0000	299.713
3875.0000	300.636
3876.0000	298.461
3877.0000	296.31
3878.0000	298.428
3879.0000	301.026
3880.0000	303.204
3881.0000	302.087
3882.0000	300.534
3883.0000	302.576
3884.0000	304.079
3885.0000	302.933
3886.0000	301.982
3887.0000	299.253
3888.0000	298.532
3889.0000	297.608
3890.0000	296.881
3891.0000	300.039
3892.0000	298.871
3893.0000	298.651
3894.0000	298.367
3895.0000	302.078
3896.0000	302.421
3897.0000	299.017
3898.0000	300.385
3899.0000	300.229
3900.0000	299.032
3901.0000	299.647
3902.0000	301.186
3903.0000	302.8
3904.0000	300.725
3905.0000	298.137
3906.0000	298.302
3907.0000	298.886
3908.0000	300.463
3909.0000	300.365
3910.0000	300.967
3911.0000	301.469
3912.0000	300.916
3913.0000	300.309
3914.0000	301.104
3915.0000	302.877
3916.0000	303.018
3917.0000	299.892
3918.0000	300.049
3919.0000	300.412
3920.0000	294.831
3921.0000	293.012
3922.0000	297.684
3923.0000	302.583
3924.0000	301.452
3925.0000	299.57
3926.0000	300.854
3927.0000	302.902
3928.0000	301.233
3929.0000	299.29
3930.0000	300.53
3931.0000	299.251
3932.0000	298.564
3933.0000	302.431
3934.0000	304.016
3935.0000	299.738
3936.0000	298.913
3937.0000	301.158
3938.0000	299.667
3939.0000	298.978
3940.0000	299.309
3941.0000	299.547
3942.0000	301.411
3943.0000	301.674
3944.0000	302.601
3945.0000	301.419
3946.0000	298.018
3947.0000	298.397
3948.0000	301.294
3949.0000	301.076
3950.0000	298.443
3951.0000	299.217
3952.0000	301.114
3953.0000	302.816
3954.0000	303.518
3955.0000	302.618
3956.0000	302.11
3957.0000	300.919
3958.0000	299.722
3959.0000	301.379
3960.0000	299.172
3961.0000	296.482
3962.0000	300.187
3963.0000	300.016
3964.0000	299.359
3965.0000	299.466
3966.0000	301.345
3967.0000	303.713
3968.0000	300.709
3969.0000	300.899
3970.0000	300.427
3971.0000	299.278
3972.0000	300.355
3973.0000	301.133
3974.0000	300.665
3975.0000	299.181
3976.0000	298.762
3977.0000	300.602
3978.0000	304.858
3979.0000	302.992
3980.0000	298.553
3981.0000	298.936
3982.0000	300.231
3983.0000	298.906
3984.0000	298.556
3985.0000	299.16
3986.0000	298.642
3987.0000	300.536
3988.0000	300.066
3989.0000	299.108
3990.0000	300.498
3991.0000	300.013
3992.0000	299.617
3993.0000	301.686
3994.0000	303.345
3995.0000	303.906
3996.0000	303.565
3997.0000	301.543
3998.0000	302.03
3999.0000	303.361
4000.0000	301.557
4001.0000	301.403
4002.0000	302.146
4003.0000	301.294
4004.0000	302.865
4005.0000	305.405
4006.0000	305.486
4007.0000	301.287
4008.0000	299.563
4009.0000	299.834
4010.0000	297.917
4011.0000	298.481
4012.0000	302.522
4013.0000	301.422
4014.0000	297.946
4015.0000	294.86
4016.0000	295.06
4017.0000	296.953
4018.0000	297.973
4019.0000	300.701
4020.0000	298.613
4021.0000	299.437
4022.0000	298.102
4023.0000	299.708
4024.0000	302.482
4025.0000	300.027
4026.0000	299.829
4027.0000	298.492
4028.0000	297.244
4029.0000	300.537
4030.0000	303.766
4031.0000	303.468
4032.0000	305.96
4033.0000	305.74
4034.0000	302.141
4035.0000	302.295
4036.0000	302.58
4037.0000	299.833
4038.0000	299.76
4039.0000	300.541
4040.0000	301.571
4041.0000	300.922
4042.0000	300.05
4043.0000	301.383
4044.0000	301.17
4045.0000	300.968
4046.0000	302.404
4047.0000	305.262
4048.0000	304.452
4049.0000	300.654
4050.0000	299.144
4051.0000	298.133
4052.0000	298.318
4053.0000	300.809
4054.0000	300.733
4055.0000	300.746
4056.0000	300.106
4057.0000	298.295
4058.0000	300.365
4059.0000	301.603
4060.0000	301.951
4061.0000	304.474
4062.0000	301.72
4063.0000	301.892
4064.0000	305.024
4065.0000	301.17
4066.0000	298.814
4067.0000	296.712
4068.0000	298.167
4069.0000	302.894
4070.0000	301.297
4071.0000	301.194
4072.0000	302.065
4073.0000	301.195
4074.0000	299.873
4075.0000	301.129
4076.0000	303.819
4077.0000	300.453
4078.0000	297.921
4079.0000	301.002
4080.0000	302.646
4081.0000	300.599
4082.0000	300.349
4083.0000	300.919
4084.0000	302.524
4085.0000	302.214
4086.0000	301.652
4087.0000	303.237
4088.0000	302.392
4089.0000	300.607
4090.0000	297.607
4091.0000	299.371
4092.0000	304.602
4093.0000	302.715
4094.0000	300.339
4095.0000	302.367
4096.0000	300.487
4097.0000	301.683
4098.0000	302.427
4099.0000	301.286
4100.0000	303.679
4101.0000	302.652
4102.0000	299.633
4103.0000	298.983
4104.0000	299.602
4105.0000	299.913
4106.0000	300.706
4107.0000	301.13
4108.0000	302.774
4109.0000	304.084
4110.0000	303.188
4111.0000	302.903
4112.0000	304.865
4113.0000	305.557
4114.0000	302.157
4115.0000	301.11
4116.0000	304.16
4117.0000	304.454
4118.0000	300.817
4119.0000	301.234
4120.0000	304.46
4121.0000	303.377
4122.0000	299.864
4123.0000	296.613
4124.0000	298.113
4125.0000	303.439
4126.0000	304.923
4127.0000	302.42
4128.0000	302.536
4129.0000	305.465
4130.0000	304.989
4131.0000	302.664
4132.0000	303.355
4133.0000	304.394
4134.0000	301.722
4135.0000	300.873
4136.0000	302.525
4137.0000	300.207
4138.0000	300.013
4139.0000	299.833
4140.0000	298.041
4141.0000	298.164
4142.0000	303.113
4143.0000	302.874
4144.0000	299.003
4145.0000	298.584
4146.0000	297.806
4147.0000	299.288
4148.0000	298.802
4149.0000	298.342
4150.0000	301.639
4151.0000	303.056
4152.0000	302.359
4153.0000	302.235
4154.0000	300.612
4155.0000	301.2
4156.0000	302.201
4157.0000	301.125
4158.0000	301.025
4159.0000	301.944
4160.0000	302.728
4161.0000	302.122
4162.0000	305.131
4163.0000	308.244
4164.0000	302.242
4165.0000	300.778
4166.0000	303.638
4167.0000	300.795
4168.0000	301.78
4169.0000	300.916
4170.0000	301.744
4171.0000	302.363
4172.0000	301.067
4173.0000	301.578
4174.0000	299.19
4175.0000	300.786
4176.0000	302.531
4177.0000	299.97
4178.0000	298.257
4179.0000	299.508
4180.0000	301.434
4181.0000	299.115
4182.0000	298.466
4183.0000	300.456
4184.0000	299.546
4185.0000	298.826
4186.0000	299.877
4187.0000	301.12
4188.0000	298.369
4189.0000	298.709
4190.0000	301.983
4191.0000	302.368
4192.0000	301.469
4193.0000	301.141
4194.0000	302.229
4195.0000	303.208
4196.0000	302.149
4197.0000	300.467
4198.0000	299.353
4199.0000	299.521
4200.0000	302.351
4201.0000	306.179
4202.0000	302.173
4203.0000	298.777
4204.0000	300.525
4205.0000	300.781
4206.0000	302.284
4207.0000	300.662
4208.0000	297.246
4209.0000	299.208
4210.0000	301.079
4211.0000	299.09
4212.0000	303.794
4213.0000	305.028
4214.0000	302.563
4215.0000	303.413
4216.0000	301.743
4217.0000	301.76
4218.0000	302.446
4219.0000	303.798
4220.0000	305.882
4221.0000	306.623
4222.0000	304.52
4223.0000	301.533
4224.0000	302.429
4225.0000	302.652
4226.0000	301.89
4227.0000	302.175
4228.0000	299.169
4229.0000	298.616
4230.0000	301.779
4231.0000	302.953
4232.0000	301.003
4233.0000	301.753
4234.0000	299.788
4235.0000	299.704
4236.0000	303.696
4237.0000	299.907
4238.0000	300.149
4239.0000	303.785
4240.0000	303.788
4241.0000	300.372
4242.0000	298.588
4243.0000	300.691
4244.0000	299.835
4245.0000	301.199
4246.0000	303.109
4247.0000	301.558
4248.0000	300.335
4249.0000	299.537
4250.0000	301.661
4251.0000	304.709
4252.0000	302.862
4253.0000	298.254
4254.0000	299.49
4255.0000	301.726
4256.0000	302.305
4257.0000	303.638
4258.0000	301.804
4259.0000	298.057
4260.0000	297.126
4261.0000	299.611
4262.0000	299.653
4263.0000	297.227
4264.0000	296.343
4265.0000	296.72
4266.0000	297.36
4267.0000	299.311
4268.0000	297.775
4269.0000	296.52
4270.0000	299.613
4271.0000	300.644
4272.0000	301.005
4273.0000	299.639
4274.0000	296.972
4275.0000	297.373
4276.0000	300.088
4277.0000	299.185
4278.0000	297.095
4279.0000	297.863
4280.0000	297.98
4281.0000	298.682
4282.0000	299.807
4283.0000	299.585
4284.0000	300.599
4285.0000	298.057
4286.0000	294.982
4287.0000	297.071
4288.0000	299.685
4289.0000	300.732
4290.0000	299.49
4291.0000	294.618
4292.0000	296.153
4293.0000	298.686
4294.0000	297.364
4295.0000	297.686
4296.0000	296.264
4297.0000	299.212
4298.0000	301.079
4299.0000	297.003
4300.0000	295.938
4301.0000	301.101
4302.0000	300.677
4303.0000	299.875
4304.0000	301.76
4305.0000	300.793
4306.0000	301.477
4307.0000	301.343
4308.0000	301.742
4309.0000	301.803
4310.0000	296.121
4311.0000	296.356
4312.0000	297.872
4313.0000	299.494
4314.0000	302.503
4315.0000	299.836
4316.0000	301.02
4317.0000	301.972
4318.0000	297.857
4319.0000	298.398
4320.0000	299.103
4321.0000	300.735
4322.0000	299.966
4323.0000	296.673
4324.0000	298.904
4325.0000	302.409
4326.0000	300.317
4327.0000	298.189
4328.0000	300.68
4329.0000	301.248
4330.0000	301.339
4331.0000	301.71
4332.0000	302.52
4333.0000	300.33
4334.0000	298.498
4335.0000	299.782
4336.0000	299.372
4337.0000	297.577
4338.0000	301.133
4339.0000	301.111
4340.0000	295.837
4341.0000	298.017
4342.0000	303.282
4343.0000	301.309
4344.0000	299.217
4345.0000	303.589
4346.0000	303.765
4347.0000	300.802
4348.0000	299.834
4349.0000	298.034
4350.0000	301.09
4351.0000	300.248
4352.0000	296.382
4353.0000	301.676
4354.0000	302.499
4355.0000	300.526
4356.0000	302.43
4357.0000	299.151
4358.0000	297.552
4359.0000	300.167
4360.0000	298.952
4361.0000	299.997
4362.0000	302.019
4363.0000	301.915
4364.0000	301.792
4365.0000	299.474
4366.0000	300.181
4367.0000	301.591
4368.0000	300.937
4369.0000	300.621
4370.0000	300.491
4371.0000	296.669
4372.0000	295.343
4373.0000	299.006
4374.0000	297.903
4375.0000	298.603
4376.0000	302.096
4377.0000	301.891
4378.0000	302.343
4379.0000	302.084
4380.0000	297.096
4381.0000	294.016
4382.0000	294.59
4383.0000	293.411
4384.0000	293.889
4385.0000	298.328
4386.0000	299.995
4387.0000	298.051
4388.0000	297.493
4389.0000	297.001
4390.0000	299.258
4391.0000	300.547
4392.0000	298.341
4393.0000	301.654
4394.0000	302.165
4395.0000	296.508
4396.0000	298.768
4397.0000	304.704
4398.0000	303.717
4399.0000	296.846
4400.0000	294.851
4401.0000	298.562
4402.0000	299.071
4403.0000	297.063
4404.0000	293.884
4405.0000	296.369
4406.0000	300.157
4407.0000	297.328
4408.0000	296.906
4409.0000	299.784
4410.0000	298.094
4411.0000	297.685
4412.0000	298.691
4413.0000	297.47
4414.0000	297.272
4415.0000	298.725
4416.0000	299.171
4417.0000	298.233
4418.0000	298.207
4419.0000	295.821
4420.0000	295.478
4421.0000	294.281
4422.0000	296.541
4423.0000	299.741
4424.0000	297.788
4425.0000	297.744
4426.0000	296.483
4427.0000	296.317
4428.0000	297.832
4429.0000	299.199
4430.0000	298.813
4431.0000	296.896
4432.0000	298.665
4433.0000	299.754
4434.0000	297.826
4435.0000	299.059
4436.0000	298.746
4437.0000	296.244
4438.0000	296.861
4439.0000	299.171
4440.0000	297.622
4441.0000	300.33
4442.0000	302.818
4443.0000	299.883
4444.0000	300.173
4445.0000	298.553
4446.0000	300.631
4447.0000	302.572
4448.0000	299.251
4449.0000	298.834
4450.0000	301.468
4451.0000	300.376
4452.0000	298.547
4453.0000	300.18
4454.0000	300.042
4455.0000	300.056
4456.0000	301.244
4457.0000	300.843
4458.0000	299.244
4459.0000	299.392
4460.0000	297.223
4461.0000	296.951
4462.0000	299.339
4463.0000	298.576
4464.0000	297.743
4465.0000	299.003
4466.0000	300.231
4467.0000	298.969
4468.0000	298.756
4469.0000	297.067
4470.0000	296.21
4471.0000	296.783
4472.0000	297.764
4473.0000	299.536
4474.0000	298.216
4475.0000	300.559
4476.0000	299.48
4477.0000	299.081
4478.0000	301.057
4479.0000	301.155
4480.0000	302.371
4481.0000	296.675
4482.0000	294.405
4483.0000	296.731
4484.0000	296.818
4485.0000	298.498
4486.0000	299.424
4487.0000	299.255
4488.0000	300.998
4489.0000	300.692
4490.0000	300.055
4491.0000	298.468
4492.0000	299.59
4493.0000	302.177
4494.0000	303.575
4495.0000	301.819
4496.0000	298.728
4497.0000	299.453
4498.0000	297.368
4499.0000	298.579
4500.0000	299.973
4501.0000	298.955
4502.0000	298.162
4503.0000	298.642
4504.0000	298.99
4505.0000	297.035
4506.0000	298.289
4507.0000	302.03
4508.0000	300.527
4509.0000	298.652
4510.0000	298.369
4511.0000	298.765
4512.0000	302.371
4513.0000	302.04
4514.0000	297.543
4515.0000	294.297
4516.0000	296.506
4517.0000	299.656
4518.0000	299.983
4519.0000	299.944
4520.0000	302.636
4521.0000	299.833
4522.0000	298.684
4523.0000	299.618
4524.0000	294.705
4525.0000	295.767
4526.0000	300.136
4527.0000	300.457
4528.0000	299.278
4529.0000	299.133
4530.0000	300.445
4531.0000	299.754
4532.0000	298.062
4533.0000	298.085
4534.0000	298.363
4535.0000	298.227
4536.0000	298.957
4537.0000	299.691
4538.0000	298.666
4539.0000	299.854
4540.0000	302.179
4541.0000	300.101
4542.0000	298.551
4543.0000	299.118
4544.0000	299.897
4545.0000	301.297
4546.0000	300.818
4547.0000	299.175
4548.0000	298.499
4549.0000	296.477
4550.0000	295.557
4551.0000	297.683
4552.0000	298.292
4553.0000	299.43
4554.0000	300.462
4555.0000	299.493
4556.0000	299.744
4557.0000	298.163
4558.0000	298.146
4559.0000	299.356
4560.0000	297.762
4561.0000	298.033
4562.0000	297.632
4563.0000	300.059
4564.0000	298.275
4565.0000	297.161
4566.0000	299.235
4567.0000	296.132
4568.0000	295.438
4569.0000	298.897
4570.0000	297.812
4571.0000	296.722
4572.0000	299.277
4573.0000	301.134
4574.0000	300.525
4575.0000	298.792
4576.0000	299.574
4577.0000	299.158
4578.0000	297.253
4579.0000	298.254
4580.0000	300.179
4581.0000	300.697
4582.0000	297.855
4583.0000	297.03
4584.0000	299.089
4585.0000	301.004
4586.0000	299.24
4587.0000	296.261
4588.0000	299.226
4589.0000	299.659
4590.0000	298.885
4591.0000	297.313
4592.0000	294.543
4593.0000	297.408
4594.0000	301.073
4595.0000	297.847
4596.0000	296.288
4597.0000	299.25
4598.0000	300.61
4599.0000	302.654
4600.0000	302.112
4601.0000	300.425
4602.0000	300.646
4603.0000	299.54
4604.0000	298.589
4605.0000	299.733
4606.0000	299.622
4607.0000	298.985
4608.0000	299.842
4609.0000	300.016
4610.0000	299.075
4611.0000	295.361
4612.0000	295.724
4613.0000	299.399
4614.0000	298.898
4615.0000	298.763
4616.0000	299.591
4617.0000	299.819
4618.0000	300.719
4619.0000	298.742
4620.0000	297.234
4621.0000	295.959
4622.0000	296.621
4623.0000	299.266
4624.0000	299
4625.0000	296.971
4626.0000	299.381
4627.0000	298.914
4628.0000	297.528
4629.0000	299.377
4630.0000	300.124
4631.0000	299.276
4632.0000	298.332
4633.0000	300.964
4634.0000	299.173
4635.0000	297.538
4636.0000	296.673
4637.0000	295.569
4638.0000	297.926
4639.0000	296.495
4640.0000	295.08
4641.0000	297.195
4642.0000	299.113
4643.0000	298.08
4644.0000	296.588
4645.0000	297.297
4646.0000	296.836
4647.0000	296.074
4648.0000	297.442
4649.0000	298.853
4650.0000	299.742
4651.0000	300.285
4652.0000	299.062
4653.0000	301.604
4654.0000	301.749
4655.0000	297.449
4656.0000	295.197
4657.0000	297.515
4658.0000	300.735
4659.0000	299.499
4660.0000	297.126
4661.0000	299.299
4662.0000	299.251
4663.0000	296.245
4664.0000	298.205
4665.0000	298.916
4666.0000	300.234
4667.0000	299.147
4668.0000	295.439
4669.0000	296.076
4670.0000	297.762
4671.0000	299.836
4672.0000	301.294
4673.0000	299.486
4674.0000	300.991
4675.0000	300.264
4676.0000	297.173
4677.0000	298.431
4678.0000	298.779
4679.0000	298.801
4680.0000	299.176
4681.0000	298.806
4682.0000	297.54
4683.0000	301.245
4684.0000	300.969
4685.0000	296.445
4686.0000	298.393
4687.0000	298.893
4688.0000	297.361
4689.0000	297.516
4690.0000	298.27
4691.0000	298.417
4692.0000	299.482
4693.0000	301.807
4694.0000	300.666
4695.0000	295.792
4696.0000	299.25
4697.0000	302.457
4698.0000	297.903
4699.0000	295.42
4700.0000	295.422
4701.0000	296.703
4702.0000	296.757
4703.0000	298.447
4704.0000	298.444
4705.0000	298.703
4706.0000	297.408
4707.0000	296.584
4708.0000	297.374
4709.0000	296.503
4710.0000	300.061
4711.0000	302.685
4712.0000	298.881
4713.0000	296.214
4714.0000	300.249
4715.0000	301.682
4716.0000	298.194
4717.0000	301.006
4718.0000	302.387
4719.0000	298.528
4720.0000	299.281
4721.0000	296.616
4722.0000	294.681
4723.0000	297.593
4724.0000	299.844
4725.0000	300.022
4726.0000	298.548
4727.0000	296.964
4728.0000	296.9
4729.0000	297.648
4730.0000	296.711
4731.0000	299.428
4732.0000	297.651
4733.0000	296.592
4734.0000	299.271
4735.0000	297.135
4736.0000	297.493
4737.0000	297.969
4738.0000	296.805
4739.0000	297.905
4740.0000	297.251
4741.0000	296.887
4742.0000	296.497
4743.0000	297.01
4744.0000	296.781
4745.0000	297.538
4746.0000	299.102
4747.0000	299.912
4748.0000	300.294
4749.0000	299.369
4750.0000	298.474
4751.0000	294.508
4752.0000	295.597
4753.0000	297.146
4754.0000	296.608
4755.0000	296.691
4756.0000	298.226
4757.0000	300.477
4758.0000	300.375
4759.0000	299.141
4760.0000	301.548
4761.0000	301.021
4762.0000	297.097
4763.0000	296.14
4764.0000	293.777
4765.0000	294.055
4766.0000	293.384
4767.0000	296.31
4768.0000	300.657
4769.0000	295.646
4770.0000	293.947
4771.0000	297.471
4772.0000	299.596
4773.0000	301.101
4774.0000	299.57
4775.0000	298.876
4776.0000	298.288
4777.0000	299.901
4778.0000	303.512
4779.0000	300.336
4780.0000	297.838
4781.0000	297.938
4782.0000	300.257
4783.0000	300.907
4784.0000	297.338
4785.0000	296.495
4786.0000	299.015
4787.0000	297.968
4788.0000	298.417
4789.0000	299.987
4790.0000	296.602
4791.0000	297.129
4792.0000	298.366
4793.0000	300.469
4794.0000	300.996
4795.0000	298.211
4796.0000	300.215
4797.0000	298.707
4798.0000	296.234
4799.0000	302.265
4800.0000	303.479
4801.0000	298.255
4802.0000	296.599
4803.0000	297.594
4804.0000	295.514
4805.0000	295.911
4806.0000	297.9
4807.0000	300.968
4808.0000	302.401
4809.0000	299.56
4810.0000	300.831
4811.0000	299.605
4812.0000	297.484
4813.0000	296.796
4814.0000	297.517
4815.0000	298.838
4816.0000	300.391
4817.0000	301.504
4818.0000	298.659
4819.0000	296.285
4820.0000	299.745
4821.0000	300.351
4822.0000	298.358
4823.0000	300.287
4824.0000	302.773
4825.0000	302.574
4826.0000	295.886
4827.0000	294.958
4828.0000	298.009
4829.0000	296.719
4830.0000	292.642
4831.0000	295.871
4832.0000	302.071
4833.0000	301.064
4834.0000	300.808
4835.0000	299.89
4836.0000	299.321
4837.0000	300.393
4838.0000	298.733
4839.0000	297.787
4840.0000	297.759
4841.0000	296.507
4842.0000	297.896
4843.0000	298.704
4844.0000	301.209
4845.0000	299.829
4846.0000	296.07
4847.0000	297.226
4848.0000	301.148
4849.0000	303.404
4850.0000	301.698
4851.0000	297.637
4852.0000	296.027
4853.0000	299.502
4854.0000	299.904
4855.0000	297.526
4856.0000	297.14
4857.0000	300.172
4858.0000	300.158
4859.0000	296.524
4860.0000	296.912
4861.0000	301.247
4862.0000	301.614
4863.0000	298.358
4864.0000	297.752
4865.0000	298.511
4866.0000	298.99
4867.0000	299.238
4868.0000	298.186
4869.0000	300.195
4870.0000	299.495
4871.0000	297.886
4872.0000	299.75
4873.0000	296.783
4874.0000	297.717
4875.0000	299.162
4876.0000	297.489
4877.0000	299.268
4878.0000	300.733
4879.0000	299.22
4880.0000	298.804
4881.0000	300.646
4882.0000	298.015
4883.0000	295.698
4884.0000	297.484
4885.0000	300.277
4886.0000	300.157
4887.0000	300.261
4888.0000	298.978
4889.0000	295.03
4890.0000	297.679
4891.0000	300.018
4892.0000	298.503
4893.0000	298.151
4894.0000	298.716
4895.0000	298.123
4896.0000	299.085
4897.0000	300.631
4898.0000	300.104
4899.0000	299.592
4900.0000	298.436
4901.0000	300.342
4902.0000	301.626
4903.0000	299.351
4904.0000	298.315
4905.0000	298.864
4906.0000	301.633
4907.0000	299.743
4908.0000	296.162
4909.0000	295.458
4910.0000	298.728
4911.0000	302.171
4912.0000	300.639
4913.0000	300.244
4914.0000	300.763
4915.0000	299.803
4916.0000	299.512
4917.0000	298.448
4918.0000	300.865
4919.0000	299.822
4920.0000	294.777
4921.0000	298.261
4922.0000	299.193
4923.0000	295.836
4924.0000	297.113
4925.0000	298.484
4926.0000	299.009
4927.0000	300.586
4928.0000	299.984
4929.0000	298.642
4930.0000	296.013
4931.0000	297.763
4932.0000	302.813
4933.0000	303
4934.0000	299.331
4935.0000	298.149
4936.0000	299.689
4937.0000	300.943
4938.0000	300.545
4939.0000	301.374
4940.0000	300.017
4941.0000	299.284
4942.0000	297.928
4943.0000	294.294
4944.0000	296.424
4945.0000	298.047
4946.0000	296.95
4947.0000	297.012
4948.0000	299.616
4949.0000	298.866
4950.0000	299.263
4951.0000	300.318
4952.0000	298.989
4953.0000	300.847
4954.0000	301.182
4955.0000	300.554
4956.0000	299.034
4957.0000	296.73
4958.0000	297.653
4959.0000	300.794
4960.0000	300.457
4961.0000	294.966
4962.0000	293.206
4963.0000	296.074
4964.0000	297.217
4965.0000	298.219
4966.0000	298.881
4967.0000	298.394
4968.0000	296.786
4969.0000	294.763
4970.0000	295.23
4971.0000	297.696
4972.0000	297.988
4973.0000	295.689
4974.0000	299.45
4975.0000	302.279
4976.0000	303.163
4977.0000	302.699
4978.0000	299.471
4979.0000	302.158
4980.0000	303.135
4981.0000	298.517
4982.0000	295.8
4983.0000	296.694
4984.0000	298.993
4985.0000	300.787
4986.0000	300.975
4987.0000	299.366
4988.0000	299.157
4989.0000	299.019
4990.0000	298.288
4991.0000	299.4
4992.0000	297.461
4993.0000	297.634
4994.0000	297.482
4995.0000	297.223
4996.0000	298.194
4997.0000	296.184
4998.0000	300.241
4999.0000	302.555
5000.0000	300.976
