TITLE	
DATA TYPE	
ORIGIN	JASCO
OWNER	
DATE	22/04/19
TIME	16:59:11
SPECTROMETER/DATA SYSTEM	
RESOLUTION	
DELTAX	0.5
XUNITS	SEC
YUNITS	INTENSITY
FIRSTX	0.0000
LASTX	2227.0000
NPOINTS	4455
FIRSTY	507.97372
MAXY	507.97372
MINY	-85.97010
XYDATA
0.0000	507.974
0.5000	507.941
1.0000	507.783
1.5000	507.609
2.0000	507.59
2.5000	507.558
3.0000	507.506
3.5000	507.511
4.0000	507.462
4.5000	507.45
5.0000	507.456
5.5000	507.413
6.0000	507.487
6.5000	507.381
7.0000	507.349
7.5000	507.412
8.0000	507.264
8.5000	507.349
9.0000	507.412
9.5000	507.444
10.0000	507.401
10.5000	507.367
11.0000	507.333
11.5000	507.245
12.0000	507.223
12.5000	507.234
13.0000	507.197
13.5000	507.231
14.0000	507.398
14.5000	507.32
15.0000	507.448
15.5000	507.422
16.0000	507.425
16.5000	507.489
17.0000	507.377
17.5000	507.42
18.0000	507.274
18.5000	507.317
19.0000	507.383
19.5000	507.321
20.0000	507.48
20.5000	507.456
21.0000	507.437
21.5000	507.446
22.0000	507.383
22.5000	507.432
23.0000	507.465
23.5000	507.606
24.0000	507.618
24.5000	507.538
25.0000	507.576
25.5000	507.676
26.0000	507.705
26.5000	507.71
27.0000	507.646
27.5000	507.485
28.0000	507.488
28.5000	507.529
29.0000	507.516
29.5000	507.502
30.0000	497.04
30.5000	477.389
31.0000	439.022
31.5000	290.066
32.0000	-85.9701
32.5000	-41.3808
33.0000	-32.9349
33.5000	-30.3198
34.0000	-28.9639
34.5000	-28.0679
35.0000	-27.5225
35.5000	-27.0313
36.0000	-26.7447
36.5000	-26.4696
37.0000	-26.1794
37.5000	-26.0344
38.0000	206.755
38.5000	258.919
39.0000	255.7
39.5000	253.877
40.0000	240.619
40.5000	233.858
41.0000	233.344
41.5000	233.175
42.0000	233.157
42.5000	233.111
43.0000	233.043
43.5000	233.048
44.0000	233.048
44.5000	233.021
45.0000	233.041
45.5000	233.062
46.0000	233.046
46.5000	233.093
47.0000	233.129
47.5000	233.086
48.0000	233.115
48.5000	233.087
49.0000	233.087
49.5000	233.178
50.0000	233.178
50.5000	233.202
51.0000	233.192
51.5000	233.186
52.0000	233.221
52.5000	233.265
53.0000	233.407
53.5000	233.501
54.0000	233.57
54.5000	233.661
55.0000	233.664
55.5000	233.703
56.0000	233.771
56.5000	233.827
57.0000	233.909
57.5000	233.954
58.0000	233.977
58.5000	233.998
59.0000	234.036
59.5000	234.015
60.0000	234.043
60.5000	234.13
61.0000	234.171
61.5000	234.284
62.0000	234.28
62.5000	234.293
63.0000	234.286
63.5000	234.248
64.0000	234.303
64.5000	234.368
65.0000	234.407
65.5000	234.526
66.0000	234.627
66.5000	234.6
67.0000	234.664
67.5000	234.661
68.0000	234.657
68.5000	234.736
69.0000	234.779
69.5000	234.824
70.0000	234.858
70.5000	234.897
71.0000	234.965
71.5000	235.023
72.0000	235.069
72.5000	235.071
73.0000	235.088
73.5000	235.088
74.0000	235.108
74.5000	235.196
75.0000	235.239
75.5000	235.269
76.0000	235.33
76.5000	235.362
77.0000	235.393
77.5000	235.419
78.0000	235.476
78.5000	235.501
79.0000	235.526
79.5000	235.613
80.0000	235.649
80.5000	235.699
81.0000	235.711
81.5000	235.761
82.0000	235.799
82.5000	235.861
83.0000	235.898
83.5000	235.935
84.0000	235.962
84.5000	235.991
85.0000	236.103
85.5000	236.186
86.0000	236.184
86.5000	236.176
87.0000	236.176
87.5000	236.209
88.0000	236.318
88.5000	236.379
89.0000	236.457
89.5000	236.463
90.0000	236.466
90.5000	236.483
91.0000	236.49
91.5000	236.572
92.0000	236.635
92.5000	236.719
93.0000	236.836
93.5000	236.852
94.0000	236.848
94.5000	236.895
95.0000	236.919
95.5000	236.885
96.0000	236.956
96.5000	236.96
97.0000	236.949
97.5000	237.042
98.0000	237.061
98.5000	237.138
99.0000	237.161
99.5000	237.206
100.0000	237.319
100.5000	237.375
101.0000	237.458
101.5000	237.527
102.0000	237.545
102.5000	237.594
103.0000	237.645
103.5000	237.694
104.0000	237.742
104.5000	237.776
105.0000	237.842
105.5000	237.867
106.0000	237.911
106.5000	237.946
107.0000	237.943
107.5000	237.988
108.0000	238.05
108.5000	238.088
109.0000	238.12
109.5000	238.182
110.0000	238.244
110.5000	238.307
111.0000	238.361
111.5000	238.379
112.0000	238.41
112.5000	238.425
113.0000	238.45
113.5000	238.526
114.0000	238.524
114.5000	238.603
115.0000	238.72
115.5000	238.726
116.0000	238.801
116.5000	238.889
117.0000	238.873
117.5000	238.933
118.0000	238.992
118.5000	238.975
119.0000	239.085
119.5000	239.114
120.0000	239.179
120.5000	239.187
121.0000	239.197
121.5000	239.28
122.0000	239.3
122.5000	239.405
123.0000	239.467
123.5000	239.466
124.0000	239.507
124.5000	239.499
125.0000	239.503
125.5000	239.587
126.0000	239.659
126.5000	239.694
127.0000	239.787
127.5000	239.869
128.0000	239.865
128.5000	239.981
129.0000	239.966
129.5000	239.952
130.0000	240.027
130.5000	240.026
131.0000	240.08
131.5000	240.127
132.0000	240.159
132.5000	240.212
133.0000	240.299
133.5000	240.34
134.0000	240.372
134.5000	240.398
135.0000	240.369
135.5000	240.424
136.0000	240.462
136.5000	240.508
137.0000	240.599
137.5000	240.652
138.0000	240.721
138.5000	240.743
139.0000	240.749
139.5000	240.763
140.0000	240.771
140.5000	240.896
141.0000	240.993
141.5000	241.071
142.0000	241.135
142.5000	241.138
143.0000	241.183
143.5000	241.242
144.0000	241.311
144.5000	241.418
145.0000	241.461
145.5000	241.445
146.0000	241.453
146.5000	241.464
147.0000	241.456
147.5000	241.566
148.0000	241.629
148.5000	241.67
149.0000	241.75
149.5000	241.789
150.0000	241.814
150.5000	241.827
151.0000	241.862
151.5000	241.857
152.0000	241.921
152.5000	241.957
153.0000	241.991
153.5000	242.046
154.0000	242.083
154.5000	242.158
155.0000	242.2
155.5000	242.2
156.0000	242.257
156.5000	242.276
157.0000	242.296
157.5000	242.322
158.0000	242.375
158.5000	242.405
159.0000	242.402
159.5000	242.522
160.0000	242.52
160.5000	242.59
161.0000	242.695
161.5000	242.707
162.0000	242.777
162.5000	242.809
163.0000	242.923
163.5000	242.967
164.0000	243.019
164.5000	243.159
165.0000	243.208
165.5000	243.253
166.0000	243.318
166.5000	243.292
167.0000	243.253
167.5000	243.313
168.0000	243.321
168.5000	243.323
169.0000	243.377
169.5000	243.449
170.0000	243.466
170.5000	243.46
171.0000	243.56
171.5000	243.569
172.0000	243.616
172.5000	243.723
173.0000	243.753
173.5000	243.84
174.0000	243.893
174.5000	243.926
175.0000	243.977
175.5000	243.996
176.0000	244.025
176.5000	244.104
177.0000	244.107
177.5000	244.157
178.0000	244.199
178.5000	244.154
179.0000	244.201
179.5000	244.193
180.0000	244.27
180.5000	244.396
181.0000	244.443
181.5000	244.526
182.0000	244.563
182.5000	244.601
183.0000	244.609
183.5000	244.657
184.0000	244.696
184.5000	244.699
185.0000	244.771
185.5000	244.76
186.0000	244.805
186.5000	244.848
187.0000	244.883
187.5000	244.934
188.0000	244.999
188.5000	245.031
189.0000	245.127
189.5000	245.191
190.0000	245.209
190.5000	245.245
191.0000	245.239
191.5000	245.271
192.0000	245.328
192.5000	245.405
193.0000	245.44
193.5000	245.49
194.0000	245.568
194.5000	245.538
195.0000	245.597
195.5000	245.659
196.0000	245.617
196.5000	245.723
197.0000	245.775
197.5000	245.807
198.0000	245.878
198.5000	245.904
199.0000	245.875
199.5000	245.888
200.0000	245.966
200.5000	246.042
201.0000	246.071
201.5000	246.119
202.0000	246.093
202.5000	246.068
203.0000	246.168
203.5000	246.207
204.0000	246.262
204.5000	246.342
205.0000	246.372
205.5000	246.401
206.0000	246.457
206.5000	246.474
207.0000	246.471
207.5000	246.529
208.0000	246.587
208.5000	246.716
209.0000	246.819
209.5000	246.866
210.0000	246.812
210.5000	246.774
211.0000	246.828
211.5000	246.818
212.0000	246.912
212.5000	247.009
213.0000	247.037
213.5000	247.099
214.0000	247.139
214.5000	247.123
215.0000	247.132
215.5000	247.159
216.0000	247.238
216.5000	247.302
217.0000	247.328
217.5000	247.422
218.0000	247.458
218.5000	247.441
219.0000	247.473
219.5000	247.501
220.0000	247.497
220.5000	247.603
221.0000	247.672
221.5000	247.684
222.0000	247.734
222.5000	247.739
223.0000	247.791
223.5000	247.879
224.0000	247.907
224.5000	247.913
225.0000	247.953
225.5000	247.95
226.0000	248.007
226.5000	248.055
227.0000	248.082
227.5000	248.131
228.0000	248.133
228.5000	248.238
229.0000	248.254
229.5000	248.285
230.0000	248.4
230.5000	248.408
231.0000	248.431
231.5000	248.45
232.0000	248.433
232.5000	248.441
233.0000	248.484
233.5000	248.523
234.0000	248.544
234.5000	248.65
235.0000	248.672
235.5000	248.747
236.0000	248.785
236.5000	248.785
237.0000	248.87
237.5000	248.918
238.0000	248.955
238.5000	249.007
239.0000	249.085
239.5000	249.086
240.0000	249.154
240.5000	249.182
241.0000	249.186
241.5000	249.193
242.0000	249.223
242.5000	249.23
243.0000	249.223
243.5000	249.298
244.0000	249.361
244.5000	249.438
245.0000	249.484
245.5000	249.535
246.0000	249.541
246.5000	249.536
247.0000	249.608
247.5000	249.583
248.0000	249.559
248.5000	249.622
249.0000	249.639
249.5000	249.755
250.0000	249.857
250.5000	249.901
251.0000	249.915
251.5000	249.89
252.0000	249.906
252.5000	249.919
253.0000	249.996
253.5000	250.033
254.0000	250.133
254.5000	250.158
255.0000	250.219
255.5000	250.321
256.0000	250.322
256.5000	250.369
257.0000	250.367
257.5000	250.377
258.0000	250.399
258.5000	250.433
259.0000	250.491
259.5000	250.483
260.0000	250.549
260.5000	250.593
261.0000	250.608
261.5000	250.656
262.0000	250.675
262.5000	250.689
263.0000	250.703
263.5000	250.77
264.0000	250.84
264.5000	250.873
265.0000	250.966
265.5000	250.993
266.0000	250.991
266.5000	251.087
267.0000	251.074
267.5000	251.126
268.0000	251.176
268.5000	251.205
269.0000	251.273
269.5000	251.3
270.0000	251.371
270.5000	251.406
271.0000	251.426
271.5000	251.463
272.0000	251.457
272.5000	251.493
273.0000	251.548
273.5000	251.583
274.0000	251.618
274.5000	251.613
275.0000	251.65
275.5000	251.704
276.0000	251.754
276.5000	251.806
277.0000	251.859
277.5000	251.829
278.0000	251.836
278.5000	251.875
279.0000	251.874
279.5000	251.941
280.0000	251.993
280.5000	252.045
281.0000	252.063
281.5000	252.101
282.0000	252.137
282.5000	252.199
283.0000	252.252
283.5000	252.266
284.0000	252.318
284.5000	252.319
285.0000	252.33
285.5000	252.4
286.0000	252.42
286.5000	252.43
287.0000	252.463
287.5000	252.492
288.0000	252.519
288.5000	252.527
289.0000	252.616
289.5000	252.633
290.0000	252.631
290.5000	252.712
291.0000	252.671
291.5000	252.752
292.0000	252.837
292.5000	252.866
293.0000	252.925
293.5000	252.912
294.0000	252.972
294.5000	253.021
295.0000	253.065
295.5000	253.149
296.0000	253.141
296.5000	253.153
297.0000	253.258
297.5000	253.266
298.0000	253.289
298.5000	253.322
299.0000	253.285
299.5000	253.289
300.0000	253.365
300.5000	253.452
301.0000	253.497
301.5000	253.566
302.0000	253.6
302.5000	253.596
303.0000	253.633
303.5000	253.656
304.0000	253.663
304.5000	253.713
305.0000	253.838
305.5000	253.898
306.0000	253.928
306.5000	253.957
307.0000	253.871
307.5000	253.911
308.0000	253.95
308.5000	253.989
309.0000	254.084
309.5000	254.09
310.0000	254.104
310.5000	254.084
311.0000	254.104
311.5000	254.107
312.0000	254.161
312.5000	254.24
313.0000	254.24
313.5000	254.315
314.0000	254.321
314.5000	254.374
315.0000	254.446
315.5000	254.472
316.0000	254.542
316.5000	254.531
317.0000	254.549
317.5000	254.596
318.0000	254.653
318.5000	254.727
319.0000	254.72
319.5000	254.781
320.0000	254.782
320.5000	254.805
321.0000	254.836
321.5000	254.844
322.0000	254.828
322.5000	254.869
323.0000	254.916
323.5000	254.936
324.0000	255.018
324.5000	255.025
325.0000	255.093
325.5000	255.159
326.0000	255.177
326.5000	255.211
327.0000	255.22
327.5000	255.209
328.0000	255.266
328.5000	255.319
329.0000	255.39
329.5000	255.423
330.0000	255.444
330.5000	255.476
331.0000	255.514
331.5000	255.553
332.0000	255.588
332.5000	255.619
333.0000	255.646
333.5000	255.7
334.0000	255.788
334.5000	255.816
335.0000	255.816
335.5000	255.835
336.0000	255.834
336.5000	255.865
337.0000	255.933
337.5000	255.974
338.0000	256.014
338.5000	256.043
339.0000	256.07
339.5000	256.065
340.0000	256.009
340.5000	256.066
341.0000	256.075
341.5000	256.121
342.0000	256.205
342.5000	256.184
343.0000	256.211
343.5000	256.291
344.0000	256.351
344.5000	256.408
345.0000	256.472
345.5000	256.538
346.0000	256.529
346.5000	256.593
347.0000	256.638
347.5000	256.571
348.0000	256.66
348.5000	256.685
349.0000	256.715
349.5000	256.801
350.0000	256.824
350.5000	256.851
351.0000	256.841
351.5000	256.92
352.0000	256.939
352.5000	256.999
353.0000	257.056
353.5000	257.045
354.0000	257.054
354.5000	257.034
355.0000	257.073
355.5000	257.129
356.0000	257.21
356.5000	257.264
357.0000	257.321
357.5000	257.349
358.0000	257.354
358.5000	257.359
359.0000	257.377
359.5000	257.405
360.0000	257.437
360.5000	257.529
361.0000	257.548
361.5000	257.57
362.0000	257.572
362.5000	257.589
363.0000	257.598
363.5000	257.63
364.0000	257.78
364.5000	257.805
365.0000	257.858
365.5000	257.915
366.0000	257.869
366.5000	257.915
367.0000	257.976
367.5000	258.002
368.0000	258.008
368.5000	258.016
369.0000	258.076
369.5000	258.079
370.0000	258.158
370.5000	258.208
371.0000	258.226
371.5000	258.254
372.0000	258.273
372.5000	258.322
373.0000	258.353
373.5000	258.391
374.0000	258.447
374.5000	258.481
375.0000	258.508
375.5000	258.556
376.0000	258.583
376.5000	258.596
377.0000	258.607
377.5000	258.623
378.0000	258.602
378.5000	258.654
379.0000	258.645
379.5000	258.747
380.0000	258.867
380.5000	258.89
381.0000	258.948
381.5000	258.974
382.0000	258.976
382.5000	259.019
383.0000	259.063
383.5000	259.04
384.0000	259.108
384.5000	259.16
385.0000	259.187
385.5000	259.198
386.0000	259.174
386.5000	259.185
387.0000	259.212
387.5000	259.287
388.0000	259.324
388.5000	259.325
389.0000	259.379
389.5000	259.386
390.0000	259.448
390.5000	259.528
391.0000	259.505
391.5000	259.54
392.0000	259.523
392.5000	259.553
393.0000	259.629
393.5000	259.676
394.0000	259.728
394.5000	259.713
395.0000	259.725
395.5000	259.703
396.0000	259.713
396.5000	259.841
397.0000	259.862
397.5000	259.924
398.0000	259.977
398.5000	259.978
399.0000	260.069
399.5000	260.133
400.0000	260.176
400.5000	260.161
401.0000	260.191
401.5000	260.223
402.0000	260.284
402.5000	260.299
403.0000	260.32
403.5000	260.292
404.0000	260.306
404.5000	260.331
405.0000	260.34
405.5000	260.41
406.0000	260.423
406.5000	260.549
407.0000	260.587
407.5000	260.585
408.0000	260.676
408.5000	260.672
409.0000	260.749
409.5000	260.831
410.0000	260.817
410.5000	260.868
411.0000	260.809
411.5000	260.807
412.0000	260.847
412.5000	260.832
413.0000	260.948
413.5000	261.038
414.0000	261.105
414.5000	261.157
415.0000	261.122
415.5000	261.123
416.0000	261.121
416.5000	261.114
417.0000	261.191
417.5000	261.218
418.0000	261.227
418.5000	261.263
419.0000	261.296
419.5000	261.343
420.0000	261.373
420.5000	261.429
421.0000	261.502
421.5000	261.495
422.0000	261.566
422.5000	261.53
423.0000	261.522
423.5000	261.586
424.0000	261.613
424.5000	261.717
425.0000	261.746
425.5000	261.782
426.0000	261.748
426.5000	261.737
427.0000	261.743
427.5000	261.744
428.0000	261.809
428.5000	261.885
429.0000	261.9
429.5000	261.949
430.0000	262.016
430.5000	262.082
431.0000	262.129
431.5000	262.125
432.0000	262.137
432.5000	262.168
433.0000	262.281
433.5000	262.324
434.0000	262.305
434.5000	262.301
435.0000	262.261
435.5000	262.296
436.0000	262.366
436.5000	262.408
437.0000	262.456
437.5000	262.575
438.0000	262.605
438.5000	262.614
439.0000	262.65
439.5000	262.623
440.0000	262.637
440.5000	262.653
441.0000	262.684
441.5000	262.723
442.0000	262.798
442.5000	262.806
443.0000	262.783
443.5000	262.8
444.0000	262.838
444.5000	262.888
445.0000	263.012
445.5000	263.016
446.0000	263.017
446.5000	263.039
447.0000	263.005
447.5000	263.064
448.0000	263.107
448.5000	263.154
449.0000	263.227
449.5000	263.28
450.0000	263.28
450.5000	263.343
451.0000	263.351
451.5000	263.37
452.0000	263.416
452.5000	263.399
453.0000	263.419
453.5000	263.433
454.0000	263.517
454.5000	263.565
455.0000	263.581
455.5000	263.651
456.0000	263.645
456.5000	263.727
457.0000	263.807
457.5000	263.824
458.0000	263.84
458.5000	263.838
459.0000	263.849
459.5000	263.844
460.0000	263.857
460.5000	263.864
461.0000	263.927
461.5000	264.019
462.0000	264.036
462.5000	264.108
463.0000	264.102
463.5000	264.097
464.0000	264.173
464.5000	264.179
465.0000	264.183
465.5000	264.154
466.0000	264.182
466.5000	264.179
467.0000	264.245
467.5000	264.309
468.0000	264.338
468.5000	264.37
469.0000	264.418
469.5000	264.445
470.0000	264.427
470.5000	264.48
471.0000	264.468
471.5000	264.531
472.0000	264.621
472.5000	264.641
473.0000	264.682
473.5000	264.705
474.0000	264.724
474.5000	264.743
475.0000	264.797
475.5000	264.832
476.0000	264.889
476.5000	264.963
477.0000	264.984
477.5000	264.97
478.0000	264.91
478.5000	264.913
479.0000	264.904
479.5000	264.994
480.0000	265.07
480.5000	265.082
481.0000	265.103
481.5000	265.104
482.0000	265.087
482.5000	265.148
483.0000	265.206
483.5000	265.244
484.0000	265.337
484.5000	265.371
485.0000	265.409
485.5000	265.445
486.0000	265.5
486.5000	265.482
487.0000	265.523
487.5000	265.539
488.0000	265.464
488.5000	265.543
489.0000	265.526
489.5000	265.529
490.0000	265.602
490.5000	265.611
491.0000	265.677
491.5000	265.743
492.0000	265.734
492.5000	265.804
493.0000	265.822
493.5000	265.855
494.0000	265.973
494.5000	265.97
495.0000	266.023
495.5000	266.079
496.0000	266.073
496.5000	266.041
497.0000	266.069
497.5000	266.107
498.0000	266.164
498.5000	266.271
499.0000	266.248
499.5000	266.215
500.0000	266.241
500.5000	266.219
501.0000	266.266
501.5000	266.312
502.0000	266.302
502.5000	266.35
503.0000	266.404
503.5000	266.413
504.0000	266.454
504.5000	266.483
505.0000	266.503
505.5000	266.547
506.0000	266.581
506.5000	266.636
507.0000	266.652
507.5000	266.68
508.0000	266.723
508.5000	266.723
509.0000	266.775
509.5000	266.806
510.0000	266.837
510.5000	266.869
511.0000	266.883
511.5000	266.954
512.0000	266.976
512.5000	266.999
513.0000	266.995
513.5000	266.982
514.0000	267.01
514.5000	267.067
515.0000	267.125
515.5000	267.155
516.0000	267.226
516.5000	267.246
517.0000	267.277
517.5000	267.32
518.0000	267.327
518.5000	267.357
519.0000	267.363
519.5000	267.349
520.0000	267.335
520.5000	267.402
521.0000	267.443
521.5000	267.505
522.0000	267.556
522.5000	267.531
523.0000	267.591
523.5000	267.597
524.0000	267.618
524.5000	267.665
525.0000	267.662
525.5000	267.724
526.0000	267.777
526.5000	267.797
527.0000	267.863
527.5000	267.876
528.0000	267.883
528.5000	267.943
529.0000	267.997
529.5000	268.015
530.0000	268.003
530.5000	267.999
531.0000	268.035
531.5000	268.077
532.0000	268.156
532.5000	268.232
533.0000	268.16
533.5000	268.219
534.0000	268.221
534.5000	268.2
535.0000	268.278
535.5000	268.244
536.0000	268.279
536.5000	268.366
537.0000	268.415
537.5000	268.477
538.0000	268.511
538.5000	268.455
539.0000	268.458
539.5000	268.522
540.0000	268.551
540.5000	268.635
541.0000	268.685
541.5000	268.733
542.0000	268.753
542.5000	268.8
543.0000	268.869
543.5000	268.85
544.0000	268.943
544.5000	268.941
545.0000	268.887
545.5000	268.877
546.0000	268.862
546.5000	268.922
547.0000	268.991
547.5000	269.077
548.0000	269.061
548.5000	269.041
549.0000	269.108
549.5000	269.105
550.0000	269.192
550.5000	269.208
551.0000	269.169
551.5000	269.24
552.0000	269.267
552.5000	269.288
553.0000	269.366
553.5000	269.355
554.0000	269.355
554.5000	269.385
555.0000	269.438
555.5000	269.498
556.0000	269.535
556.5000	269.66
557.0000	269.612
557.5000	269.585
558.0000	269.627
558.5000	269.575
559.0000	269.642
559.5000	269.693
560.0000	269.701
560.5000	269.723
561.0000	269.733
561.5000	269.732
562.0000	269.782
562.5000	269.789
563.0000	269.78
563.5000	269.847
564.0000	269.915
564.5000	269.951
565.0000	270.04
565.5000	270.072
566.0000	270.021
566.5000	270.067
567.0000	270.09
567.5000	270.129
568.0000	270.211
568.5000	270.285
569.0000	270.32
569.5000	270.315
570.0000	270.32
570.5000	270.357
571.0000	270.369
571.5000	270.417
572.0000	270.427
572.5000	270.394
573.0000	270.4
573.5000	270.406
574.0000	270.458
574.5000	270.532
575.0000	270.551
575.5000	270.604
576.0000	270.675
576.5000	270.666
577.0000	270.694
577.5000	270.733
578.0000	270.739
578.5000	270.761
579.0000	270.842
579.5000	270.877
580.0000	270.888
580.5000	270.976
581.0000	270.985
581.5000	270.982
582.0000	270.984
582.5000	270.959
583.0000	270.952
583.5000	271.017
584.0000	271.075
584.5000	271.111
585.0000	271.167
585.5000	271.196
586.0000	271.14
586.5000	271.148
587.0000	271.154
587.5000	271.152
588.0000	271.25
588.5000	271.314
589.0000	271.373
589.5000	271.416
590.0000	271.462
590.5000	271.441
591.0000	271.456
591.5000	271.471
592.0000	271.49
592.5000	271.497
593.0000	271.511
593.5000	271.496
594.0000	271.558
594.5000	271.645
595.0000	271.673
595.5000	271.774
596.0000	271.755
596.5000	271.782
597.0000	271.858
597.5000	271.861
598.0000	271.904
598.5000	271.894
599.0000	271.86
599.5000	271.916
600.0000	271.906
600.5000	271.978
601.0000	272.013
601.5000	272.009
602.0000	272.063
602.5000	272.089
603.0000	272.14
603.5000	272.151
604.0000	272.139
604.5000	272.163
605.0000	272.173
605.5000	272.211
606.0000	272.263
606.5000	272.276
607.0000	272.313
607.5000	272.4
608.0000	272.438
608.5000	272.473
609.0000	272.51
609.5000	272.471
610.0000	272.508
610.5000	272.592
611.0000	272.644
611.5000	272.664
612.0000	272.68
612.5000	272.662
613.0000	272.662
613.5000	272.674
614.0000	272.698
614.5000	272.674
615.0000	272.692
615.5000	272.78
616.0000	272.842
616.5000	272.903
617.0000	272.916
617.5000	272.936
618.0000	272.936
618.5000	272.987
619.0000	273.043
619.5000	273.077
620.0000	273.067
620.5000	273.086
621.0000	273.051
621.5000	273.075
622.0000	273.151
622.5000	273.189
623.0000	273.252
623.5000	273.261
624.0000	273.318
624.5000	273.284
625.0000	273.321
625.5000	273.325
626.0000	273.303
626.5000	273.352
627.0000	273.417
627.5000	273.475
628.0000	273.524
628.5000	273.579
629.0000	273.619
629.5000	273.676
630.0000	273.674
630.5000	273.717
631.0000	273.763
631.5000	273.758
632.0000	273.775
632.5000	273.771
633.0000	273.738
633.5000	273.751
634.0000	273.827
634.5000	273.884
635.0000	273.845
635.5000	273.943
636.0000	273.946
636.5000	273.877
637.0000	273.999
637.5000	273.984
638.0000	274.044
638.5000	274.125
639.0000	274.14
639.5000	274.146
640.0000	274.138
640.5000	274.143
641.0000	274.169
641.5000	274.236
642.0000	274.227
642.5000	274.355
643.0000	274.388
643.5000	274.316
644.0000	274.395
644.5000	274.427
645.0000	274.424
645.5000	274.51
646.0000	274.513
646.5000	274.483
647.0000	274.509
647.5000	274.473
648.0000	274.507
648.5000	274.556
649.0000	274.58
649.5000	274.65
650.0000	274.656
650.5000	274.635
651.0000	274.643
651.5000	274.724
652.0000	274.795
652.5000	274.877
653.0000	274.956
653.5000	274.918
654.0000	274.927
654.5000	274.915
655.0000	274.915
655.5000	274.973
656.0000	275
656.5000	275.045
657.0000	275.048
657.5000	275.077
658.0000	275.142
658.5000	275.136
659.0000	275.204
659.5000	275.244
660.0000	275.315
660.5000	275.384
661.0000	275.405
661.5000	275.42
662.0000	275.366
662.5000	275.374
663.0000	275.428
663.5000	275.451
664.0000	275.443
664.5000	275.484
665.0000	275.462
665.5000	275.528
666.0000	275.634
666.5000	275.648
667.0000	275.687
667.5000	275.71
668.0000	275.704
668.5000	275.716
669.0000	275.807
669.5000	275.754
670.0000	275.778
670.5000	275.839
671.0000	275.801
671.5000	275.859
672.0000	275.862
672.5000	275.847
673.0000	275.841
673.5000	275.895
674.0000	275.9
674.5000	275.942
675.0000	276.008
675.5000	276.004
676.0000	276.084
676.5000	276.166
677.0000	276.193
677.5000	276.234
678.0000	276.214
678.5000	276.159
679.0000	276.182
679.5000	276.207
680.0000	276.286
680.5000	276.364
681.0000	276.386
681.5000	276.436
682.0000	276.434
682.5000	276.473
683.0000	276.531
683.5000	276.556
684.0000	276.6
684.5000	276.639
685.0000	276.735
685.5000	276.722
686.0000	276.726
686.5000	276.695
687.0000	276.603
687.5000	276.606
688.0000	276.68
688.5000	276.705
689.0000	276.76
689.5000	276.788
690.0000	276.804
690.5000	276.829
691.0000	276.863
691.5000	276.923
692.0000	276.972
692.5000	277.019
693.0000	277.032
693.5000	277.125
694.0000	277.094
694.5000	277.135
695.0000	277.154
695.5000	277.086
696.0000	277.12
696.5000	277.091
697.0000	277.129
697.5000	277.158
698.0000	277.14
698.5000	277.188
699.0000	277.181
699.5000	277.231
700.0000	277.32
700.5000	277.404
701.0000	277.474
701.5000	277.532
702.0000	277.558
702.5000	277.53
703.0000	277.543
703.5000	277.529
704.0000	277.523
704.5000	277.523
705.0000	277.574
705.5000	277.601
706.0000	277.657
706.5000	277.75
707.0000	277.77
707.5000	277.808
708.0000	277.837
708.5000	277.81
709.0000	277.844
709.5000	277.856
710.0000	277.89
710.5000	277.99
711.0000	277.957
711.5000	277.999
712.0000	278.043
712.5000	278.043
713.0000	278.102
713.5000	278.118
714.0000	278.101
714.5000	278.124
715.0000	278.156
715.5000	278.204
716.0000	278.293
716.5000	278.259
717.0000	278.305
717.5000	278.322
718.0000	278.311
718.5000	278.348
719.0000	278.382
719.5000	278.443
720.0000	278.461
720.5000	278.471
721.0000	278.517
721.5000	278.516
722.0000	278.562
722.5000	278.685
723.0000	278.681
723.5000	278.687
724.0000	278.673
724.5000	278.673
725.0000	278.643
725.5000	278.691
726.0000	278.728
726.5000	278.726
727.0000	278.802
727.5000	278.863
728.0000	278.965
728.5000	279
729.0000	279.013
729.5000	278.962
730.0000	278.955
730.5000	278.979
731.0000	279.028
731.5000	279.116
732.0000	279.09
732.5000	279.121
733.0000	279.154
733.5000	279.134
734.0000	279.201
734.5000	279.167
735.0000	279.186
735.5000	279.2
736.0000	279.241
736.5000	279.324
737.0000	279.325
737.5000	279.421
738.0000	279.393
738.5000	279.428
739.0000	279.465
739.5000	279.458
740.0000	279.522
740.5000	279.579
741.0000	279.598
741.5000	279.661
742.0000	279.706
742.5000	279.701
743.0000	279.758
743.5000	279.698
744.0000	279.732
744.5000	279.725
745.0000	279.735
745.5000	279.846
746.0000	279.869
746.5000	279.87
747.0000	279.915
747.5000	279.913
748.0000	279.926
748.5000	279.99
749.0000	279.997
749.5000	280.045
750.0000	280.067
750.5000	280.106
751.0000	280.132
751.5000	280.185
752.0000	280.229
752.5000	280.298
753.0000	280.334
753.5000	280.314
754.0000	280.325
754.5000	280.338
755.0000	280.413
755.5000	280.466
756.0000	280.514
756.5000	280.57
757.0000	280.547
757.5000	280.616
758.0000	280.617
758.5000	280.603
759.0000	280.608
759.5000	280.608
760.0000	280.594
760.5000	280.624
761.0000	280.714
761.5000	280.707
762.0000	280.798
762.5000	280.818
763.0000	280.781
763.5000	280.838
764.0000	280.857
764.5000	280.879
765.0000	280.97
765.5000	280.971
766.0000	280.991
766.5000	281.046
767.0000	281.075
767.5000	281.14
768.0000	281.185
768.5000	281.194
769.0000	281.209
769.5000	281.214
770.0000	281.225
770.5000	281.28
771.0000	281.3
771.5000	281.309
772.0000	281.357
772.5000	281.369
773.0000	281.427
773.5000	281.466
774.0000	281.451
774.5000	281.523
775.0000	281.506
775.5000	281.54
776.0000	281.608
776.5000	281.615
777.0000	281.66
777.5000	281.714
778.0000	281.708
778.5000	281.788
779.0000	281.809
779.5000	281.872
780.0000	281.887
780.5000	281.875
781.0000	281.877
781.5000	281.856
782.0000	281.935
782.5000	281.947
783.0000	281.997
783.5000	282.022
784.0000	282.081
784.5000	282.134
785.0000	282.122
785.5000	282.139
786.0000	282.099
786.5000	282.061
787.0000	282.116
787.5000	282.1
788.0000	282.195
788.5000	282.28
789.0000	282.294
789.5000	282.386
790.0000	282.394
790.5000	282.329
791.0000	282.431
791.5000	282.505
792.0000	282.543
792.5000	282.644
793.0000	282.652
793.5000	282.567
794.0000	282.543
794.5000	282.54
795.0000	282.604
795.5000	282.68
796.0000	282.743
796.5000	282.846
797.0000	282.882
797.5000	282.965
798.0000	283.002
798.5000	283.04
799.0000	283.012
799.5000	283.037
800.0000	283.082
800.5000	283.082
801.0000	283.103
801.5000	283.109
802.0000	283.088
802.5000	283.026
803.0000	283.07
803.5000	283.088
804.0000	283.107
804.5000	283.173
805.0000	283.233
805.5000	283.249
806.0000	283.287
806.5000	283.352
807.0000	283.404
807.5000	283.459
808.0000	283.528
808.5000	283.536
809.0000	283.468
809.5000	283.508
810.0000	283.529
810.5000	283.569
811.0000	283.624
811.5000	283.65
812.0000	283.667
812.5000	283.689
813.0000	283.729
813.5000	283.722
814.0000	283.749
814.5000	283.798
815.0000	283.85
815.5000	283.894
816.0000	283.903
816.5000	283.911
817.0000	283.902
817.5000	283.927
818.0000	283.968
818.5000	284
819.0000	284.027
819.5000	284.021
820.0000	284.044
820.5000	284.062
821.0000	284.132
821.5000	284.177
822.0000	284.235
822.5000	284.335
823.0000	284.353
823.5000	284.457
824.0000	284.453
824.5000	284.45
825.0000	284.521
825.5000	284.503
826.0000	284.558
826.5000	284.592
827.0000	284.54
827.5000	284.608
828.0000	284.634
828.5000	284.618
829.0000	284.625
829.5000	284.61
830.0000	284.6
830.5000	284.691
831.0000	284.743
831.5000	284.765
832.0000	284.885
832.5000	284.797
833.0000	284.867
833.5000	284.886
834.0000	284.84
834.5000	284.935
835.0000	284.941
835.5000	284.981
836.0000	285.035
836.5000	285.063
837.0000	285.068
837.5000	285.071
838.0000	285.069
838.5000	285.126
839.0000	285.184
839.5000	285.253
840.0000	285.297
840.5000	285.282
841.0000	285.325
841.5000	285.317
842.0000	285.299
842.5000	285.349
843.0000	285.345
843.5000	285.384
844.0000	285.383
844.5000	285.418
845.0000	285.49
845.5000	285.503
846.0000	285.554
846.5000	285.573
847.0000	285.569
847.5000	285.636
848.0000	285.732
848.5000	285.679
849.0000	285.696
849.5000	285.736
850.0000	285.737
850.5000	285.772
851.0000	285.803
851.5000	285.774
852.0000	285.81
852.5000	285.895
853.0000	285.93
853.5000	286.014
854.0000	286.043
854.5000	285.974
855.0000	285.975
855.5000	285.956
856.0000	285.951
856.5000	286.079
857.0000	286.09
857.5000	286.064
858.0000	286.132
858.5000	286.121
859.0000	286.156
859.5000	286.226
860.0000	286.193
860.5000	286.221
861.0000	286.245
861.5000	286.278
862.0000	286.336
862.5000	286.365
863.0000	286.402
863.5000	286.419
864.0000	286.406
864.5000	286.428
865.0000	286.417
865.5000	286.461
866.0000	286.482
866.5000	286.53
867.0000	286.567
867.5000	286.58
868.0000	286.628
868.5000	286.64
869.0000	286.713
869.5000	286.661
870.0000	286.666
870.5000	286.668
871.0000	286.598
871.5000	286.614
872.0000	286.672
872.5000	286.744
873.0000	286.767
873.5000	286.863
874.0000	286.848
874.5000	286.747
875.0000	286.782
875.5000	286.747
876.0000	286.759
876.5000	286.866
877.0000	286.864
877.5000	286.89
878.0000	286.858
878.5000	286.819
879.0000	286.876
879.5000	286.96
880.0000	287.023
880.5000	287.069
881.0000	287.037
881.5000	287.004
882.0000	287.007
882.5000	287.066
883.0000	287.12
883.5000	287.099
884.0000	287.146
884.5000	287.08
885.0000	287.114
885.5000	287.11
886.0000	287.159
886.5000	287.19
887.0000	287.184
887.5000	287.26
888.0000	287.244
888.5000	287.266
889.0000	287.246
889.5000	287.244
890.0000	287.204
890.5000	287.302
891.0000	287.342
891.5000	287.374
892.0000	287.424
892.5000	287.328
893.0000	287.333
893.5000	287.324
894.0000	287.316
894.5000	287.377
895.0000	287.385
895.5000	287.389
896.0000	287.363
896.5000	287.341
897.0000	287.376
897.5000	287.346
898.0000	287.38
898.5000	287.372
899.0000	287.331
899.5000	287.379
900.0000	287.386
900.5000	287.367
901.0000	287.439
901.5000	287.372
902.0000	287.38
902.5000	287.422
903.0000	287.365
903.5000	287.442
904.0000	287.474
904.5000	287.453
905.0000	287.458
905.5000	287.431
906.0000	287.369
906.5000	287.404
907.0000	287.436
907.5000	287.467
908.0000	287.507
908.5000	287.468
909.0000	287.43
909.5000	287.382
910.0000	287.387
910.5000	287.463
911.0000	287.489
911.5000	287.583
912.0000	287.621
912.5000	287.593
913.0000	287.614
913.5000	287.529
914.0000	287.498
914.5000	287.477
915.0000	287.463
915.5000	287.485
916.0000	287.482
916.5000	287.528
917.0000	287.535
917.5000	287.539
918.0000	287.577
918.5000	287.528
919.0000	287.489
919.5000	287.513
920.0000	287.453
920.5000	287.454
921.0000	287.484
921.5000	287.419
922.0000	287.374
922.5000	287.357
923.0000	287.315
923.5000	287.326
924.0000	287.389
924.5000	287.443
925.0000	287.476
925.5000	287.512
926.0000	287.509
926.5000	287.472
927.0000	287.459
927.5000	287.485
928.0000	287.528
928.5000	287.522
929.0000	287.506
929.5000	287.434
930.0000	287.349
930.5000	287.34
931.0000	287.414
931.5000	287.485
932.0000	287.515
932.5000	287.488
933.0000	287.443
933.5000	287.377
934.0000	287.341
934.5000	287.429
935.0000	287.433
935.5000	287.435
936.0000	287.491
936.5000	287.435
937.0000	287.357
937.5000	287.385
938.0000	287.326
938.5000	287.312
939.0000	287.374
939.5000	287.382
940.0000	287.423
940.5000	287.453
941.0000	287.406
941.5000	287.355
942.0000	287.321
942.5000	287.27
943.0000	287.268
943.5000	287.325
944.0000	287.32
944.5000	287.374
945.0000	287.369
945.5000	287.343
946.0000	287.35
946.5000	287.283
947.0000	287.239
947.5000	287.223
948.0000	287.169
948.5000	287.163
949.0000	287.253
949.5000	287.193
950.0000	287.199
950.5000	287.213
951.0000	287.148
951.5000	287.2
952.0000	287.225
952.5000	287.248
953.0000	287.223
953.5000	287.249
954.0000	287.24
954.5000	287.208
955.0000	287.263
955.5000	287.202
956.0000	287.196
956.5000	287.188
957.0000	287.126
957.5000	287.074
958.0000	287.064
958.5000	287.065
959.0000	287.06
959.5000	287.072
960.0000	287.064
960.5000	286.997
961.0000	287.002
961.5000	287.018
962.0000	286.981
962.5000	287.046
963.0000	287.022
963.5000	287.012
964.0000	287.029
964.5000	287.004
965.0000	287.005
965.5000	287.023
966.0000	286.992
966.5000	286.958
967.0000	286.948
967.5000	286.907
968.0000	286.957
968.5000	286.95
969.0000	286.94
969.5000	286.959
970.0000	286.836
970.5000	286.827
971.0000	286.866
971.5000	286.844
972.0000	286.89
972.5000	286.934
973.0000	286.918
973.5000	286.873
974.0000	286.863
974.5000	286.818
975.0000	286.817
975.5000	286.841
976.0000	286.892
976.5000	286.91
977.0000	286.893
977.5000	286.888
978.0000	286.863
978.5000	286.829
979.0000	286.861
979.5000	286.875
980.0000	286.914
980.5000	286.94
981.0000	286.849
981.5000	286.865
982.0000	286.801
982.5000	286.73
983.0000	286.84
983.5000	286.813
984.0000	286.816
984.5000	286.876
985.0000	286.829
985.5000	286.763
986.0000	286.779
986.5000	286.736
987.0000	286.716
987.5000	286.765
988.0000	286.762
988.5000	286.815
989.0000	286.818
989.5000	286.829
990.0000	286.817
990.5000	286.759
991.0000	286.705
991.5000	286.696
992.0000	286.64
992.5000	286.618
993.0000	286.696
993.5000	286.698
994.0000	286.773
994.5000	286.815
995.0000	286.758
995.5000	286.742
996.0000	286.705
996.5000	286.711
997.0000	286.689
997.5000	286.691
998.0000	286.692
998.5000	286.635
999.0000	286.669
999.5000	286.665
1000.0000	286.661
1000.5000	286.671
1001.0000	286.665
1001.5000	286.699
1002.0000	286.722
1002.5000	286.744
1003.0000	286.768
1003.5000	286.738
1004.0000	286.723
1004.5000	286.767
1005.0000	286.747
1005.5000	286.768
1006.0000	286.81
1006.5000	286.855
1007.0000	286.848
1007.5000	286.854
1008.0000	286.858
1008.5000	286.826
1009.0000	286.823
1009.5000	286.792
1010.0000	286.809
1010.5000	286.753
1011.0000	286.818
1011.5000	286.865
1012.0000	286.828
1012.5000	286.871
1013.0000	286.803
1013.5000	286.82
1014.0000	286.831
1014.5000	286.834
1015.0000	286.832
1015.5000	286.823
1016.0000	286.761
1016.5000	286.738
1017.0000	286.84
1017.5000	286.864
1018.0000	286.869
1018.5000	286.883
1019.0000	286.887
1019.5000	286.794
1020.0000	286.858
1020.5000	286.86
1021.0000	286.822
1021.5000	286.845
1022.0000	286.849
1022.5000	286.878
1023.0000	286.875
1023.5000	286.921
1024.0000	286.942
1024.5000	286.956
1025.0000	286.933
1025.5000	286.976
1026.0000	286.926
1026.5000	286.925
1027.0000	287.045
1027.5000	286.965
1028.0000	287.03
1028.5000	287.073
1029.0000	287.044
1029.5000	287.068
1030.0000	287.072
1030.5000	287.053
1031.0000	287.007
1031.5000	287.068
1032.0000	287.145
1032.5000	287.124
1033.0000	287.149
1033.5000	287.167
1034.0000	287.159
1034.5000	287.162
1035.0000	287.196
1035.5000	287.198
1036.0000	287.181
1036.5000	287.22
1037.0000	287.139
1037.5000	287.146
1038.0000	287.203
1038.5000	287.221
1039.0000	287.301
1039.5000	287.28
1040.0000	287.299
1040.5000	287.325
1041.0000	287.356
1041.5000	287.414
1042.0000	287.326
1042.5000	287.396
1043.0000	287.396
1043.5000	287.448
1044.0000	287.549
1044.5000	287.514
1045.0000	287.513
1045.5000	287.541
1046.0000	287.547
1046.5000	287.574
1047.0000	287.6
1047.5000	287.586
1048.0000	287.645
1048.5000	287.642
1049.0000	287.685
1049.5000	287.74
1050.0000	287.661
1050.5000	287.685
1051.0000	287.704
1051.5000	287.687
1052.0000	287.716
1052.5000	287.685
1053.0000	287.7
1053.5000	287.738
1054.0000	287.801
1054.5000	287.84
1055.0000	287.887
1055.5000	287.853
1056.0000	287.862
1056.5000	287.9
1057.0000	287.876
1057.5000	287.933
1058.0000	287.934
1058.5000	287.947
1059.0000	288.013
1059.5000	287.998
1060.0000	288.078
1060.5000	288.148
1061.0000	288.109
1061.5000	288.126
1062.0000	288.103
1062.5000	288.114
1063.0000	288.213
1063.5000	288.299
1064.0000	288.311
1064.5000	288.296
1065.0000	288.294
1065.5000	288.328
1066.0000	288.403
1066.5000	288.448
1067.0000	288.437
1067.5000	288.464
1068.0000	288.459
1068.5000	288.461
1069.0000	288.546
1069.5000	288.514
1070.0000	288.544
1070.5000	288.592
1071.0000	288.6
1071.5000	288.631
1072.0000	288.637
1072.5000	288.693
1073.0000	288.676
1073.5000	288.722
1074.0000	288.797
1074.5000	288.793
1075.0000	288.861
1075.5000	288.886
1076.0000	288.828
1076.5000	288.854
1077.0000	288.897
1077.5000	288.93
1078.0000	288.978
1078.5000	288.985
1079.0000	288.961
1079.5000	288.9
1080.0000	288.956
1080.5000	289.015
1081.0000	289.05
1081.5000	289.166
1082.0000	289.174
1082.5000	289.219
1083.0000	289.259
1083.5000	289.287
1084.0000	289.357
1084.5000	289.381
1085.0000	289.388
1085.5000	289.354
1086.0000	289.399
1086.5000	289.395
1087.0000	289.463
1087.5000	289.562
1088.0000	289.57
1088.5000	289.592
1089.0000	289.673
1089.5000	289.654
1090.0000	289.643
1090.5000	289.706
1091.0000	289.68
1091.5000	289.712
1092.0000	289.77
1092.5000	289.792
1093.0000	289.802
1093.5000	289.836
1094.0000	289.873
1094.5000	289.885
1095.0000	289.917
1095.5000	290.002
1096.0000	290.001
1096.5000	290.036
1097.0000	290.045
1097.5000	290.068
1098.0000	290.081
1098.5000	290.165
1099.0000	290.236
1099.5000	290.255
1100.0000	290.306
1100.5000	290.284
1101.0000	290.289
1101.5000	290.313
1102.0000	290.328
1102.5000	290.328
1103.0000	290.43
1103.5000	290.449
1104.0000	290.507
1104.5000	290.582
1105.0000	290.534
1105.5000	290.541
1106.0000	290.52
1106.5000	290.562
1107.0000	290.577
1107.5000	290.632
1108.0000	290.736
1108.5000	290.755
1109.0000	290.724
1109.5000	290.771
1110.0000	290.74
1110.5000	290.772
1111.0000	290.906
1111.5000	290.879
1112.0000	290.964
1112.5000	290.953
1113.0000	290.953
1113.5000	290.973
1114.0000	290.969
1114.5000	291.002
1115.0000	291.046
1115.5000	291.117
1116.0000	291.174
1116.5000	291.247
1117.0000	291.229
1117.5000	291.297
1118.0000	291.293
1118.5000	291.305
1119.0000	291.373
1119.5000	291.364
1120.0000	291.372
1120.5000	291.436
1121.0000	291.481
1121.5000	291.503
1122.0000	291.523
1122.5000	291.508
1123.0000	291.535
1123.5000	291.563
1124.0000	291.589
1124.5000	291.572
1125.0000	291.6
1125.5000	291.621
1126.0000	291.655
1126.5000	291.73
1127.0000	291.763
1127.5000	291.776
1128.0000	291.85
1128.5000	291.856
1129.0000	291.854
1129.5000	291.879
1130.0000	291.921
1130.5000	291.959
1131.0000	292.027
1131.5000	292.041
1132.0000	292.032
1132.5000	292.035
1133.0000	292.003
1133.5000	292.033
1134.0000	292.039
1134.5000	292.071
1135.0000	292.129
1135.5000	292.138
1136.0000	292.17
1136.5000	292.197
1137.0000	292.19
1137.5000	292.297
1138.0000	292.345
1138.5000	292.413
1139.0000	292.471
1139.5000	292.453
1140.0000	292.46
1140.5000	292.454
1141.0000	292.431
1141.5000	292.465
1142.0000	292.52
1142.5000	292.548
1143.0000	292.666
1143.5000	292.705
1144.0000	292.735
1144.5000	292.771
1145.0000	292.722
1145.5000	292.732
1146.0000	292.726
1146.5000	292.777
1147.0000	292.848
1147.5000	292.912
1148.0000	292.938
1148.5000	292.929
1149.0000	292.891
1149.5000	292.899
1150.0000	292.918
1150.5000	292.974
1151.0000	293.048
1151.5000	293.042
1152.0000	293.07
1152.5000	293.096
1153.0000	293.132
1153.5000	293.137
1154.0000	293.186
1154.5000	293.253
1155.0000	293.259
1155.5000	293.335
1156.0000	293.358
1156.5000	293.331
1157.0000	293.356
1157.5000	293.379
1158.0000	293.384
1158.5000	293.358
1159.0000	293.375
1159.5000	293.413
1160.0000	293.433
1160.5000	293.548
1161.0000	293.573
1161.5000	293.555
1162.0000	293.647
1162.5000	293.681
1163.0000	293.706
1163.5000	293.774
1164.0000	293.743
1164.5000	293.756
1165.0000	293.827
1165.5000	293.824
1166.0000	293.876
1166.5000	293.887
1167.0000	293.909
1167.5000	293.951
1168.0000	293.967
1168.5000	293.993
1169.0000	294.014
1169.5000	293.988
1170.0000	294.084
1170.5000	294.1
1171.0000	294.143
1171.5000	294.226
1172.0000	294.186
1172.5000	294.205
1173.0000	294.184
1173.5000	294.206
1174.0000	294.211
1174.5000	294.265
1175.0000	294.312
1175.5000	294.306
1176.0000	294.368
1176.5000	294.392
1177.0000	294.406
1177.5000	294.464
1178.0000	294.502
1178.5000	294.468
1179.0000	294.471
1179.5000	294.501
1180.0000	294.445
1180.5000	294.484
1181.0000	294.61
1181.5000	294.62
1182.0000	294.735
1182.5000	294.749
1183.0000	294.759
1183.5000	294.822
1184.0000	294.804
1184.5000	294.904
1185.0000	294.884
1185.5000	294.883
1186.0000	294.896
1186.5000	294.824
1187.0000	294.841
1187.5000	294.839
1188.0000	294.857
1188.5000	294.913
1189.0000	294.95
1189.5000	295.025
1190.0000	295.015
1190.5000	295.039
1191.0000	295.086
1191.5000	295.058
1192.0000	295.161
1192.5000	295.169
1193.0000	295.166
1193.5000	295.252
1194.0000	295.281
1194.5000	295.322
1195.0000	295.374
1195.5000	295.355
1196.0000	295.397
1196.5000	295.504
1197.0000	295.463
1197.5000	295.513
1198.0000	295.538
1198.5000	295.53
1199.0000	295.544
1199.5000	295.583
1200.0000	295.59
1200.5000	295.566
1201.0000	295.598
1201.5000	295.618
1202.0000	295.578
1202.5000	295.657
1203.0000	295.728
1203.5000	295.705
1204.0000	295.784
1204.5000	295.82
1205.0000	295.812
1205.5000	295.804
1206.0000	295.789
1206.5000	295.787
1207.0000	295.783
1207.5000	295.844
1208.0000	295.9
1208.5000	295.88
1209.0000	295.931
1209.5000	295.938
1210.0000	295.956
1210.5000	295.939
1211.0000	295.989
1211.5000	295.996
1212.0000	295.989
1212.5000	296.012
1213.0000	295.994
1213.5000	295.998
1214.0000	295.984
1214.5000	296.082
1215.0000	296.143
1215.5000	296.224
1216.0000	296.297
1216.5000	296.217
1217.0000	296.22
1217.5000	296.19
1218.0000	296.215
1218.5000	296.333
1219.0000	296.385
1219.5000	296.418
1220.0000	296.405
1220.5000	296.355
1221.0000	296.343
1221.5000	296.354
1222.0000	296.369
1222.5000	296.446
1223.0000	296.436
1223.5000	296.467
1224.0000	296.504
1224.5000	296.491
1225.0000	296.486
1225.5000	296.538
1226.0000	296.576
1226.5000	296.599
1227.0000	296.651
1227.5000	296.639
1228.0000	296.647
1228.5000	296.674
1229.0000	296.683
1229.5000	296.685
1230.0000	296.685
1230.5000	296.692
1231.0000	296.679
1231.5000	296.722
1232.0000	296.731
1232.5000	296.72
1233.0000	296.731
1233.5000	296.762
1234.0000	296.852
1234.5000	296.843
1235.0000	296.902
1235.5000	296.89
1236.0000	296.885
1236.5000	296.974
1237.0000	297.001
1237.5000	297.056
1238.0000	297.026
1238.5000	297.008
1239.0000	296.959
1239.5000	296.955
1240.0000	296.966
1240.5000	296.966
1241.0000	297.028
1241.5000	297.058
1242.0000	297.075
1242.5000	297.07
1243.0000	297.106
1243.5000	297.088
1244.0000	297.103
1244.5000	297.116
1245.0000	297.121
1245.5000	297.144
1246.0000	297.162
1246.5000	297.239
1247.0000	297.285
1247.5000	297.337
1248.0000	297.384
1248.5000	297.336
1249.0000	297.309
1249.5000	297.312
1250.0000	297.311
1250.5000	297.345
1251.0000	297.33
1251.5000	297.301
1252.0000	297.293
1252.5000	297.341
1253.0000	297.4
1253.5000	297.438
1254.0000	297.426
1254.5000	297.462
1255.0000	297.499
1255.5000	297.499
1256.0000	297.53
1256.5000	297.487
1257.0000	297.456
1257.5000	297.479
1258.0000	297.541
1258.5000	297.56
1259.0000	297.586
1259.5000	297.574
1260.0000	297.605
1260.5000	297.602
1261.0000	297.603
1261.5000	297.669
1262.0000	297.612
1262.5000	297.637
1263.0000	297.75
1263.5000	297.728
1264.0000	297.747
1264.5000	297.803
1265.0000	297.816
1265.5000	297.821
1266.0000	297.8
1266.5000	297.803
1267.0000	297.772
1267.5000	297.808
1268.0000	297.855
1268.5000	297.894
1269.0000	297.844
1269.5000	297.864
1270.0000	297.905
1270.5000	297.898
1271.0000	297.926
1271.5000	297.916
1272.0000	297.939
1272.5000	297.958
1273.0000	297.965
1273.5000	298.026
1274.0000	298.039
1274.5000	298.054
1275.0000	298.103
1275.5000	298.063
1276.0000	298.071
1276.5000	298.038
1277.0000	298.052
1277.5000	298.032
1278.0000	298.046
1278.5000	298.105
1279.0000	298.081
1279.5000	298.146
1280.0000	298.183
1280.5000	298.171
1281.0000	298.241
1281.5000	298.257
1282.0000	298.245
1282.5000	298.298
1283.0000	298.29
1283.5000	298.316
1284.0000	298.358
1284.5000	298.367
1285.0000	298.416
1285.5000	298.48
1286.0000	298.471
1286.5000	298.534
1287.0000	298.545
1287.5000	298.555
1288.0000	298.628
1288.5000	298.646
1289.0000	298.669
1289.5000	298.654
1290.0000	298.622
1290.5000	298.599
1291.0000	298.582
1291.5000	298.604
1292.0000	298.637
1292.5000	298.612
1293.0000	298.648
1293.5000	298.639
1294.0000	298.705
1294.5000	298.828
1295.0000	298.84
1295.5000	298.899
1296.0000	298.875
1296.5000	298.873
1297.0000	298.868
1297.5000	298.845
1298.0000	298.861
1298.5000	298.852
1299.0000	298.864
1299.5000	298.893
1300.0000	298.875
1300.5000	298.838
1301.0000	298.869
1301.5000	298.914
1302.0000	298.952
1302.5000	299.019
1303.0000	299.044
1303.5000	299.016
1304.0000	299.021
1304.5000	298.985
1305.0000	298.968
1305.5000	299.019
1306.0000	299.054
1306.5000	299.077
1307.0000	299.145
1307.5000	299.185
1308.0000	299.143
1308.5000	299.158
1309.0000	299.174
1309.5000	299.101
1310.0000	299.132
1310.5000	299.202
1311.0000	299.175
1311.5000	299.252
1312.0000	299.318
1312.5000	299.319
1313.0000	299.362
1313.5000	299.344
1314.0000	299.385
1314.5000	299.375
1315.0000	299.408
1315.5000	299.502
1316.0000	299.476
1316.5000	299.478
1317.0000	299.475
1317.5000	299.483
1318.0000	299.55
1318.5000	299.604
1319.0000	299.616
1319.5000	299.595
1320.0000	299.601
1320.5000	299.622
1321.0000	299.706
1321.5000	299.748
1322.0000	299.753
1322.5000	299.812
1323.0000	299.753
1323.5000	299.824
1324.0000	299.798
1324.5000	299.768
1325.0000	299.772
1325.5000	299.715
1326.0000	299.742
1326.5000	299.814
1327.0000	299.846
1327.5000	299.899
1328.0000	299.932
1328.5000	299.883
1329.0000	299.909
1329.5000	299.86
1330.0000	299.908
1330.5000	300.023
1331.0000	300.031
1331.5000	300.058
1332.0000	300.05
1332.5000	299.995
1333.0000	300.052
1333.5000	300.11
1334.0000	300.124
1334.5000	300.143
1335.0000	300.106
1335.5000	300.122
1336.0000	300.109
1336.5000	300.137
1337.0000	300.209
1337.5000	300.206
1338.0000	300.287
1338.5000	300.259
1339.0000	300.305
1339.5000	300.306
1340.0000	300.256
1340.5000	300.303
1341.0000	300.284
1341.5000	300.29
1342.0000	300.344
1342.5000	300.337
1343.0000	300.349
1343.5000	300.364
1344.0000	300.362
1344.5000	300.441
1345.0000	300.44
1345.5000	300.519
1346.0000	300.581
1346.5000	300.563
1347.0000	300.613
1347.5000	300.603
1348.0000	300.633
1348.5000	300.625
1349.0000	300.604
1349.5000	300.643
1350.0000	300.599
1350.5000	300.699
1351.0000	300.723
1351.5000	300.718
1352.0000	300.779
1352.5000	300.77
1353.0000	300.795
1353.5000	300.777
1354.0000	300.759
1354.5000	300.758
1355.0000	300.81
1355.5000	300.895
1356.0000	300.96
1356.5000	300.972
1357.0000	300.986
1357.5000	301.029
1358.0000	301.02
1358.5000	301.018
1359.0000	301.042
1359.5000	301.075
1360.0000	301.123
1360.5000	301.146
1361.0000	301.198
1361.5000	301.077
1362.0000	301.075
1362.5000	301.147
1363.0000	301.117
1363.5000	301.233
1364.0000	301.276
1364.5000	301.224
1365.0000	301.217
1365.5000	301.223
1366.0000	301.192
1366.5000	301.254
1367.0000	301.272
1367.5000	301.28
1368.0000	301.352
1368.5000	301.422
1369.0000	301.458
1369.5000	301.472
1370.0000	301.442
1370.5000	301.393
1371.0000	301.356
1371.5000	301.433
1372.0000	301.465
1372.5000	301.478
1373.0000	301.525
1373.5000	301.487
1374.0000	301.541
1374.5000	301.559
1375.0000	301.616
1375.5000	301.579
1376.0000	301.563
1376.5000	301.601
1377.0000	301.571
1377.5000	301.672
1378.0000	301.679
1378.5000	301.65
1379.0000	301.724
1379.5000	301.715
1380.0000	301.716
1380.5000	301.773
1381.0000	301.761
1381.5000	301.778
1382.0000	301.912
1382.5000	301.929
1383.0000	301.919
1383.5000	301.932
1384.0000	301.898
1384.5000	301.934
1385.0000	301.983
1385.5000	302.04
1386.0000	302.003
1386.5000	301.987
1387.0000	302.007
1387.5000	301.994
1388.0000	302.028
1388.5000	302.089
1389.0000	302.108
1389.5000	302.135
1390.0000	302.159
1390.5000	302.16
1391.0000	302.2
1391.5000	302.175
1392.0000	302.231
1392.5000	302.229
1393.0000	302.232
1393.5000	302.229
1394.0000	302.201
1394.5000	302.215
1395.0000	302.227
1395.5000	302.287
1396.0000	302.289
1396.5000	302.306
1397.0000	302.297
1397.5000	302.33
1398.0000	302.4
1398.5000	302.447
1399.0000	302.485
1399.5000	302.464
1400.0000	302.433
1400.5000	302.441
1401.0000	302.512
1401.5000	302.539
1402.0000	302.558
1402.5000	302.56
1403.0000	302.505
1403.5000	302.55
1404.0000	302.593
1404.5000	302.58
1405.0000	302.635
1405.5000	302.627
1406.0000	302.618
1406.5000	302.673
1407.0000	302.71
1407.5000	302.774
1408.0000	302.817
1408.5000	302.847
1409.0000	302.844
1409.5000	302.802
1410.0000	302.843
1410.5000	302.845
1411.0000	302.862
1411.5000	302.928
1412.0000	302.924
1412.5000	302.934
1413.0000	302.915
1413.5000	302.92
1414.0000	302.92
1414.5000	302.931
1415.0000	302.969
1415.5000	302.981
1416.0000	302.964
1416.5000	303.017
1417.0000	303.046
1417.5000	303.055
1418.0000	303.124
1418.5000	303.105
1419.0000	303.109
1419.5000	303.136
1420.0000	303.139
1420.5000	303.178
1421.0000	303.166
1421.5000	303.176
1422.0000	303.229
1422.5000	303.233
1423.0000	303.267
1423.5000	303.323
1424.0000	303.321
1424.5000	303.365
1425.0000	303.379
1425.5000	303.398
1426.0000	303.396
1426.5000	303.386
1427.0000	303.433
1427.5000	303.405
1428.0000	303.417
1428.5000	303.428
1429.0000	303.393
1429.5000	303.405
1430.0000	303.397
1430.5000	303.39
1431.0000	303.474
1431.5000	303.566
1432.0000	303.623
1432.5000	303.725
1433.0000	303.812
1433.5000	303.76
1434.0000	303.754
1434.5000	303.766
1435.0000	303.658
1435.5000	303.712
1436.0000	303.767
1436.5000	303.688
1437.0000	303.691
1437.5000	303.678
1438.0000	303.678
1438.5000	303.761
1439.0000	303.817
1439.5000	303.884
1440.0000	303.911
1440.5000	303.927
1441.0000	303.933
1441.5000	303.916
1442.0000	303.899
1442.5000	303.895
1443.0000	303.93
1443.5000	303.949
1444.0000	303.993
1444.5000	304.073
1445.0000	304.125
1445.5000	304.053
1446.0000	304.063
1446.5000	304.074
1447.0000	304.078
1447.5000	304.181
1448.0000	304.197
1448.5000	304.179
1449.0000	304.162
1449.5000	304.162
1450.0000	304.178
1450.5000	304.25
1451.0000	304.302
1451.5000	304.307
1452.0000	304.327
1452.5000	304.242
1453.0000	304.216
1453.5000	304.26
1454.0000	304.28
1454.5000	304.32
1455.0000	304.357
1455.5000	304.358
1456.0000	304.385
1456.5000	304.361
1457.0000	304.42
1457.5000	304.408
1458.0000	304.397
1458.5000	304.456
1459.0000	304.413
1459.5000	304.497
1460.0000	304.481
1460.5000	304.44
1461.0000	304.494
1461.5000	304.466
1462.0000	304.562
1462.5000	304.702
1463.0000	304.666
1463.5000	304.678
1464.0000	304.688
1464.5000	304.651
1465.0000	304.75
1465.5000	304.751
1466.0000	304.763
1466.5000	304.769
1467.0000	304.722
1467.5000	304.741
1468.0000	304.726
1468.5000	304.756
1469.0000	304.737
1469.5000	304.772
1470.0000	304.795
1470.5000	304.867
1471.0000	304.996
1471.5000	305.065
1472.0000	305.079
1472.5000	305.015
1473.0000	304.974
1473.5000	305.005
1474.0000	305.054
1474.5000	305.1
1475.0000	305.124
1475.5000	305.122
1476.0000	305.06
1476.5000	305.036
1477.0000	305.081
1477.5000	305.076
1478.0000	305.13
1478.5000	305.233
1479.0000	305.187
1479.5000	305.17
1480.0000	305.198
1480.5000	305.109
1481.0000	305.174
1481.5000	305.213
1482.0000	305.182
1482.5000	305.254
1483.0000	305.247
1483.5000	305.269
1484.0000	305.306
1484.5000	305.296
1485.0000	305.3
1485.5000	305.298
1486.0000	305.356
1486.5000	305.404
1487.0000	305.418
1487.5000	305.461
1488.0000	305.44
1488.5000	305.446
1489.0000	305.45
1489.5000	305.446
1490.0000	305.514
1490.5000	305.507
1491.0000	305.543
1491.5000	305.611
1492.0000	305.586
1492.5000	305.584
1493.0000	305.649
1493.5000	305.66
1494.0000	305.712
1494.5000	305.753
1495.0000	305.669
1495.5000	305.644
1496.0000	305.617
1496.5000	305.613
1497.0000	305.661
1497.5000	305.639
1498.0000	305.613
1498.5000	305.641
1499.0000	305.672
1499.5000	305.696
1500.0000	305.788
1500.5000	305.79
1501.0000	305.741
1501.5000	305.787
1502.0000	305.721
1502.5000	305.764
1503.0000	305.832
1503.5000	305.845
1504.0000	305.884
1504.5000	305.913
1505.0000	305.97
1505.5000	305.977
1506.0000	306.018
1506.5000	306.012
1507.0000	306.048
1507.5000	306.022
1508.0000	306.032
1508.5000	306.075
1509.0000	306.035
1509.5000	306.047
1510.0000	306.066
1510.5000	306.013
1511.0000	306.016
1511.5000	306.067
1512.0000	306.075
1512.5000	306.082
1513.0000	306.106
1513.5000	306.109
1514.0000	306.08
1514.5000	306.181
1515.0000	306.184
1515.5000	306.254
1516.0000	306.307
1516.5000	306.211
1517.0000	306.236
1517.5000	306.176
1518.0000	306.176
1518.5000	306.292
1519.0000	306.336
1519.5000	306.355
1520.0000	306.396
1520.5000	306.347
1521.0000	306.39
1521.5000	306.449
1522.0000	306.446
1522.5000	306.535
1523.0000	306.499
1523.5000	306.475
1524.0000	306.48
1524.5000	306.441
1525.0000	306.368
1525.5000	306.354
1526.0000	306.348
1526.5000	306.357
1527.0000	306.419
1527.5000	306.519
1528.0000	306.513
1528.5000	306.575
1529.0000	306.571
1529.5000	306.545
1530.0000	306.59
1530.5000	306.571
1531.0000	306.652
1531.5000	306.624
1532.0000	306.668
1532.5000	306.64
1533.0000	306.551
1533.5000	306.568
1534.0000	306.551
1534.5000	306.511
1535.0000	306.541
1535.5000	306.568
1536.0000	306.61
1536.5000	306.694
1537.0000	306.738
1537.5000	306.745
1538.0000	306.743
1538.5000	306.716
1539.0000	306.832
1539.5000	306.849
1540.0000	306.857
1540.5000	306.917
1541.0000	306.82
1541.5000	306.84
1542.0000	306.872
1542.5000	306.887
1543.0000	306.89
1543.5000	306.854
1544.0000	306.824
1544.5000	306.82
1545.0000	306.861
1545.5000	306.898
1546.0000	306.905
1546.5000	306.918
1547.0000	306.931
1547.5000	307.009
1548.0000	307.052
1548.5000	307.029
1549.0000	307.015
1549.5000	306.966
1550.0000	306.937
1550.5000	306.999
1551.0000	306.973
1551.5000	306.985
1552.0000	307.007
1552.5000	306.994
1553.0000	307.035
1553.5000	307.069
1554.0000	307.053
1554.5000	307.06
1555.0000	307.125
1555.5000	307.093
1556.0000	307.108
1556.5000	307.099
1557.0000	307.043
1557.5000	307.156
1558.0000	307.228
1558.5000	307.242
1559.0000	307.282
1559.5000	307.219
1560.0000	307.212
1560.5000	307.209
1561.0000	307.204
1561.5000	307.185
1562.0000	307.206
1562.5000	307.283
1563.0000	307.297
1563.5000	307.309
1564.0000	307.319
1564.5000	307.253
1565.0000	307.217
1565.5000	307.237
1566.0000	307.259
1566.5000	307.311
1567.0000	307.368
1567.5000	307.443
1568.0000	307.438
1568.5000	307.43
1569.0000	307.493
1569.5000	307.403
1570.0000	307.411
1570.5000	307.464
1571.0000	307.403
1571.5000	307.45
1572.0000	307.463
1572.5000	307.458
1573.0000	307.461
1573.5000	307.52
1574.0000	307.499
1574.5000	307.479
1575.0000	307.513
1575.5000	307.478
1576.0000	307.499
1576.5000	307.503
1577.0000	307.566
1577.5000	307.594
1578.0000	307.565
1578.5000	307.587
1579.0000	307.573
1579.5000	307.53
1580.0000	307.548
1580.5000	307.522
1581.0000	307.533
1581.5000	307.554
1582.0000	307.608
1582.5000	307.692
1583.0000	307.713
1583.5000	307.729
1584.0000	307.779
1584.5000	307.742
1585.0000	307.681
1585.5000	307.728
1586.0000	307.682
1586.5000	307.695
1587.0000	307.729
1587.5000	307.711
1588.0000	307.733
1588.5000	307.717
1589.0000	307.692
1589.5000	307.671
1590.0000	307.659
1590.5000	307.711
1591.0000	307.765
1591.5000	307.754
1592.0000	307.832
1592.5000	307.842
1593.0000	307.895
1593.5000	307.958
1594.0000	307.903
1594.5000	307.913
1595.0000	307.889
1595.5000	307.914
1596.0000	307.907
1596.5000	307.909
1597.0000	307.903
1597.5000	307.899
1598.0000	307.871
1598.5000	307.888
1599.0000	307.936
1599.5000	307.923
1600.0000	307.996
1600.5000	307.977
1601.0000	307.964
1601.5000	307.971
1602.0000	307.97
1602.5000	307.966
1603.0000	308.007
1603.5000	308.007
1604.0000	308.011
1604.5000	308.016
1605.0000	307.977
1605.5000	307.982
1606.0000	307.974
1606.5000	307.989
1607.0000	307.989
1607.5000	307.983
1608.0000	308.034
1608.5000	308.038
1609.0000	308.063
1609.5000	308.068
1610.0000	308.083
1610.5000	308.085
1611.0000	308.079
1611.5000	308.111
1612.0000	308.066
1612.5000	308.128
1613.0000	308.132
1613.5000	308.198
1614.0000	308.225
1614.5000	308.172
1615.0000	308.185
1615.5000	308.157
1616.0000	308.156
1616.5000	308.221
1617.0000	308.239
1617.5000	308.172
1618.0000	308.169
1618.5000	308.115
1619.0000	308.072
1619.5000	308.191
1620.0000	308.255
1620.5000	308.292
1621.0000	308.356
1621.5000	308.356
1622.0000	308.361
1622.5000	308.352
1623.0000	308.388
1623.5000	308.325
1624.0000	308.272
1624.5000	308.321
1625.0000	308.318
1625.5000	308.356
1626.0000	308.431
1626.5000	308.408
1627.0000	308.325
1627.5000	308.346
1628.0000	308.285
1628.5000	308.256
1629.0000	308.349
1629.5000	308.324
1630.0000	308.353
1630.5000	308.42
1631.0000	308.428
1631.5000	308.433
1632.0000	308.472
1632.5000	308.443
1633.0000	308.405
1633.5000	308.435
1634.0000	308.419
1634.5000	308.477
1635.0000	308.476
1635.5000	308.533
1636.0000	308.616
1636.5000	308.596
1637.0000	308.606
1637.5000	308.637
1638.0000	308.579
1638.5000	308.625
1639.0000	308.666
1639.5000	308.588
1640.0000	308.559
1640.5000	308.517
1641.0000	308.505
1641.5000	308.547
1642.0000	308.576
1642.5000	308.605
1643.0000	308.591
1643.5000	308.535
1644.0000	308.545
1644.5000	308.577
1645.0000	308.592
1645.5000	308.622
1646.0000	308.648
1646.5000	308.591
1647.0000	308.607
1647.5000	308.648
1648.0000	308.6
1648.5000	308.661
1649.0000	308.746
1649.5000	308.719
1650.0000	308.759
1650.5000	308.779
1651.0000	308.714
1651.5000	308.759
1652.0000	308.79
1652.5000	308.738
1653.0000	308.7
1653.5000	308.698
1654.0000	308.671
1654.5000	308.733
1655.0000	308.788
1655.5000	308.757
1656.0000	308.795
1656.5000	308.766
1657.0000	308.757
1657.5000	308.76
1658.0000	308.763
1658.5000	308.803
1659.0000	308.832
1659.5000	308.836
1660.0000	308.824
1660.5000	308.811
1661.0000	308.805
1661.5000	308.852
1662.0000	308.847
1662.5000	308.881
1663.0000	308.904
1663.5000	308.868
1664.0000	308.859
1664.5000	308.799
1665.0000	308.792
1665.5000	308.721
1666.0000	308.741
1666.5000	308.806
1667.0000	308.772
1667.5000	308.905
1668.0000	308.933
1668.5000	308.908
1669.0000	309.005
1669.5000	309.053
1670.0000	309.035
1670.5000	309.019
1671.0000	309.003
1671.5000	308.977
1672.0000	309.015
1672.5000	309.062
1673.0000	308.991
1673.5000	308.99
1674.0000	308.951
1674.5000	308.91
1675.0000	308.977
1675.5000	308.982
1676.0000	309.059
1676.5000	309.076
1677.0000	309.059
1677.5000	309.135
1678.0000	309.133
1678.5000	309.157
1679.0000	309.173
1679.5000	309.123
1680.0000	309.06
1680.5000	309.024
1681.0000	309.004
1681.5000	308.953
1682.0000	309.07
1682.5000	309.127
1683.0000	309.155
1683.5000	309.229
1684.0000	309.153
1684.5000	309.163
1685.0000	309.134
1685.5000	309.108
1686.0000	309.104
1686.5000	309.114
1687.0000	309.179
1687.5000	309.21
1688.0000	309.244
1688.5000	309.239
1689.0000	309.264
1689.5000	309.33
1690.0000	309.374
1690.5000	309.351
1691.0000	309.303
1691.5000	309.245
1692.0000	309.209
1692.5000	309.232
1693.0000	309.277
1693.5000	309.231
1694.0000	309.207
1694.5000	309.269
1695.0000	309.227
1695.5000	309.294
1696.0000	309.359
1696.5000	309.326
1697.0000	309.379
1697.5000	309.356
1698.0000	309.327
1698.5000	309.311
1699.0000	309.347
1699.5000	309.35
1700.0000	309.448
1700.5000	309.506
1701.0000	309.481
1701.5000	309.463
1702.0000	309.432
1702.5000	309.463
1703.0000	309.466
1703.5000	309.497
1704.0000	309.449
1704.5000	309.433
1705.0000	309.482
1705.5000	309.481
1706.0000	309.539
1706.5000	309.539
1707.0000	309.512
1707.5000	309.576
1708.0000	309.529
1708.5000	309.52
1709.0000	309.478
1709.5000	309.481
1710.0000	309.473
1710.5000	309.467
1711.0000	309.516
1711.5000	309.514
1712.0000	309.535
1712.5000	309.519
1713.0000	309.508
1713.5000	309.514
1714.0000	309.573
1714.5000	309.59
1715.0000	309.615
1715.5000	309.558
1716.0000	309.482
1716.5000	309.51
1717.0000	309.52
1717.5000	309.584
1718.0000	309.632
1718.5000	309.666
1719.0000	309.667
1719.5000	309.651
1720.0000	309.666
1720.5000	309.67
1721.0000	309.7
1721.5000	309.724
1722.0000	309.71
1722.5000	309.714
1723.0000	309.66
1723.5000	309.611
1724.0000	309.593
1724.5000	309.574
1725.0000	309.613
1725.5000	309.676
1726.0000	309.752
1726.5000	309.797
1727.0000	309.746
1727.5000	309.744
1728.0000	309.719
1728.5000	309.725
1729.0000	309.811
1729.5000	309.794
1730.0000	309.776
1730.5000	309.769
1731.0000	309.791
1731.5000	309.877
1732.0000	309.905
1732.5000	309.882
1733.0000	309.857
1733.5000	309.784
1734.0000	309.796
1734.5000	309.797
1735.0000	309.846
1735.5000	309.853
1736.0000	309.891
1736.5000	309.897
1737.0000	309.847
1737.5000	309.863
1738.0000	309.838
1738.5000	309.822
1739.0000	309.89
1739.5000	309.893
1740.0000	309.867
1740.5000	309.938
1741.0000	309.876
1741.5000	309.885
1742.0000	309.91
1742.5000	309.867
1743.0000	309.878
1743.5000	309.936
1744.0000	309.96
1744.5000	309.954
1745.0000	309.94
1745.5000	309.932
1746.0000	309.899
1746.5000	309.938
1747.0000	309.98
1747.5000	309.983
1748.0000	310.035
1748.5000	310.052
1749.0000	310.025
1749.5000	310.001
1750.0000	310.011
1750.5000	309.963
1751.0000	309.997
1751.5000	309.986
1752.0000	309.964
1752.5000	310.016
1753.0000	310.027
1753.5000	310.071
1754.0000	310.048
1754.5000	310.025
1755.0000	310.026
1755.5000	310.03
1756.0000	310.061
1756.5000	310.086
1757.0000	310.086
1757.5000	310.084
1758.0000	310.098
1758.5000	310.14
1759.0000	310.145
1759.5000	310.118
1760.0000	310.13
1760.5000	310.102
1761.0000	310.117
1761.5000	310.154
1762.0000	310.156
1762.5000	310.181
1763.0000	310.155
1763.5000	310.165
1764.0000	310.172
1764.5000	310.114
1765.0000	310.15
1765.5000	310.149
1766.0000	310.174
1766.5000	310.283
1767.0000	310.276
1767.5000	310.28
1768.0000	310.263
1768.5000	310.238
1769.0000	310.287
1769.5000	310.258
1770.0000	310.275
1770.5000	310.263
1771.0000	310.195
1771.5000	310.27
1772.0000	310.265
1772.5000	310.25
1773.0000	310.294
1773.5000	310.253
1774.0000	310.318
1774.5000	310.307
1775.0000	310.272
1775.5000	310.337
1776.0000	310.297
1776.5000	310.305
1777.0000	310.358
1777.5000	310.285
1778.0000	310.264
1778.5000	310.298
1779.0000	310.219
1779.5000	310.234
1780.0000	310.235
1780.5000	310.161
1781.0000	310.234
1781.5000	310.283
1782.0000	310.267
1782.5000	310.308
1783.0000	310.285
1783.5000	310.209
1784.0000	310.211
1784.5000	310.258
1785.0000	310.266
1785.5000	310.326
1786.0000	310.337
1786.5000	310.295
1787.0000	310.353
1787.5000	310.337
1788.0000	310.329
1788.5000	310.326
1789.0000	310.189
1789.5000	310.205
1790.0000	310.274
1790.5000	310.312
1791.0000	310.419
1791.5000	310.41
1792.0000	310.398
1792.5000	310.422
1793.0000	310.432
1793.5000	310.416
1794.0000	310.47
1794.5000	310.494
1795.0000	310.459
1795.5000	310.541
1796.0000	310.502
1796.5000	310.47
1797.0000	310.478
1797.5000	310.486
1798.0000	310.506
1798.5000	310.521
1799.0000	310.554
1799.5000	310.461
1800.0000	310.404
1800.5000	310.406
1801.0000	310.419
1801.5000	310.507
1802.0000	310.524
1802.5000	310.545
1803.0000	310.545
1803.5000	310.495
1804.0000	310.528
1804.5000	310.49
1805.0000	310.473
1805.5000	310.506
1806.0000	310.453
1806.5000	310.468
1807.0000	310.524
1807.5000	310.491
1808.0000	310.538
1808.5000	310.545
1809.0000	310.469
1809.5000	310.539
1810.0000	310.511
1810.5000	310.514
1811.0000	310.58
1811.5000	310.576
1812.0000	310.638
1812.5000	310.612
1813.0000	310.577
1813.5000	310.524
1814.0000	310.512
1814.5000	310.591
1815.0000	310.613
1815.5000	310.607
1816.0000	310.598
1816.5000	310.563
1817.0000	310.497
1817.5000	310.561
1818.0000	310.583
1818.5000	310.554
1819.0000	310.645
1819.5000	310.651
1820.0000	310.634
1820.5000	310.642
1821.0000	310.71
1821.5000	310.676
1822.0000	310.672
1822.5000	310.755
1823.0000	310.724
1823.5000	310.669
1824.0000	310.68
1824.5000	310.61
1825.0000	310.586
1825.5000	310.684
1826.0000	310.693
1826.5000	310.757
1827.0000	310.735
1827.5000	310.724
1828.0000	310.698
1828.5000	310.674
1829.0000	310.693
1829.5000	310.641
1830.0000	310.689
1830.5000	310.672
1831.0000	310.688
1831.5000	310.763
1832.0000	310.724
1832.5000	310.759
1833.0000	310.739
1833.5000	310.751
1834.0000	310.696
1834.5000	310.641
1835.0000	310.581
1835.5000	310.445
1836.0000	310.424
1836.5000	310.365
1837.0000	310.343
1837.5000	310.394
1838.0000	310.452
1838.5000	310.488
1839.0000	310.581
1839.5000	310.602
1840.0000	310.575
1840.5000	310.667
1841.0000	310.624
1841.5000	310.669
1842.0000	310.744
1842.5000	310.781
1843.0000	310.844
1843.5000	310.796
1844.0000	310.81
1844.5000	310.742
1845.0000	310.737
1845.5000	310.831
1846.0000	310.828
1846.5000	310.799
1847.0000	310.795
1847.5000	310.73
1848.0000	310.742
1848.5000	310.753
1849.0000	310.73
1849.5000	310.803
1850.0000	310.751
1850.5000	310.811
1851.0000	310.847
1851.5000	310.787
1852.0000	310.851
1852.5000	310.838
1853.0000	310.901
1853.5000	310.921
1854.0000	310.881
1854.5000	310.926
1855.0000	310.93
1855.5000	310.903
1856.0000	310.955
1856.5000	310.935
1857.0000	310.871
1857.5000	310.951
1858.0000	310.936
1858.5000	310.971
1859.0000	310.987
1859.5000	310.954
1860.0000	310.948
1860.5000	310.913
1861.0000	310.94
1861.5000	310.945
1862.0000	310.986
1862.5000	310.996
1863.0000	311.047
1863.5000	311.085
1864.0000	311.096
1864.5000	311.117
1865.0000	311.119
1865.5000	311.108
1866.0000	311.098
1866.5000	311.039
1867.0000	310.991
1867.5000	311.01
1868.0000	311.046
1868.5000	311.121
1869.0000	311.155
1869.5000	311.201
1870.0000	311.202
1870.5000	311.192
1871.0000	311.14
1871.5000	311.058
1872.0000	311.07
1872.5000	311.064
1873.0000	311.148
1873.5000	311.217
1874.0000	311.17
1874.5000	311.173
1875.0000	311.13
1875.5000	311.203
1876.0000	311.224
1876.5000	311.27
1877.0000	311.349
1877.5000	311.254
1878.0000	311.278
1878.5000	311.286
1879.0000	311.316
1879.5000	311.365
1880.0000	311.365
1880.5000	311.353
1881.0000	311.232
1881.5000	311.242
1882.0000	311.309
1882.5000	311.34
1883.0000	311.428
1883.5000	311.443
1884.0000	311.401
1884.5000	311.374
1885.0000	311.353
1885.5000	311.286
1886.0000	311.318
1886.5000	311.354
1887.0000	311.383
1887.5000	311.442
1888.0000	311.468
1888.5000	311.458
1889.0000	311.438
1889.5000	311.45
1890.0000	311.407
1890.5000	311.359
1891.0000	311.377
1891.5000	311.403
1892.0000	311.466
1892.5000	311.571
1893.0000	311.584
1893.5000	311.558
1894.0000	311.58
1894.5000	311.517
1895.0000	311.514
1895.5000	311.552
1896.0000	311.453
1896.5000	311.458
1897.0000	311.486
1897.5000	311.531
1898.0000	311.588
1898.5000	311.621
1899.0000	311.635
1899.5000	311.591
1900.0000	311.655
1900.5000	311.661
1901.0000	311.643
1901.5000	311.642
1902.0000	311.588
1902.5000	311.625
1903.0000	311.663
1903.5000	311.682
1904.0000	311.677
1904.5000	311.676
1905.0000	311.584
1905.5000	311.622
1906.0000	311.682
1906.5000	311.668
1907.0000	311.756
1907.5000	311.686
1908.0000	311.665
1908.5000	311.659
1909.0000	311.652
1909.5000	311.734
1910.0000	311.74
1910.5000	311.765
1911.0000	311.777
1911.5000	311.713
1912.0000	311.719
1912.5000	311.711
1913.0000	311.691
1913.5000	311.756
1914.0000	311.809
1914.5000	311.864
1915.0000	311.915
1915.5000	311.912
1916.0000	311.905
1916.5000	311.949
1917.0000	311.966
1917.5000	311.998
1918.0000	312.045
1918.5000	312.038
1919.0000	312.045
1919.5000	312.017
1920.0000	312.031
1920.5000	311.987
1921.0000	312.024
1921.5000	312.117
1922.0000	312.069
1922.5000	312.083
1923.0000	312.069
1923.5000	312.034
1924.0000	312.001
1924.5000	312.025
1925.0000	312.017
1925.5000	311.993
1926.0000	312.099
1926.5000	312.13
1927.0000	312.158
1927.5000	312.096
1928.0000	312.073
1928.5000	312.034
1929.0000	312.029
1929.5000	312.09
1930.0000	312.075
1930.5000	312.117
1931.0000	312.139
1931.5000	312.191
1932.0000	312.241
1932.5000	312.271
1933.0000	312.293
1933.5000	312.321
1934.0000	312.327
1934.5000	312.326
1935.0000	312.363
1935.5000	312.413
1936.0000	312.41
1936.5000	312.466
1937.0000	312.446
1937.5000	312.417
1938.0000	312.399
1938.5000	312.319
1939.0000	312.319
1939.5000	312.342
1940.0000	312.385
1940.5000	312.425
1941.0000	312.439
1941.5000	312.419
1942.0000	312.456
1942.5000	312.501
1943.0000	312.514
1943.5000	312.456
1944.0000	312.463
1944.5000	312.49
1945.0000	312.544
1945.5000	312.617
1946.0000	312.602
1946.5000	312.586
1947.0000	312.617
1947.5000	312.619
1948.0000	312.71
1948.5000	312.826
1949.0000	312.796
1949.5000	312.822
1950.0000	312.784
1950.5000	312.743
1951.0000	312.774
1951.5000	312.778
1952.0000	312.785
1952.5000	312.827
1953.0000	312.815
1953.5000	312.835
1954.0000	312.866
1954.5000	312.867
1955.0000	312.874
1955.5000	312.912
1956.0000	312.948
1956.5000	312.912
1957.0000	312.917
1957.5000	312.924
1958.0000	312.887
1958.5000	312.866
1959.0000	312.884
1959.5000	312.91
1960.0000	312.944
1960.5000	313.008
1961.0000	313.011
1961.5000	313.04
1962.0000	313.113
1962.5000	313.16
1963.0000	313.219
1963.5000	313.255
1964.0000	313.233
1964.5000	313.21
1965.0000	313.255
1965.5000	313.232
1966.0000	313.244
1966.5000	313.271
1967.0000	313.238
1967.5000	313.301
1968.0000	313.34
1968.5000	313.359
1969.0000	313.459
1969.5000	313.461
1970.0000	313.468
1970.5000	313.519
1971.0000	313.47
1971.5000	313.451
1972.0000	313.486
1972.5000	313.457
1973.0000	313.493
1973.5000	313.551
1974.0000	313.585
1974.5000	313.657
1975.0000	313.695
1975.5000	313.685
1976.0000	313.705
1976.5000	313.755
1977.0000	313.704
1977.5000	313.707
1978.0000	313.723
1978.5000	313.725
1979.0000	313.76
1979.5000	313.779
1980.0000	313.788
1980.5000	313.739
1981.0000	313.804
1981.5000	313.844
1982.0000	313.846
1982.5000	313.864
1983.0000	313.908
1983.5000	313.922
1984.0000	313.949
1984.5000	314.011
1985.0000	313.974
1985.5000	314.036
1986.0000	314.043
1986.5000	314.019
1987.0000	314.081
1987.5000	314.052
1988.0000	314.136
1988.5000	314.198
1989.0000	314.258
1989.5000	314.327
1990.0000	314.296
1990.5000	314.325
1991.0000	314.266
1991.5000	314.26
1992.0000	314.27
1992.5000	314.306
1993.0000	314.377
1993.5000	314.384
1994.0000	314.454
1994.5000	314.455
1995.0000	314.459
1995.5000	314.446
1996.0000	314.42
1996.5000	314.517
1997.0000	314.527
1997.5000	314.66
1998.0000	314.684
1998.5000	314.595
1999.0000	314.564
1999.5000	314.568
2000.0000	314.627
2000.5000	314.672
2001.0000	314.767
2001.5000	314.744
2002.0000	314.726
2002.5000	314.797
2003.0000	314.799
2003.5000	314.817
2004.0000	314.87
2004.5000	314.838
2005.0000	314.897
2005.5000	314.957
2006.0000	314.985
2006.5000	315.047
2007.0000	315.074
2007.5000	315.047
2008.0000	315.102
2008.5000	315.154
2009.0000	315.166
2009.5000	315.216
2010.0000	315.211
2010.5000	315.207
2011.0000	315.228
2011.5000	315.297
2012.0000	315.329
2012.5000	315.343
2013.0000	315.343
2013.5000	315.382
2014.0000	315.398
2014.5000	315.394
2015.0000	315.439
2015.5000	315.397
2016.0000	315.372
2016.5000	315.433
2017.0000	315.445
2017.5000	315.525
2018.0000	315.593
2018.5000	315.563
2019.0000	315.595
2019.5000	315.579
2020.0000	315.623
2020.5000	315.69
2021.0000	315.709
2021.5000	315.741
2022.0000	315.699
2022.5000	315.715
2023.0000	315.734
2023.5000	315.754
2024.0000	315.802
2024.5000	315.797
2025.0000	315.795
2025.5000	315.855
2026.0000	315.884
2026.5000	315.884
2027.0000	315.976
2027.5000	315.951
2028.0000	315.946
2028.5000	315.999
2029.0000	315.969
2029.5000	315.987
2030.0000	315.986
2030.5000	315.98
2031.0000	315.991
2031.5000	315.991
2032.0000	316.093
2032.5000	316.113
2033.0000	316.182
2033.5000	316.195
2034.0000	316.12
2034.5000	316.162
2035.0000	316.142
2035.5000	316.123
2036.0000	316.179
2036.5000	316.194
2037.0000	316.203
2037.5000	316.275
2038.0000	316.325
2038.5000	316.384
2039.0000	316.39
2039.5000	316.439
2040.0000	316.42
2040.5000	316.391
2041.0000	316.423
2041.5000	316.426
2042.0000	316.436
2042.5000	316.433
2043.0000	316.456
2043.5000	316.454
2044.0000	316.506
2044.5000	316.484
2045.0000	316.51
2045.5000	316.513
2046.0000	316.48
2046.5000	316.598
2047.0000	316.635
2047.5000	316.721
2048.0000	316.787
2048.5000	316.773
2049.0000	316.792
2049.5000	316.775
2050.0000	316.75
2050.5000	316.786
2051.0000	316.818
2051.5000	316.811
2052.0000	316.82
2052.5000	316.859
2053.0000	316.911
2053.5000	316.881
2054.0000	316.935
2054.5000	316.949
2055.0000	316.929
2055.5000	317.058
2056.0000	317.097
2056.5000	317.051
2057.0000	317.063
2057.5000	316.982
2058.0000	316.973
2058.5000	317.069
2059.0000	317.06
2059.5000	317.169
2060.0000	317.181
2060.5000	317.217
2061.0000	317.295
2061.5000	317.255
2062.0000	317.333
2062.5000	317.363
2063.0000	317.358
2063.5000	317.427
2064.0000	317.334
2064.5000	317.294
2065.0000	317.296
2065.5000	317.289
2066.0000	317.368
2066.5000	317.407
2067.0000	317.426
2067.5000	317.418
2068.0000	317.464
2068.5000	317.515
2069.0000	317.522
2069.5000	317.611
2070.0000	317.672
2070.5000	317.655
2071.0000	317.758
2071.5000	317.732
2072.0000	317.734
2072.5000	317.798
2073.0000	317.806
2073.5000	317.879
2074.0000	317.898
2074.5000	317.877
2075.0000	317.845
2075.5000	317.827
2076.0000	317.839
2076.5000	317.873
2077.0000	317.896
2077.5000	317.941
2078.0000	317.981
2078.5000	317.982
2079.0000	317.994
2079.5000	318.023
2080.0000	318.04
2080.5000	318.086
2081.0000	318.152
2081.5000	318.143
2082.0000	318.164
2082.5000	318.107
2083.0000	318.099
2083.5000	318.08
2084.0000	318.074
2084.5000	318.162
2085.0000	318.236
2085.5000	318.269
2086.0000	318.34
2086.5000	318.294
2087.0000	318.216
2087.5000	318.268
2088.0000	318.22
2088.5000	318.278
2089.0000	318.392
2089.5000	318.403
2090.0000	318.39
2090.5000	318.429
2091.0000	318.414
2091.5000	318.415
2092.0000	318.481
2092.5000	318.516
2093.0000	318.517
2093.5000	318.541
2094.0000	318.542
2094.5000	318.479
2095.0000	318.437
2095.5000	318.499
2096.0000	318.553
2096.5000	318.636
2097.0000	318.728
2097.5000	318.72
2098.0000	318.766
2098.5000	318.798
2099.0000	318.812
2099.5000	318.847
2100.0000	318.851
2100.5000	318.933
2101.0000	318.924
2101.5000	318.976
2102.0000	318.94
2102.5000	318.897
2103.0000	318.932
2103.5000	318.924
2104.0000	318.975
2104.5000	319.043
2105.0000	319.039
2105.5000	319.03
2106.0000	319.05
2106.5000	319.044
2107.0000	319.059
2107.5000	319.056
2108.0000	319.065
2108.5000	319.091
2109.0000	319.097
2109.5000	319.178
2110.0000	319.232
2110.5000	319.208
2111.0000	319.284
2111.5000	319.27
2112.0000	319.279
2112.5000	319.281
2113.0000	319.29
2113.5000	319.328
2114.0000	319.302
2114.5000	319.274
2115.0000	319.271
2115.5000	319.277
2116.0000	319.314
2116.5000	319.432
2117.0000	319.486
2117.5000	319.476
2118.0000	319.56
2118.5000	319.538
2119.0000	319.49
2119.5000	319.524
2120.0000	319.453
2120.5000	319.501
2121.0000	319.556
2121.5000	319.584
2122.0000	319.642
2122.5000	319.678
2123.0000	319.732
2123.5000	319.762
2124.0000	319.772
2124.5000	319.779
2125.0000	319.746
2125.5000	319.768
2126.0000	319.805
2126.5000	319.816
2127.0000	319.911
2127.5000	319.896
2128.0000	319.911
2128.5000	319.907
2129.0000	319.905
2129.5000	319.954
2130.0000	319.993
2130.5000	319.998
2131.0000	319.998
2131.5000	319.99
2132.0000	319.962
2132.5000	320.013
2133.0000	320.058
2133.5000	320.078
2134.0000	320.08
2134.5000	320.061
2135.0000	320.012
2135.5000	320.037
2136.0000	320.118
2136.5000	320.126
2137.0000	320.197
2137.5000	320.232
2138.0000	320.227
2138.5000	320.25
2139.0000	320.247
2139.5000	320.236
2140.0000	320.248
2140.5000	320.243
2141.0000	320.212
2141.5000	320.276
2142.0000	320.352
2142.5000	320.397
2143.0000	320.45
2143.5000	320.42
2144.0000	320.413
2144.5000	320.45
2145.0000	320.482
2145.5000	320.532
2146.0000	320.475
2146.5000	320.497
2147.0000	320.492
2147.5000	320.467
2148.0000	320.537
2148.5000	320.49
2149.0000	320.483
2149.5000	320.503
2150.0000	320.433
2150.5000	320.458
2151.0000	320.508
2151.5000	320.537
2152.0000	320.632
2152.5000	320.65
2153.0000	320.631
2153.5000	320.637
2154.0000	320.62
2154.5000	320.663
2155.0000	320.706
2155.5000	320.728
2156.0000	320.797
2156.5000	320.824
2157.0000	320.885
2157.5000	320.892
2158.0000	320.81
2158.5000	320.812
2159.0000	320.76
2159.5000	320.746
2160.0000	320.808
2160.5000	320.862
2161.0000	320.864
2161.5000	320.92
2162.0000	320.902
2162.5000	320.866
2163.0000	320.886
2163.5000	320.87
2164.0000	320.953
2164.5000	320.959
2165.0000	321.021
2165.5000	321.07
2166.0000	321.072
2166.5000	321.114
2167.0000	321.117
2167.5000	321.132
2168.0000	321.199
2168.5000	321.208
2169.0000	321.175
2169.5000	321.185
2170.0000	321.194
2170.5000	321.212
2171.0000	321.286
2171.5000	321.299
2172.0000	321.29
2172.5000	321.33
2173.0000	321.321
2173.5000	321.316
2174.0000	321.329
2174.5000	321.298
2175.0000	321.279
2175.5000	321.391
2176.0000	321.394
2176.5000	321.434
2177.0000	321.487
2177.5000	321.427
2178.0000	321.439
2178.5000	321.43
2179.0000	321.428
2179.5000	321.422
2180.0000	321.381
2180.5000	321.399
2181.0000	321.412
2181.5000	321.46
2182.0000	321.494
2182.5000	321.493
2183.0000	321.501
2183.5000	321.513
2184.0000	321.569
2184.5000	321.6
2185.0000	321.655
2185.5000	321.642
2186.0000	321.641
2186.5000	321.703
2187.0000	321.747
2187.5000	321.768
2188.0000	321.791
2188.5000	321.787
2189.0000	321.728
2189.5000	321.786
2190.0000	321.779
2190.5000	321.776
2191.0000	321.83
2191.5000	321.841
2192.0000	321.826
2192.5000	321.844
2193.0000	321.884
2193.5000	321.873
2194.0000	321.914
2194.5000	321.969
2195.0000	321.973
2195.5000	321.945
2196.0000	322.004
2196.5000	321.981
2197.0000	321.936
2197.5000	322.074
2198.0000	322.014
2198.5000	322.043
2199.0000	322.054
2199.5000	322.015
2200.0000	322.095
2200.5000	322.107
2201.0000	322.129
2201.5000	322.097
2202.0000	322.189
2202.5000	322.182
2203.0000	322.239
2203.5000	322.286
2204.0000	322.227
2204.5000	322.28
2205.0000	322.314
2205.5000	322.292
2206.0000	322.332
2206.5000	322.325
2207.0000	322.307
2207.5000	322.396
2208.0000	322.384
2208.5000	322.41
2209.0000	322.4
2209.5000	322.434
2210.0000	322.467
2210.5000	322.505
2211.0000	322.6
2211.5000	322.575
2212.0000	322.51
2212.5000	322.483
2213.0000	322.454
2213.5000	322.493
2214.0000	322.529
2214.5000	322.592
2215.0000	322.699
2215.5000	322.659
2216.0000	322.697
2216.5000	322.713
2217.0000	322.701
2217.5000	322.722
2218.0000	322.819
2218.5000	322.902
2219.0000	322.848
2219.5000	322.915
2220.0000	322.844
2220.5000	322.773
2221.0000	322.869
2221.5000	322.873
2222.0000	322.889
2222.5000	322.891
2223.0000	322.886
2223.5000	322.925
2224.0000	323.019
2224.5000	323.098
2225.0000	323.127
2225.5000	323.121
2226.0000	323.091
2226.5000	323.053
2227.0000	323.073
