TITLE	
DATA TYPE	
ORIGIN	JASCO
OWNER	
DATE	22/04/20
TIME	09:21:15
SPECTROMETER/DATA SYSTEM	
RESOLUTION	
DELTAX	0.5
XUNITS	SEC
YUNITS	INTENSITY
FIRSTX	0.0000
LASTX	2281.0000
NPOINTS	4563
FIRSTY	447.33148
MAXY	459.25253
MINY	-129.01566
XYDATA
0.0000	447.331
0.5000	446.98
1.0000	446.774
1.5000	446.556
2.0000	446.519
2.5000	446.447
3.0000	446.349
3.5000	446.22
4.0000	446.099
4.5000	446.101
5.0000	446.123
5.5000	446.141
6.0000	446.19
6.5000	446.143
7.0000	446.142
7.5000	446.253
8.0000	446.277
8.5000	446.277
9.0000	446.427
9.5000	446.43
10.0000	446.368
10.5000	446.496
11.0000	446.478
11.5000	446.485
12.0000	446.563
12.5000	446.56
13.0000	446.47
13.5000	446.433
14.0000	446.501
14.5000	446.416
15.0000	446.39
15.5000	446.408
16.0000	446.315
16.5000	446.448
17.0000	446.528
17.5000	446.585
18.0000	446.636
18.5000	446.56
19.0000	446.557
19.5000	446.484
20.0000	446.578
20.5000	446.657
21.0000	446.644
21.5000	446.82
22.0000	446.751
22.5000	446.654
23.0000	446.712
23.5000	446.663
24.0000	446.638
24.5000	446.651
25.0000	446.706
25.5000	446.642
26.0000	446.665
26.5000	446.679
27.0000	446.694
27.5000	446.741
28.0000	446.775
28.5000	446.874
29.0000	446.854
29.5000	446.964
30.0000	446.99
30.5000	447.027
31.0000	447.09
31.5000	447.066
32.0000	447.057
32.5000	446.987
33.0000	446.945
33.5000	446.926
34.0000	446.934
34.5000	447.057
35.0000	447.212
35.5000	447.252
36.0000	447.32
36.5000	447.347
37.0000	447.285
37.5000	447.245
38.0000	443.42
38.5000	426.868
39.0000	401.364
39.5000	331.081
40.0000	-129.016
40.5000	-50.9079
41.0000	-35.0028
41.5000	-31.1311
42.0000	-29.4372
42.5000	-28.4131
43.0000	-27.7263
43.5000	-27.2542
44.0000	-26.8771
44.5000	-26.4976
45.0000	-26.2049
45.5000	248.176
46.0000	237.145
46.5000	235.058
47.0000	234.059
47.5000	215.348
48.0000	216.28
48.5000	216.298
49.0000	216.279
49.5000	216.333
50.0000	216.439
50.5000	216.478
51.0000	216.582
51.5000	216.668
52.0000	216.726
52.5000	216.854
53.0000	216.904
53.5000	217.02
54.0000	217.085
54.5000	217.05
55.0000	216.979
55.5000	216.904
56.0000	216.907
56.5000	217.035
57.0000	217.291
57.5000	217.539
58.0000	217.731
58.5000	217.92
59.0000	218.076
59.5000	218.238
60.0000	218.389
60.5000	218.513
61.0000	218.638
61.5000	218.795
62.0000	218.926
62.5000	219.045
63.0000	219.146
63.5000	219.198
64.0000	219.349
64.5000	219.442
65.0000	219.565
65.5000	219.732
66.0000	219.8
66.5000	219.89
67.0000	220.057
67.5000	220.155
68.0000	220.269
68.5000	220.422
69.0000	220.552
69.5000	220.707
70.0000	220.883
70.5000	221.072
71.0000	221.176
71.5000	221.256
72.0000	221.393
72.5000	221.532
73.0000	221.667
73.5000	221.83
74.0000	221.896
74.5000	222.03
75.0000	222.152
75.5000	222.25
76.0000	222.426
76.5000	222.45
77.0000	222.569
77.5000	222.698
78.0000	222.858
78.5000	223.037
79.0000	223.191
79.5000	223.354
80.0000	223.458
80.5000	223.607
81.0000	223.768
81.5000	223.901
82.0000	224.012
82.5000	224.121
83.0000	224.2
83.5000	224.357
84.0000	224.492
84.5000	224.655
85.0000	224.792
85.5000	224.867
86.0000	225.027
86.5000	225.16
87.0000	225.235
87.5000	225.355
88.0000	225.477
88.5000	225.609
89.0000	225.83
89.5000	225.974
90.0000	226.117
90.5000	226.229
91.0000	226.344
91.5000	226.475
92.0000	226.593
92.5000	226.771
93.0000	226.903
93.5000	227.038
94.0000	227.205
94.5000	227.28
95.0000	227.391
95.5000	227.503
96.0000	227.62
96.5000	227.769
97.0000	227.962
97.5000	228.171
98.0000	228.259
98.5000	228.397
99.0000	228.492
99.5000	228.537
100.0000	228.675
100.5000	228.801
101.0000	228.895
101.5000	229.071
102.0000	229.189
102.5000	229.33
103.0000	229.505
103.5000	229.622
104.0000	229.768
104.5000	229.902
105.0000	229.961
105.5000	230.113
106.0000	230.251
106.5000	230.356
107.0000	230.52
107.5000	230.597
108.0000	230.697
108.5000	230.873
109.0000	230.986
109.5000	231.122
110.0000	231.295
110.5000	231.391
111.0000	231.551
111.5000	231.684
112.0000	231.759
112.5000	231.818
113.0000	231.898
113.5000	232.02
114.0000	232.202
114.5000	232.383
115.0000	232.537
115.5000	232.671
116.0000	232.778
116.5000	232.911
117.0000	233.041
117.5000	233.178
118.0000	233.281
118.5000	233.386
119.0000	233.516
119.5000	233.619
120.0000	233.728
120.5000	233.848
121.0000	233.921
121.5000	234.091
122.0000	234.188
122.5000	234.29
123.0000	234.425
123.5000	234.525
124.0000	234.685
124.5000	234.787
125.0000	234.907
125.5000	235
126.0000	235.114
126.5000	235.287
127.0000	235.453
127.5000	235.529
128.0000	235.676
128.5000	235.798
129.0000	235.898
129.5000	236.097
130.0000	236.181
130.5000	236.31
131.0000	236.403
131.5000	236.497
132.0000	236.664
132.5000	236.745
133.0000	236.891
133.5000	237.008
134.0000	237.054
134.5000	237.174
135.0000	237.299
135.5000	237.483
136.0000	237.611
136.5000	237.713
137.0000	237.815
137.5000	237.844
138.0000	238.013
138.5000	238.18
139.0000	238.322
139.5000	238.437
140.0000	238.512
140.5000	238.652
141.0000	238.714
141.5000	238.872
142.0000	239.028
142.5000	239.117
143.0000	239.284
143.5000	239.393
144.0000	239.503
144.5000	239.601
145.0000	239.7
145.5000	239.758
146.0000	239.885
146.5000	239.968
147.0000	240.068
147.5000	240.276
148.0000	240.369
148.5000	240.492
149.0000	240.604
149.5000	240.727
150.0000	240.799
150.5000	240.927
151.0000	241.075
151.5000	241.088
152.0000	241.231
152.5000	241.404
153.0000	241.546
153.5000	241.657
154.0000	241.69
154.5000	241.792
155.0000	241.879
155.5000	242.05
156.0000	242.233
156.5000	242.336
157.0000	242.429
157.5000	242.591
158.0000	242.743
158.5000	242.886
159.0000	242.979
159.5000	243.062
160.0000	243.162
160.5000	243.225
161.0000	243.405
161.5000	243.5
162.0000	243.656
162.5000	243.809
163.0000	243.916
163.5000	244.008
164.0000	244.12
164.5000	244.258
165.0000	244.42
165.5000	244.563
166.0000	244.691
166.5000	244.81
167.0000	244.834
167.5000	244.94
168.0000	245.057
168.5000	245.12
169.0000	245.273
169.5000	245.445
170.0000	245.535
170.5000	245.667
171.0000	245.781
171.5000	245.88
172.0000	245.987
172.5000	246.041
173.0000	246.166
173.5000	246.251
174.0000	246.379
174.5000	246.527
175.0000	246.591
175.5000	246.718
176.0000	246.845
176.5000	247.016
177.0000	247.193
177.5000	247.257
178.0000	247.345
178.5000	247.441
179.0000	247.495
179.5000	247.59
180.0000	247.761
180.5000	247.842
181.0000	247.985
181.5000	248.17
182.0000	248.206
182.5000	248.326
183.0000	248.441
183.5000	248.548
184.0000	248.698
184.5000	248.817
185.0000	248.928
185.5000	249.049
186.0000	249.14
186.5000	249.227
187.0000	249.327
187.5000	249.464
188.0000	249.572
188.5000	249.744
189.0000	249.861
189.5000	249.976
190.0000	250.098
190.5000	250.192
191.0000	250.292
191.5000	250.368
192.0000	250.442
192.5000	250.519
193.0000	250.643
193.5000	250.736
194.0000	250.897
194.5000	250.977
195.0000	251.102
195.5000	251.232
196.0000	251.298
196.5000	251.435
197.0000	251.533
197.5000	251.628
198.0000	251.809
198.5000	251.903
199.0000	252.006
199.5000	252.106
200.0000	252.172
200.5000	252.323
201.0000	252.469
201.5000	252.6
202.0000	252.676
202.5000	252.79
203.0000	252.854
203.5000	252.924
204.0000	253.107
204.5000	253.181
205.0000	253.254
205.5000	253.418
206.0000	253.502
206.5000	253.64
207.0000	253.825
207.5000	253.925
208.0000	253.999
208.5000	254.076
209.0000	254.153
209.5000	254.23
210.0000	254.36
210.5000	254.484
211.0000	254.585
211.5000	254.697
212.0000	254.756
212.5000	254.849
213.0000	254.953
213.5000	255.057
214.0000	255.187
214.5000	255.321
215.0000	255.43
215.5000	255.531
216.0000	255.607
216.5000	255.67
217.0000	255.819
217.5000	255.981
218.0000	256.128
218.5000	256.199
219.0000	256.21
219.5000	256.29
220.0000	256.377
220.5000	256.559
221.0000	256.742
221.5000	256.835
222.0000	257.023
222.5000	257.099
223.0000	257.179
223.5000	257.288
224.0000	257.368
224.5000	257.487
225.0000	257.603
225.5000	257.758
226.0000	257.772
226.5000	257.902
227.0000	258.028
227.5000	258.045
228.0000	258.185
228.5000	258.335
229.0000	258.394
229.5000	258.492
230.0000	258.622
230.5000	258.699
231.0000	258.803
231.5000	258.936
232.0000	259.091
232.5000	259.172
233.0000	259.348
233.5000	259.492
234.0000	259.52
234.5000	259.592
235.0000	259.651
235.5000	259.712
236.0000	259.832
236.5000	259.937
237.0000	260.047
237.5000	260.156
238.0000	260.265
238.5000	260.392
239.0000	260.473
239.5000	260.59
240.0000	260.725
240.5000	260.836
241.0000	260.962
241.5000	261.093
242.0000	261.183
242.5000	261.243
243.0000	261.329
243.5000	261.419
244.0000	261.532
244.5000	261.695
245.0000	261.803
245.5000	261.912
246.0000	261.996
246.5000	262.035
247.0000	262.153
247.5000	262.286
248.0000	262.355
248.5000	262.502
249.0000	262.621
249.5000	262.666
250.0000	262.815
250.5000	262.913
251.0000	263.037
251.5000	263.163
252.0000	263.309
252.5000	263.464
253.0000	263.53
253.5000	263.587
254.0000	263.709
254.5000	263.752
255.0000	263.896
255.5000	264.04
256.0000	264.062
256.5000	264.165
257.0000	264.259
257.5000	264.316
258.0000	264.415
258.5000	264.526
259.0000	264.531
259.5000	264.707
260.0000	264.829
260.5000	264.951
261.0000	265.155
261.5000	265.237
262.0000	265.351
262.5000	265.449
263.0000	265.512
263.5000	265.608
264.0000	265.695
264.5000	265.816
265.0000	265.925
265.5000	266.037
266.0000	266.157
266.5000	266.248
267.0000	266.339
267.5000	266.422
268.0000	266.548
268.5000	266.628
269.0000	266.72
269.5000	266.873
270.0000	266.905
270.5000	267.033
271.0000	267.133
271.5000	267.203
272.0000	267.311
272.5000	267.392
273.0000	267.523
273.5000	267.602
274.0000	267.687
274.5000	267.764
275.0000	267.86
275.5000	267.985
276.0000	268.131
276.5000	268.209
277.0000	268.28
277.5000	268.375
278.0000	268.536
278.5000	268.658
279.0000	268.745
279.5000	268.86
280.0000	268.868
280.5000	268.971
281.0000	269.107
281.5000	269.155
282.0000	269.273
282.5000	269.361
283.0000	269.444
283.5000	269.59
284.0000	269.704
284.5000	269.841
285.0000	269.966
285.5000	270.027
286.0000	270.121
286.5000	270.203
287.0000	270.227
287.5000	270.32
288.0000	270.392
288.5000	270.444
289.0000	270.578
289.5000	270.738
290.0000	270.831
290.5000	270.944
291.0000	271.068
291.5000	271.146
292.0000	271.262
292.5000	271.425
293.0000	271.499
293.5000	271.617
294.0000	271.744
294.5000	271.855
295.0000	271.996
295.5000	272.08
296.0000	272.159
296.5000	272.197
297.0000	272.281
297.5000	272.372
298.0000	272.429
298.5000	272.619
299.0000	272.707
299.5000	272.79
300.0000	272.887
300.5000	272.885
301.0000	272.981
301.5000	273.057
302.0000	273.215
302.5000	273.293
303.0000	273.452
303.5000	273.545
304.0000	273.609
304.5000	273.793
305.0000	273.81
305.5000	273.928
306.0000	274.012
306.5000	274.086
307.0000	274.233
307.5000	274.374
308.0000	274.467
308.5000	274.518
309.0000	274.59
309.5000	274.653
310.0000	274.814
310.5000	274.966
311.0000	275.062
311.5000	275.089
312.0000	275.108
312.5000	275.209
313.0000	275.336
313.5000	275.483
314.0000	275.619
314.5000	275.685
315.0000	275.759
315.5000	275.847
316.0000	275.925
316.5000	276.017
317.0000	276.12
317.5000	276.27
318.0000	276.369
318.5000	276.455
319.0000	276.554
319.5000	276.606
320.0000	276.695
320.5000	276.769
321.0000	276.806
321.5000	276.856
322.0000	276.985
322.5000	277.071
323.0000	277.165
323.5000	277.323
324.0000	277.353
324.5000	277.449
325.0000	277.539
325.5000	277.606
326.0000	277.667
326.5000	277.802
327.0000	277.865
327.5000	277.973
328.0000	278.108
328.5000	278.132
329.0000	278.256
329.5000	278.322
330.0000	278.489
330.5000	278.625
331.0000	278.75
331.5000	278.836
332.0000	278.912
332.5000	279.022
333.0000	279.113
333.5000	279.24
334.0000	279.344
334.5000	279.405
335.0000	279.516
335.5000	279.615
336.0000	279.631
336.5000	279.784
337.0000	279.855
337.5000	279.913
338.0000	280.023
338.5000	280.107
339.0000	280.203
339.5000	280.253
340.0000	280.386
340.5000	280.502
341.0000	280.578
341.5000	280.702
342.0000	280.767
342.5000	280.803
343.0000	280.9
343.5000	281.043
344.0000	281.144
344.5000	281.305
345.0000	281.428
345.5000	281.506
346.0000	281.596
346.5000	281.651
347.0000	281.688
347.5000	281.792
348.0000	281.853
348.5000	281.872
349.0000	282.001
349.5000	282.077
350.0000	282.148
350.5000	282.304
351.0000	282.376
351.5000	282.444
352.0000	282.599
352.5000	282.588
353.0000	282.744
353.5000	282.882
354.0000	282.99
354.5000	283.179
355.0000	283.268
355.5000	283.323
356.0000	283.384
356.5000	283.459
357.0000	283.487
357.5000	283.622
358.0000	283.64
358.5000	283.704
359.0000	283.798
359.5000	283.818
360.0000	283.97
360.5000	284.054
361.0000	284.202
361.5000	284.345
362.0000	284.406
362.5000	284.518
363.0000	284.545
363.5000	284.609
364.0000	284.732
364.5000	284.784
365.0000	284.836
365.5000	284.927
366.0000	285.022
366.5000	285.11
367.0000	285.211
367.5000	285.276
368.0000	285.312
368.5000	285.459
369.0000	285.556
369.5000	285.682
370.0000	285.839
370.5000	285.891
371.0000	285.97
371.5000	285.982
372.0000	286.016
372.5000	286.094
373.0000	286.21
373.5000	286.348
374.0000	286.478
374.5000	286.588
375.0000	286.648
375.5000	286.761
376.0000	286.885
376.5000	286.97
377.0000	287.044
377.5000	287.053
378.0000	287.062
378.5000	287.16
379.0000	287.301
379.5000	287.438
380.0000	287.548
380.5000	287.63
381.0000	287.685
381.5000	287.796
382.0000	287.855
382.5000	287.936
383.0000	288.035
383.5000	288.095
384.0000	288.212
384.5000	288.304
385.0000	288.367
385.5000	288.479
386.0000	288.533
386.5000	288.617
387.0000	288.695
387.5000	288.784
388.0000	288.895
388.5000	288.964
389.0000	289.087
389.5000	289.134
390.0000	289.144
390.5000	289.275
391.0000	289.403
391.5000	289.497
392.0000	289.601
392.5000	289.69
393.0000	289.796
393.5000	289.849
394.0000	289.95
394.5000	289.973
395.0000	289.991
395.5000	290.101
396.0000	290.241
396.5000	290.362
397.0000	290.447
397.5000	290.547
398.0000	290.654
398.5000	290.728
399.0000	290.815
399.5000	290.962
400.0000	290.965
400.5000	291.053
401.0000	291.142
401.5000	291.159
402.0000	291.272
402.5000	291.38
403.0000	291.458
403.5000	291.523
404.0000	291.645
404.5000	291.801
405.0000	291.876
405.5000	291.984
406.0000	292.058
406.5000	292.068
407.0000	292.173
407.5000	292.27
408.0000	292.391
408.5000	292.43
409.0000	292.535
409.5000	292.645
410.0000	292.709
410.5000	292.934
411.0000	292.974
411.5000	293.017
412.0000	293.081
412.5000	292.989
413.0000	293.059
413.5000	293.117
414.0000	293.25
414.5000	293.385
415.0000	293.488
415.5000	293.638
416.0000	293.66
416.5000	293.77
417.0000	293.873
417.5000	293.922
418.0000	294.05
418.5000	294.16
419.0000	294.274
419.5000	294.388
420.0000	294.435
420.5000	294.513
421.0000	294.594
421.5000	294.658
422.0000	294.773
422.5000	294.855
423.0000	294.873
423.5000	294.996
424.0000	295.056
424.5000	295.145
425.0000	295.28
425.5000	295.323
426.0000	295.38
426.5000	295.426
427.0000	295.516
427.5000	295.636
428.0000	295.841
428.5000	295.955
429.0000	296.038
429.5000	296.133
430.0000	296.11
430.5000	296.106
431.0000	296.188
431.5000	296.281
432.0000	296.389
432.5000	296.565
433.0000	296.676
433.5000	296.742
434.0000	296.808
434.5000	296.822
435.0000	296.911
435.5000	296.942
436.0000	297.054
436.5000	297.185
437.0000	297.204
437.5000	297.306
438.0000	297.401
438.5000	297.47
439.0000	297.561
439.5000	297.639
440.0000	297.678
440.5000	297.775
441.0000	297.882
441.5000	298.021
442.0000	298.125
442.5000	298.216
443.0000	298.265
443.5000	298.306
444.0000	298.392
444.5000	298.489
445.0000	298.55
445.5000	298.624
446.0000	298.641
446.5000	298.721
447.0000	298.82
447.5000	298.919
448.0000	299.141
448.5000	299.241
449.0000	299.34
449.5000	299.428
450.0000	299.431
450.5000	299.502
451.0000	299.593
451.5000	299.648
452.0000	299.817
452.5000	299.914
453.0000	300.047
453.5000	300.196
454.0000	300.173
454.5000	300.219
455.0000	300.278
455.5000	300.308
456.0000	300.41
456.5000	300.581
457.0000	300.681
457.5000	300.762
458.0000	300.89
458.5000	300.925
459.0000	300.97
459.5000	301.052
460.0000	301.146
460.5000	301.19
461.0000	301.35
461.5000	301.467
462.0000	301.492
462.5000	301.568
463.0000	301.552
463.5000	301.628
464.0000	301.762
464.5000	301.871
465.0000	301.991
465.5000	302.028
466.0000	302.154
466.5000	302.253
467.0000	302.362
467.5000	302.512
468.0000	302.565
468.5000	302.613
469.0000	302.688
469.5000	302.748
470.0000	302.749
470.5000	302.849
471.0000	302.913
471.5000	303.043
472.0000	303.177
472.5000	303.264
473.0000	303.341
473.5000	303.366
474.0000	303.409
474.5000	303.496
475.0000	303.615
475.5000	303.652
476.0000	303.752
476.5000	303.767
477.0000	303.805
477.5000	303.918
478.0000	304.032
478.5000	304.145
479.0000	304.264
479.5000	304.389
480.0000	304.501
480.5000	304.659
481.0000	304.747
481.5000	304.903
482.0000	304.942
482.5000	304.986
483.0000	305.041
483.5000	305.061
484.0000	305.151
484.5000	305.288
485.0000	305.44
485.5000	305.492
486.0000	305.579
486.5000	305.654
487.0000	305.726
487.5000	305.813
488.0000	305.893
488.5000	305.979
489.0000	306.08
489.5000	306.184
490.0000	306.266
490.5000	306.322
491.0000	306.344
491.5000	306.41
492.0000	306.54
492.5000	306.652
493.0000	306.765
493.5000	306.893
494.0000	306.938
494.5000	307.027
495.0000	307.073
495.5000	307.135
496.0000	307.259
496.5000	307.34
497.0000	307.498
497.5000	307.598
498.0000	307.726
498.5000	307.853
499.0000	307.906
499.5000	308.014
500.0000	308.098
500.5000	308.142
501.0000	308.256
501.5000	308.331
502.0000	308.387
502.5000	308.479
503.0000	308.599
503.5000	308.742
504.0000	308.829
504.5000	309.008
505.0000	309.113
505.5000	309.189
506.0000	309.334
506.5000	309.356
507.0000	309.464
507.5000	309.549
508.0000	309.645
508.5000	309.79
509.0000	309.867
509.5000	310.025
510.0000	310.145
510.5000	310.248
511.0000	310.393
511.5000	310.541
512.0000	310.682
512.5000	310.762
513.0000	310.883
513.5000	310.931
514.0000	310.98
514.5000	311.17
515.0000	311.242
515.5000	311.362
516.0000	311.514
516.5000	311.588
517.0000	311.77
517.5000	311.894
518.0000	312.066
518.5000	312.213
519.0000	312.267
519.5000	312.373
520.0000	312.454
520.5000	312.582
521.0000	312.809
521.5000	312.975
522.0000	313.097
522.5000	313.225
523.0000	313.323
523.5000	313.507
524.0000	313.657
524.5000	313.781
525.0000	313.866
525.5000	313.967
526.0000	314.091
526.5000	314.256
527.0000	314.443
527.5000	314.602
528.0000	314.804
528.5000	314.991
529.0000	315.174
529.5000	315.273
530.0000	315.469
530.5000	315.578
531.0000	315.725
531.5000	315.947
532.0000	316.046
532.5000	316.251
533.0000	316.4
533.5000	316.493
534.0000	316.64
534.5000	316.833
535.0000	316.995
535.5000	317.225
536.0000	317.493
536.5000	317.661
537.0000	317.809
537.5000	318.027
538.0000	318.129
538.5000	318.259
539.0000	318.488
539.5000	318.588
540.0000	318.751
540.5000	318.944
541.0000	319.127
541.5000	319.303
542.0000	319.491
542.5000	319.587
543.0000	319.723
543.5000	319.892
544.0000	320.056
544.5000	320.324
545.0000	320.485
545.5000	320.692
546.0000	320.854
546.5000	321.016
547.0000	321.234
547.5000	321.402
548.0000	321.569
548.5000	321.751
549.0000	321.893
549.5000	322.123
550.0000	322.392
550.5000	322.572
551.0000	322.778
551.5000	322.922
552.0000	323.027
552.5000	323.216
553.0000	323.365
553.5000	323.55
554.0000	323.667
554.5000	323.815
555.0000	324.003
555.5000	324.185
556.0000	324.403
556.5000	324.571
557.0000	324.77
557.5000	324.879
558.0000	325.121
558.5000	325.314
559.0000	325.462
559.5000	325.685
560.0000	325.79
560.5000	325.93
561.0000	326.134
561.5000	326.273
562.0000	326.42
562.5000	326.638
563.0000	326.756
563.5000	326.958
564.0000	327.182
564.5000	327.379
565.0000	327.56
565.5000	327.693
566.0000	327.857
566.5000	327.939
567.0000	328.102
567.5000	328.27
568.0000	328.408
568.5000	328.568
569.0000	328.726
569.5000	328.882
570.0000	329.079
570.5000	329.259
571.0000	329.487
571.5000	329.613
572.0000	329.762
572.5000	329.945
573.0000	330.059
573.5000	330.252
574.0000	330.409
574.5000	330.496
575.0000	330.595
575.5000	330.819
576.0000	330.973
576.5000	331.11
577.0000	331.305
577.5000	331.475
578.0000	331.586
578.5000	331.801
579.0000	331.95
579.5000	331.997
580.0000	332.226
580.5000	332.331
581.0000	332.473
581.5000	332.682
582.0000	332.83
582.5000	332.974
583.0000	333.173
583.5000	333.263
584.0000	333.379
584.5000	333.593
585.0000	333.638
585.5000	333.733
586.0000	333.924
586.5000	334.035
587.0000	334.201
587.5000	334.431
588.0000	334.497
588.5000	334.674
589.0000	334.856
589.5000	334.998
590.0000	335.203
590.5000	335.283
591.0000	335.432
591.5000	335.507
592.0000	335.582
592.5000	335.74
593.0000	335.893
593.5000	336.129
594.0000	336.302
594.5000	336.49
595.0000	336.556
595.5000	336.63
596.0000	336.709
596.5000	336.769
597.0000	336.931
597.5000	337.068
598.0000	337.275
598.5000	337.466
599.0000	337.619
599.5000	337.787
600.0000	337.9
600.5000	338.053
601.0000	338.199
601.5000	338.301
602.0000	338.424
602.5000	338.47
603.0000	338.631
603.5000	338.788
604.0000	338.866
604.5000	339.072
605.0000	339.231
605.5000	339.294
606.0000	339.466
606.5000	339.586
607.0000	339.66
607.5000	339.843
608.0000	339.994
608.5000	340.15
609.0000	340.287
609.5000	340.397
610.0000	340.54
610.5000	340.653
611.0000	340.776
611.5000	340.921
612.0000	341.034
612.5000	341.169
613.0000	341.293
613.5000	341.447
614.0000	341.612
614.5000	341.669
615.0000	341.812
615.5000	341.973
616.0000	342.071
616.5000	342.26
617.0000	342.378
617.5000	342.477
618.0000	342.64
618.5000	342.818
619.0000	342.948
619.5000	343.037
620.0000	343.152
620.5000	343.227
621.0000	343.378
621.5000	343.619
622.0000	343.728
622.5000	343.854
623.0000	343.918
623.5000	343.956
624.0000	344.109
624.5000	344.24
625.0000	344.446
625.5000	344.538
626.0000	344.592
626.5000	344.678
627.0000	344.78
627.5000	344.975
628.0000	345.061
628.5000	345.245
629.0000	345.378
629.5000	345.417
630.0000	345.575
630.5000	345.679
631.0000	345.83
631.5000	345.982
632.0000	346.169
632.5000	346.31
633.0000	346.419
633.5000	346.575
634.0000	346.668
634.5000	346.754
635.0000	346.801
635.5000	346.899
636.0000	347.042
636.5000	347.184
637.0000	347.344
637.5000	347.448
638.0000	347.549
638.5000	347.665
639.0000	347.768
639.5000	347.871
640.0000	347.957
640.5000	348.053
641.0000	348.171
641.5000	348.283
642.0000	348.469
642.5000	348.628
643.0000	348.75
643.5000	348.934
644.0000	349.028
644.5000	349.114
645.0000	349.224
645.5000	349.314
646.0000	349.389
646.5000	349.488
647.0000	349.62
647.5000	349.711
648.0000	349.853
648.5000	349.919
649.0000	350.052
649.5000	350.2
650.0000	350.289
650.5000	350.459
651.0000	350.59
651.5000	350.672
652.0000	350.792
652.5000	350.902
653.0000	350.954
653.5000	351.053
654.0000	351.139
654.5000	351.278
655.0000	351.369
655.5000	351.513
656.0000	351.613
656.5000	351.665
657.0000	351.833
657.5000	351.907
658.0000	351.948
658.5000	352.077
659.0000	352.116
659.5000	352.324
660.0000	352.529
660.5000	352.672
661.0000	352.801
661.5000	352.812
662.0000	352.925
662.5000	352.996
663.0000	353.079
663.5000	353.196
664.0000	353.29
664.5000	353.401
665.0000	353.513
665.5000	353.638
666.0000	353.722
666.5000	353.803
667.0000	353.886
667.5000	353.964
668.0000	354.169
668.5000	354.28
669.0000	354.51
669.5000	354.597
670.0000	354.637
670.5000	354.75
671.0000	354.746
671.5000	354.82
672.0000	354.877
672.5000	354.992
673.0000	355.133
673.5000	355.221
674.0000	355.374
674.5000	355.501
675.0000	355.572
675.5000	355.7
676.0000	355.839
676.5000	355.903
677.0000	355.947
677.5000	356.115
678.0000	356.141
678.5000	356.237
679.0000	356.381
679.5000	356.438
680.0000	356.578
680.5000	356.652
681.0000	356.727
681.5000	356.821
682.0000	356.81
682.5000	356.881
683.0000	356.923
683.5000	357.007
684.0000	357.128
684.5000	357.27
685.0000	357.435
685.5000	357.477
686.0000	357.667
686.5000	357.763
687.0000	357.863
687.5000	358.03
688.0000	358.052
688.5000	358.069
689.0000	358.171
689.5000	358.2
690.0000	358.324
690.5000	358.44
691.0000	358.515
691.5000	358.65
692.0000	358.655
692.5000	358.747
693.0000	358.835
693.5000	358.888
694.0000	359.008
694.5000	359.047
695.0000	359.115
695.5000	359.167
696.0000	359.241
696.5000	359.35
697.0000	359.553
697.5000	359.667
698.0000	359.804
698.5000	359.896
699.0000	359.9
699.5000	360.002
700.0000	360.063
700.5000	360.206
701.0000	360.25
701.5000	360.363
702.0000	360.464
702.5000	360.472
703.0000	360.613
703.5000	360.668
704.0000	360.694
704.5000	360.847
705.0000	360.881
705.5000	360.921
706.0000	361.096
706.5000	361.157
707.0000	361.264
707.5000	361.239
708.0000	361.308
708.5000	361.391
709.0000	361.464
709.5000	361.686
710.0000	361.794
710.5000	361.884
711.0000	361.921
711.5000	362.022
712.0000	362.072
712.5000	362.113
713.0000	362.26
713.5000	362.343
714.0000	362.348
714.5000	362.466
715.0000	362.562
715.5000	362.608
716.0000	362.741
716.5000	362.786
717.0000	362.832
717.5000	362.941
718.0000	362.976
718.5000	363.068
719.0000	363.112
719.5000	363.262
720.0000	363.379
720.5000	363.507
721.0000	363.599
721.5000	363.59
722.0000	363.619
722.5000	363.688
723.0000	363.789
723.5000	363.917
724.0000	364.037
724.5000	364.117
725.0000	364.209
725.5000	364.326
726.0000	364.363
726.5000	364.423
727.0000	364.52
727.5000	364.54
728.0000	364.649
728.5000	364.679
729.0000	364.725
729.5000	364.736
730.0000	364.803
730.5000	364.917
731.0000	364.955
731.5000	365.129
732.0000	365.163
732.5000	365.277
733.0000	365.388
733.5000	365.335
734.0000	365.462
734.5000	365.491
735.0000	365.459
735.5000	365.628
736.0000	365.7
736.5000	365.769
737.0000	365.991
737.5000	366.02
738.0000	366.039
738.5000	366.06
739.0000	365.987
739.5000	366.053
740.0000	366.147
740.5000	366.242
741.0000	366.395
741.5000	366.527
742.0000	366.667
742.5000	366.717
743.0000	366.79
743.5000	366.833
744.0000	366.831
744.5000	366.955
745.0000	367.024
745.5000	367.055
746.0000	367.18
746.5000	367.233
747.0000	367.268
747.5000	367.405
748.0000	367.371
748.5000	367.443
749.0000	367.572
749.5000	367.624
750.0000	367.764
750.5000	367.794
751.0000	367.811
751.5000	367.86
752.0000	367.867
752.5000	368.006
753.0000	368.097
753.5000	368.128
754.0000	368.266
754.5000	368.305
755.0000	368.357
755.5000	368.444
756.0000	368.439
756.5000	368.56
757.0000	368.572
757.5000	368.716
758.0000	368.856
758.5000	368.868
759.0000	369.024
759.5000	369.027
760.0000	369.087
760.5000	369.151
761.0000	369.144
761.5000	369.254
762.0000	369.282
762.5000	369.468
763.0000	369.587
763.5000	369.565
764.0000	369.675
764.5000	369.697
765.0000	369.735
765.5000	369.771
766.0000	369.855
766.5000	369.757
767.0000	369.789
767.5000	369.976
768.0000	369.99
768.5000	370.111
769.0000	370.245
769.5000	370.264
770.0000	370.294
770.5000	370.376
771.0000	370.345
771.5000	370.439
772.0000	370.495
772.5000	370.598
773.0000	370.714
773.5000	370.776
774.0000	370.858
774.5000	370.882
775.0000	370.892
775.5000	370.93
776.0000	371.055
776.5000	371.147
777.0000	371.242
777.5000	371.227
778.0000	371.329
778.5000	371.311
779.0000	371.475
779.5000	371.582
780.0000	371.565
780.5000	371.647
781.0000	371.644
781.5000	371.732
782.0000	371.787
782.5000	371.814
783.0000	371.82
783.5000	371.872
784.0000	371.951
784.5000	372.064
785.0000	372.114
785.5000	372.135
786.0000	372.2
786.5000	372.265
787.0000	372.376
787.5000	372.451
788.0000	372.576
788.5000	372.661
789.0000	372.68
789.5000	372.833
790.0000	372.851
790.5000	372.825
791.0000	372.918
791.5000	372.944
792.0000	372.95
792.5000	373.099
793.0000	373.189
793.5000	373.153
794.0000	373.285
794.5000	373.305
795.0000	373.29
795.5000	373.396
796.0000	373.389
796.5000	373.423
797.0000	373.509
797.5000	373.566
798.0000	373.653
798.5000	373.727
799.0000	373.764
799.5000	373.823
800.0000	373.869
800.5000	373.953
801.0000	374.036
801.5000	374.093
802.0000	374.127
802.5000	374.182
803.0000	374.244
803.5000	374.21
804.0000	374.269
804.5000	374.366
805.0000	374.467
805.5000	374.63
806.0000	374.735
806.5000	374.785
807.0000	374.774
807.5000	374.764
808.0000	374.823
808.5000	374.804
809.0000	374.925
809.5000	375.014
810.0000	375.017
810.5000	375.095
811.0000	375.129
811.5000	375.314
812.0000	375.395
812.5000	375.415
813.0000	375.509
813.5000	375.493
814.0000	375.547
814.5000	375.644
815.0000	375.678
815.5000	375.697
816.0000	375.75
816.5000	375.79
817.0000	375.791
817.5000	375.858
818.0000	375.915
818.5000	375.964
819.0000	375.996
819.5000	376.086
820.0000	376.18
820.5000	376.224
821.0000	376.319
821.5000	376.356
822.0000	376.377
822.5000	376.467
823.0000	376.509
823.5000	376.581
824.0000	376.6
824.5000	376.675
825.0000	376.787
825.5000	376.803
826.0000	376.857
826.5000	376.878
827.0000	376.97
827.5000	377.052
828.0000	377.116
828.5000	377.308
829.0000	377.285
829.5000	377.317
830.0000	377.405
830.5000	377.365
831.0000	377.419
831.5000	377.461
832.0000	377.529
832.5000	377.544
833.0000	377.585
833.5000	377.633
834.0000	377.592
834.5000	377.623
835.0000	377.671
835.5000	377.732
836.0000	377.803
836.5000	377.904
837.0000	377.976
837.5000	378.035
838.0000	378.137
838.5000	378.141
839.0000	378.22
839.5000	378.273
840.0000	378.322
840.5000	378.371
841.0000	378.48
841.5000	378.587
842.0000	378.513
842.5000	378.607
843.0000	378.594
843.5000	378.572
844.0000	378.764
844.5000	378.756
845.0000	378.846
845.5000	378.896
846.0000	378.877
846.5000	378.963
847.0000	378.932
847.5000	378.982
848.0000	379.109
848.5000	379.166
849.0000	379.234
849.5000	379.282
850.0000	379.351
850.5000	379.401
851.0000	379.43
851.5000	379.536
852.0000	379.589
852.5000	379.657
853.0000	379.769
853.5000	379.801
854.0000	379.811
854.5000	379.904
855.0000	379.972
855.5000	380.014
856.0000	380.047
856.5000	380.081
857.0000	380.108
857.5000	380.108
858.0000	380.17
858.5000	380.155
859.0000	380.207
859.5000	380.283
860.0000	380.357
860.5000	380.421
861.0000	380.444
861.5000	380.494
862.0000	380.573
862.5000	380.657
863.0000	380.723
863.5000	380.823
864.0000	380.828
864.5000	380.882
865.0000	380.913
865.5000	380.962
866.0000	380.959
866.5000	381.069
867.0000	381.147
867.5000	381.129
868.0000	381.274
868.5000	381.28
869.0000	381.301
869.5000	381.448
870.0000	381.49
870.5000	381.525
871.0000	381.609
871.5000	381.561
872.0000	381.635
872.5000	381.669
873.0000	381.718
873.5000	381.856
874.0000	381.882
874.5000	381.949
875.0000	381.949
875.5000	381.966
876.0000	381.95
876.5000	382.016
877.0000	382.126
877.5000	382.145
878.0000	382.246
878.5000	382.234
879.0000	382.252
879.5000	382.321
880.0000	382.341
880.5000	382.439
881.0000	382.568
881.5000	382.568
882.0000	382.623
882.5000	382.648
883.0000	382.649
883.5000	382.716
884.0000	382.728
884.5000	382.815
885.0000	382.846
885.5000	382.833
886.0000	383.019
886.5000	383.058
887.0000	383.07
887.5000	383.226
888.0000	383.196
888.5000	383.256
889.0000	383.33
889.5000	383.415
890.0000	383.402
890.5000	383.367
891.0000	383.503
891.5000	383.555
892.0000	383.625
892.5000	383.704
893.0000	383.663
893.5000	383.7
894.0000	383.764
894.5000	383.826
895.0000	383.929
895.5000	384.033
896.0000	384.087
896.5000	384.074
897.0000	384.088
897.5000	384.069
898.0000	384.14
898.5000	384.207
899.0000	384.276
899.5000	384.288
900.0000	384.371
900.5000	384.47
901.0000	384.503
901.5000	384.521
902.0000	384.496
902.5000	384.563
903.0000	384.57
903.5000	384.624
904.0000	384.681
904.5000	384.685
905.0000	384.757
905.5000	384.822
906.0000	384.906
906.5000	384.999
907.0000	385.031
907.5000	385.061
908.0000	385.055
908.5000	385.135
909.0000	385.202
909.5000	385.257
910.0000	385.409
910.5000	385.422
911.0000	385.49
911.5000	385.611
912.0000	385.566
912.5000	385.546
913.0000	385.566
913.5000	385.487
914.0000	385.55
914.5000	385.63
915.0000	385.623
915.5000	385.746
916.0000	385.82
916.5000	385.813
917.0000	385.938
917.5000	385.946
918.0000	385.976
918.5000	386.043
919.0000	386.104
919.5000	386.103
920.0000	386.121
920.5000	386.274
921.0000	386.224
921.5000	386.317
922.0000	386.404
922.5000	386.378
923.0000	386.452
923.5000	386.471
924.0000	386.494
924.5000	386.579
925.0000	386.615
925.5000	386.726
926.0000	386.803
926.5000	386.848
927.0000	386.921
927.5000	386.937
928.0000	386.97
928.5000	386.969
929.0000	387.062
929.5000	387.138
930.0000	387.141
930.5000	387.153
931.0000	387.163
931.5000	387.171
932.0000	387.162
932.5000	387.262
933.0000	387.246
933.5000	387.259
934.0000	387.293
934.5000	387.367
935.0000	387.447
935.5000	387.497
936.0000	387.601
936.5000	387.533
937.0000	387.533
937.5000	387.588
938.0000	387.525
938.5000	387.631
939.0000	387.725
939.5000	387.824
940.0000	387.96
940.5000	388.058
941.0000	388.079
941.5000	388.129
942.0000	388.189
942.5000	388.224
943.0000	388.284
943.5000	388.252
944.0000	388.299
944.5000	388.311
945.0000	388.338
945.5000	388.428
946.0000	388.486
946.5000	388.504
947.0000	388.594
947.5000	388.618
948.0000	388.674
948.5000	388.751
949.0000	388.718
949.5000	388.793
950.0000	388.841
950.5000	388.813
951.0000	388.913
951.5000	388.991
952.0000	389.049
952.5000	389.152
953.0000	389.128
953.5000	389.144
954.0000	389.158
954.5000	389.183
955.0000	389.315
955.5000	389.375
956.0000	389.442
956.5000	389.514
957.0000	389.64
957.5000	389.59
958.0000	389.656
958.5000	389.688
959.0000	389.588
959.5000	389.751
960.0000	389.739
960.5000	389.73
961.0000	389.779
961.5000	389.74
962.0000	389.82
962.5000	389.915
963.0000	390.045
963.5000	390.148
964.0000	390.112
964.5000	390.08
965.0000	390.145
965.5000	390.181
966.0000	390.28
966.5000	390.363
967.0000	390.276
967.5000	390.263
968.0000	390.268
968.5000	390.371
969.0000	390.417
969.5000	390.44
970.0000	390.484
970.5000	390.446
971.0000	390.497
971.5000	390.55
972.0000	390.59
972.5000	390.621
973.0000	390.793
973.5000	390.855
974.0000	390.91
974.5000	391.014
975.0000	390.931
975.5000	391.001
976.0000	391.04
976.5000	390.997
977.0000	391.095
977.5000	391.102
978.0000	391.096
978.5000	391.284
979.0000	391.322
979.5000	391.413
980.0000	391.506
980.5000	391.503
981.0000	391.539
981.5000	391.532
982.0000	391.545
982.5000	391.561
983.0000	391.614
983.5000	391.651
984.0000	391.674
984.5000	391.703
985.0000	391.686
985.5000	391.713
986.0000	391.756
986.5000	391.823
987.0000	391.871
987.5000	391.936
988.0000	391.965
988.5000	391.968
989.0000	392.018
989.5000	392.111
990.0000	392.182
990.5000	392.293
991.0000	392.331
991.5000	392.292
992.0000	392.394
992.5000	392.459
993.0000	392.501
993.5000	392.534
994.0000	392.621
994.5000	392.576
995.0000	392.628
995.5000	392.68
996.0000	392.605
996.5000	392.576
997.0000	392.541
997.5000	392.643
998.0000	392.688
998.5000	392.774
999.0000	392.921
999.5000	392.885
1000.0000	392.951
1000.5000	392.956
1001.0000	392.966
1001.5000	393.088
1002.0000	393.12
1002.5000	393.229
1003.0000	393.232
1003.5000	393.228
1004.0000	393.305
1004.5000	393.347
1005.0000	393.372
1005.5000	393.389
1006.0000	393.365
1006.5000	393.46
1007.0000	393.501
1007.5000	393.556
1008.0000	393.669
1008.5000	393.739
1009.0000	393.84
1009.5000	393.945
1010.0000	394.016
1010.5000	394.029
1011.0000	393.997
1011.5000	393.963
1012.0000	393.96
1012.5000	393.903
1013.0000	394.068
1013.5000	394.088
1014.0000	394.133
1014.5000	394.196
1015.0000	394.125
1015.5000	394.145
1016.0000	394.116
1016.5000	394.198
1017.0000	394.301
1017.5000	394.347
1018.0000	394.365
1018.5000	394.311
1019.0000	394.295
1019.5000	394.353
1020.0000	394.441
1020.5000	394.576
1021.0000	394.622
1021.5000	394.667
1022.0000	394.715
1022.5000	394.658
1023.0000	394.748
1023.5000	394.858
1024.0000	394.902
1024.5000	394.988
1025.0000	395.016
1025.5000	394.988
1026.0000	395.015
1026.5000	395.095
1027.0000	395.072
1027.5000	395.125
1028.0000	395.185
1028.5000	395.184
1029.0000	395.372
1029.5000	395.367
1030.0000	395.369
1030.5000	395.373
1031.0000	395.332
1031.5000	395.441
1032.0000	395.463
1032.5000	395.571
1033.0000	395.605
1033.5000	395.599
1034.0000	395.642
1034.5000	395.614
1035.0000	395.589
1035.5000	395.621
1036.0000	395.761
1036.5000	395.858
1037.0000	395.883
1037.5000	395.938
1038.0000	395.849
1038.5000	395.878
1039.0000	395.93
1039.5000	395.897
1040.0000	395.967
1040.5000	396.007
1041.0000	396.068
1041.5000	396.178
1042.0000	396.196
1042.5000	396.261
1043.0000	396.277
1043.5000	396.334
1044.0000	396.421
1044.5000	396.389
1045.0000	396.453
1045.5000	396.484
1046.0000	396.591
1046.5000	396.663
1047.0000	396.642
1047.5000	396.667
1048.0000	396.622
1048.5000	396.618
1049.0000	396.722
1049.5000	396.71
1050.0000	396.639
1050.5000	396.748
1051.0000	396.769
1051.5000	396.873
1052.0000	396.986
1052.5000	396.953
1053.0000	396.902
1053.5000	396.859
1054.0000	396.928
1054.5000	396.963
1055.0000	397.037
1055.5000	397.157
1056.0000	397.133
1056.5000	397.225
1057.0000	397.314
1057.5000	397.31
1058.0000	397.34
1058.5000	397.344
1059.0000	397.441
1059.5000	397.456
1060.0000	397.518
1060.5000	397.579
1061.0000	397.569
1061.5000	397.605
1062.0000	397.684
1062.5000	397.712
1063.0000	397.736
1063.5000	397.77
1064.0000	397.81
1064.5000	397.86
1065.0000	397.868
1065.5000	397.95
1066.0000	397.959
1066.5000	397.943
1067.0000	398.1
1067.5000	398.12
1068.0000	398.179
1068.5000	398.211
1069.0000	398.155
1069.5000	398.241
1070.0000	398.277
1070.5000	398.338
1071.0000	398.38
1071.5000	398.343
1072.0000	398.329
1072.5000	398.369
1073.0000	398.406
1073.5000	398.472
1074.0000	398.484
1074.5000	398.539
1075.0000	398.544
1075.5000	398.666
1076.0000	398.696
1076.5000	398.686
1077.0000	398.717
1077.5000	398.606
1078.0000	398.747
1078.5000	398.821
1079.0000	398.891
1079.5000	398.967
1080.0000	398.973
1080.5000	399.015
1081.0000	399.124
1081.5000	399.13
1082.0000	399.085
1082.5000	399.107
1083.0000	399.055
1083.5000	399.162
1084.0000	399.255
1084.5000	399.246
1085.0000	399.326
1085.5000	399.274
1086.0000	399.336
1086.5000	399.409
1087.0000	399.444
1087.5000	399.535
1088.0000	399.503
1088.5000	399.495
1089.0000	399.481
1089.5000	399.586
1090.0000	399.666
1090.5000	399.7
1091.0000	399.755
1091.5000	399.715
1092.0000	399.788
1092.5000	399.861
1093.0000	399.995
1093.5000	400.071
1094.0000	400.106
1094.5000	400.177
1095.0000	400.077
1095.5000	400.056
1096.0000	400.105
1096.5000	400.088
1097.0000	400.091
1097.5000	400.124
1098.0000	400.063
1098.5000	400.103
1099.0000	400.246
1099.5000	400.376
1100.0000	400.43
1100.5000	400.559
1101.0000	400.556
1101.5000	400.594
1102.0000	400.694
1102.5000	400.639
1103.0000	400.662
1103.5000	400.71
1104.0000	400.713
1104.5000	400.812
1105.0000	400.85
1105.5000	400.759
1106.0000	400.824
1106.5000	400.786
1107.0000	400.771
1107.5000	400.861
1108.0000	400.934
1108.5000	400.999
1109.0000	401.135
1109.5000	401.187
1110.0000	401.136
1110.5000	401.24
1111.0000	401.305
1111.5000	401.294
1112.0000	401.362
1112.5000	401.371
1113.0000	401.3
1113.5000	401.393
1114.0000	401.464
1114.5000	401.454
1115.0000	401.571
1115.5000	401.582
1116.0000	401.635
1116.5000	401.748
1117.0000	401.792
1117.5000	401.902
1118.0000	401.848
1118.5000	401.87
1119.0000	401.815
1119.5000	401.773
1120.0000	401.838
1120.5000	401.875
1121.0000	401.966
1121.5000	401.969
1122.0000	401.935
1122.5000	401.896
1123.0000	401.88
1123.5000	401.938
1124.0000	402.08
1124.5000	402.121
1125.0000	402.163
1125.5000	402.175
1126.0000	402.173
1126.5000	402.176
1127.0000	402.252
1127.5000	402.41
1128.0000	402.475
1128.5000	402.556
1129.0000	402.586
1129.5000	402.488
1130.0000	402.526
1130.5000	402.594
1131.0000	402.611
1131.5000	402.785
1132.0000	402.8
1132.5000	402.757
1133.0000	402.88
1133.5000	402.783
1134.0000	402.815
1134.5000	402.957
1135.0000	402.893
1135.5000	403.035
1136.0000	403.076
1136.5000	403.087
1137.0000	403.19
1137.5000	403.166
1138.0000	403.183
1138.5000	403.229
1139.0000	403.186
1139.5000	403.316
1140.0000	403.348
1140.5000	403.258
1141.0000	403.371
1141.5000	403.325
1142.0000	403.348
1142.5000	403.507
1143.0000	403.483
1143.5000	403.545
1144.0000	403.598
1144.5000	403.571
1145.0000	403.597
1145.5000	403.621
1146.0000	403.677
1146.5000	403.703
1147.0000	403.813
1147.5000	403.89
1148.0000	403.915
1148.5000	403.959
1149.0000	403.939
1149.5000	403.954
1150.0000	404
1150.5000	404.083
1151.0000	404.159
1151.5000	404.18
1152.0000	404.216
1152.5000	404.291
1153.0000	404.359
1153.5000	404.337
1154.0000	404.427
1154.5000	404.389
1155.0000	404.384
1155.5000	404.469
1156.0000	404.419
1156.5000	404.495
1157.0000	404.628
1157.5000	404.722
1158.0000	404.743
1158.5000	404.788
1159.0000	404.739
1159.5000	404.749
1160.0000	404.81
1160.5000	404.857
1161.0000	404.86
1161.5000	404.901
1162.0000	404.966
1162.5000	404.958
1163.0000	404.943
1163.5000	404.951
1164.0000	404.952
1164.5000	405.037
1165.0000	405.159
1165.5000	405.122
1166.0000	405.197
1166.5000	405.192
1167.0000	405.266
1167.5000	405.467
1168.0000	405.491
1168.5000	405.559
1169.0000	405.552
1169.5000	405.414
1170.0000	405.46
1170.5000	405.442
1171.0000	405.508
1171.5000	405.717
1172.0000	405.735
1172.5000	405.782
1173.0000	405.783
1173.5000	405.735
1174.0000	405.791
1174.5000	405.83
1175.0000	405.85
1175.5000	405.851
1176.0000	405.81
1176.5000	405.871
1177.0000	405.958
1177.5000	406
1178.0000	406.213
1178.5000	406.27
1179.0000	406.232
1179.5000	406.335
1180.0000	406.235
1180.5000	406.229
1181.0000	406.301
1181.5000	406.29
1182.0000	406.441
1182.5000	406.487
1183.0000	406.542
1183.5000	406.624
1184.0000	406.596
1184.5000	406.659
1185.0000	406.701
1185.5000	406.719
1186.0000	406.826
1186.5000	406.82
1187.0000	406.816
1187.5000	406.848
1188.0000	406.773
1188.5000	406.843
1189.0000	406.927
1189.5000	406.915
1190.0000	407.037
1190.5000	407.08
1191.0000	407.047
1191.5000	407.116
1192.0000	407.133
1192.5000	407.244
1193.0000	407.262
1193.5000	407.337
1194.0000	407.339
1194.5000	407.275
1195.0000	407.43
1195.5000	407.506
1196.0000	407.492
1196.5000	407.558
1197.0000	407.526
1197.5000	407.531
1198.0000	407.627
1198.5000	407.661
1199.0000	407.751
1199.5000	407.75
1200.0000	407.759
1200.5000	407.843
1201.0000	407.898
1201.5000	407.9
1202.0000	407.952
1202.5000	407.935
1203.0000	407.98
1203.5000	408.077
1204.0000	408.158
1204.5000	408.273
1205.0000	408.284
1205.5000	408.29
1206.0000	408.289
1206.5000	408.324
1207.0000	408.344
1207.5000	408.365
1208.0000	408.421
1208.5000	408.367
1209.0000	408.426
1209.5000	408.527
1210.0000	408.543
1210.5000	408.588
1211.0000	408.564
1211.5000	408.533
1212.0000	408.614
1212.5000	408.663
1213.0000	408.688
1213.5000	408.743
1214.0000	408.794
1214.5000	408.818
1215.0000	408.86
1215.5000	408.878
1216.0000	408.899
1216.5000	408.936
1217.0000	408.954
1217.5000	409.039
1218.0000	409.063
1218.5000	409.093
1219.0000	409.165
1219.5000	409.104
1220.0000	409.223
1220.5000	409.328
1221.0000	409.471
1221.5000	409.56
1222.0000	409.477
1222.5000	409.496
1223.0000	409.431
1223.5000	409.517
1224.0000	409.598
1224.5000	409.609
1225.0000	409.705
1225.5000	409.707
1226.0000	409.653
1226.5000	409.658
1227.0000	409.678
1227.5000	409.696
1228.0000	409.785
1228.5000	409.882
1229.0000	409.925
1229.5000	409.967
1230.0000	410.052
1230.5000	410.038
1231.0000	410.012
1231.5000	410.074
1232.0000	410.038
1232.5000	410.067
1233.0000	410.099
1233.5000	410.155
1234.0000	410.262
1234.5000	410.315
1235.0000	410.442
1235.5000	410.493
1236.0000	410.415
1236.5000	410.453
1237.0000	410.445
1237.5000	410.442
1238.0000	410.517
1238.5000	410.612
1239.0000	410.663
1239.5000	410.682
1240.0000	410.837
1240.5000	410.863
1241.0000	410.862
1241.5000	410.945
1242.0000	410.956
1242.5000	410.941
1243.0000	411.004
1243.5000	411.049
1244.0000	411.013
1244.5000	411.051
1245.0000	411.11
1245.5000	411.107
1246.0000	411.158
1246.5000	411.123
1247.0000	411.135
1247.5000	411.192
1248.0000	411.248
1248.5000	411.383
1249.0000	411.455
1249.5000	411.442
1250.0000	411.455
1250.5000	411.549
1251.0000	411.585
1251.5000	411.763
1252.0000	411.78
1252.5000	411.739
1253.0000	411.76
1253.5000	411.704
1254.0000	411.815
1254.5000	411.932
1255.0000	411.929
1255.5000	411.932
1256.0000	411.956
1256.5000	411.972
1257.0000	412.056
1257.5000	412.122
1258.0000	412.142
1258.5000	412.136
1259.0000	412.189
1259.5000	412.143
1260.0000	412.221
1260.5000	412.267
1261.0000	412.275
1261.5000	412.44
1262.0000	412.412
1262.5000	412.415
1263.0000	412.464
1263.5000	412.473
1264.0000	412.513
1264.5000	412.54
1265.0000	412.536
1265.5000	412.487
1266.0000	412.521
1266.5000	412.558
1267.0000	412.628
1267.5000	412.679
1268.0000	412.75
1268.5000	412.772
1269.0000	412.829
1269.5000	412.878
1270.0000	412.885
1270.5000	412.926
1271.0000	412.978
1271.5000	413.02
1272.0000	413.128
1272.5000	413.089
1273.0000	413.033
1273.5000	413.09
1274.0000	413.119
1274.5000	413.253
1275.0000	413.262
1275.5000	413.328
1276.0000	413.292
1276.5000	413.259
1277.0000	413.306
1277.5000	413.247
1278.0000	413.262
1278.5000	413.343
1279.0000	413.424
1279.5000	413.486
1280.0000	413.523
1280.5000	413.647
1281.0000	413.599
1281.5000	413.659
1282.0000	413.788
1282.5000	413.78
1283.0000	413.934
1283.5000	414.02
1284.0000	413.968
1284.5000	413.911
1285.0000	413.907
1285.5000	413.92
1286.0000	413.953
1286.5000	414.086
1287.0000	414.06
1287.5000	414.071
1288.0000	414.05
1288.5000	414.066
1289.0000	414.179
1289.5000	414.202
1290.0000	414.284
1290.5000	414.353
1291.0000	414.382
1291.5000	414.396
1292.0000	414.573
1292.5000	414.565
1293.0000	414.622
1293.5000	414.743
1294.0000	414.717
1294.5000	414.755
1295.0000	414.763
1295.5000	414.715
1296.0000	414.76
1296.5000	414.754
1297.0000	414.737
1297.5000	414.779
1298.0000	414.786
1298.5000	414.895
1299.0000	414.92
1299.5000	414.982
1300.0000	414.945
1300.5000	414.971
1301.0000	415.039
1301.5000	415.048
1302.0000	415.064
1302.5000	415.117
1303.0000	415.185
1303.5000	415.301
1304.0000	415.478
1304.5000	415.491
1305.0000	415.485
1305.5000	415.422
1306.0000	415.415
1306.5000	415.396
1307.0000	415.499
1307.5000	415.542
1308.0000	415.504
1308.5000	415.585
1309.0000	415.54
1309.5000	415.692
1310.0000	415.757
1310.5000	415.728
1311.0000	415.768
1311.5000	415.754
1312.0000	415.807
1312.5000	415.903
1313.0000	415.934
1313.5000	415.971
1314.0000	415.987
1314.5000	416.024
1315.0000	416.146
1315.5000	416.177
1316.0000	416.293
1316.5000	416.302
1317.0000	416.288
1317.5000	416.304
1318.0000	416.337
1318.5000	416.446
1319.0000	416.526
1319.5000	416.611
1320.0000	416.558
1320.5000	416.554
1321.0000	416.63
1321.5000	416.593
1322.0000	416.626
1322.5000	416.678
1323.0000	416.656
1323.5000	416.656
1324.0000	416.715
1324.5000	416.701
1325.0000	416.674
1325.5000	416.724
1326.0000	416.741
1326.5000	416.73
1327.0000	416.839
1327.5000	416.923
1328.0000	417.036
1328.5000	417.079
1329.0000	417.032
1329.5000	417.114
1330.0000	417.031
1330.5000	417.101
1331.0000	417.192
1331.5000	417.098
1332.0000	417.234
1332.5000	417.26
1333.0000	417.199
1333.5000	417.363
1334.0000	417.353
1334.5000	417.438
1335.0000	417.508
1335.5000	417.398
1336.0000	417.423
1336.5000	417.487
1337.0000	417.524
1337.5000	417.658
1338.0000	417.744
1338.5000	417.731
1339.0000	417.838
1339.5000	417.819
1340.0000	417.813
1340.5000	417.931
1341.0000	417.918
1341.5000	417.973
1342.0000	418.073
1342.5000	417.992
1343.0000	418.032
1343.5000	418.132
1344.0000	418.138
1344.5000	418.173
1345.0000	418.243
1345.5000	418.164
1346.0000	418.17
1346.5000	418.217
1347.0000	418.215
1347.5000	418.258
1348.0000	418.239
1348.5000	418.23
1349.0000	418.235
1349.5000	418.35
1350.0000	418.491
1350.5000	418.563
1351.0000	418.608
1351.5000	418.6
1352.0000	418.57
1352.5000	418.681
1353.0000	418.781
1353.5000	418.743
1354.0000	418.788
1354.5000	418.746
1355.0000	418.704
1355.5000	418.794
1356.0000	418.835
1356.5000	418.924
1357.0000	418.898
1357.5000	418.939
1358.0000	418.853
1358.5000	418.83
1359.0000	418.889
1359.5000	418.897
1360.0000	419.037
1360.5000	419.108
1361.0000	419.158
1361.5000	419.229
1362.0000	419.239
1362.5000	419.186
1363.0000	419.315
1363.5000	419.349
1364.0000	419.402
1364.5000	419.601
1365.0000	419.655
1365.5000	419.674
1366.0000	419.742
1366.5000	419.611
1367.0000	419.523
1367.5000	419.578
1368.0000	419.613
1368.5000	419.704
1369.0000	419.721
1369.5000	419.71
1370.0000	419.722
1370.5000	419.66
1371.0000	419.738
1371.5000	419.896
1372.0000	419.858
1372.5000	419.946
1373.0000	419.997
1373.5000	419.979
1374.0000	420.057
1374.5000	420.138
1375.0000	420.185
1375.5000	420.13
1376.0000	420.154
1376.5000	420.14
1377.0000	420.141
1377.5000	420.19
1378.0000	420.213
1378.5000	420.26
1379.0000	420.256
1379.5000	420.328
1380.0000	420.49
1380.5000	420.512
1381.0000	420.567
1381.5000	420.509
1382.0000	420.466
1382.5000	420.499
1383.0000	420.497
1383.5000	420.571
1384.0000	420.609
1384.5000	420.647
1385.0000	420.741
1385.5000	420.796
1386.0000	420.767
1386.5000	420.79
1387.0000	420.832
1387.5000	420.867
1388.0000	420.965
1388.5000	421.087
1389.0000	421.163
1389.5000	421.158
1390.0000	421.136
1390.5000	421.175
1391.0000	421.137
1391.5000	421.154
1392.0000	421.171
1392.5000	421.128
1393.0000	421.258
1393.5000	421.337
1394.0000	421.359
1394.5000	421.428
1395.0000	421.387
1395.5000	421.451
1396.0000	421.482
1396.5000	421.426
1397.0000	421.432
1397.5000	421.444
1398.0000	421.533
1398.5000	421.612
1399.0000	421.636
1399.5000	421.664
1400.0000	421.662
1400.5000	421.708
1401.0000	421.768
1401.5000	421.78
1402.0000	421.816
1402.5000	421.885
1403.0000	421.937
1403.5000	421.983
1404.0000	421.982
1404.5000	421.972
1405.0000	421.999
1405.5000	421.982
1406.0000	422.067
1406.5000	422.119
1407.0000	422.139
1407.5000	422.179
1408.0000	422.211
1408.5000	422.181
1409.0000	422.254
1409.5000	422.367
1410.0000	422.321
1410.5000	422.421
1411.0000	422.41
1411.5000	422.408
1412.0000	422.599
1412.5000	422.632
1413.0000	422.617
1413.5000	422.765
1414.0000	422.771
1414.5000	422.797
1415.0000	422.891
1415.5000	422.817
1416.0000	422.788
1416.5000	422.763
1417.0000	422.763
1417.5000	422.873
1418.0000	422.908
1418.5000	422.997
1419.0000	423.035
1419.5000	422.986
1420.0000	422.977
1420.5000	422.961
1421.0000	423.016
1421.5000	423.035
1422.0000	423.063
1422.5000	423.121
1423.0000	423.168
1423.5000	423.217
1424.0000	423.306
1424.5000	423.363
1425.0000	423.376
1425.5000	423.38
1426.0000	423.404
1426.5000	423.406
1427.0000	423.477
1427.5000	423.504
1428.0000	423.523
1428.5000	423.54
1429.0000	423.521
1429.5000	423.488
1430.0000	423.495
1430.5000	423.56
1431.0000	423.63
1431.5000	423.788
1432.0000	423.863
1432.5000	423.88
1433.0000	423.915
1433.5000	423.91
1434.0000	423.92
1434.5000	423.932
1435.0000	423.946
1435.5000	423.976
1436.0000	424
1436.5000	424.005
1437.0000	424.032
1437.5000	424.151
1438.0000	424.146
1438.5000	424.202
1439.0000	424.255
1439.5000	424.171
1440.0000	424.249
1440.5000	424.333
1441.0000	424.351
1441.5000	424.383
1442.0000	424.404
1442.5000	424.383
1443.0000	424.435
1443.5000	424.459
1444.0000	424.513
1444.5000	424.643
1445.0000	424.66
1445.5000	424.66
1446.0000	424.678
1446.5000	424.644
1447.0000	424.593
1447.5000	424.734
1448.0000	424.823
1448.5000	424.84
1449.0000	424.929
1449.5000	424.925
1450.0000	424.913
1450.5000	425.004
1451.0000	425.058
1451.5000	425.095
1452.0000	425.101
1452.5000	425.008
1453.0000	424.97
1453.5000	424.981
1454.0000	424.973
1454.5000	425.048
1455.0000	425.109
1455.5000	425.098
1456.0000	425.157
1456.5000	425.139
1457.0000	425.168
1457.5000	425.288
1458.0000	425.397
1458.5000	425.51
1459.0000	425.568
1459.5000	425.575
1460.0000	425.567
1460.5000	425.604
1461.0000	425.624
1461.5000	425.629
1462.0000	425.592
1462.5000	425.67
1463.0000	425.757
1463.5000	425.828
1464.0000	425.856
1464.5000	425.815
1465.0000	425.806
1465.5000	425.797
1466.0000	425.847
1466.5000	425.883
1467.0000	425.945
1467.5000	425.904
1468.0000	425.906
1468.5000	426.042
1469.0000	426.055
1469.5000	426.139
1470.0000	426.242
1470.5000	426.181
1471.0000	426.209
1471.5000	426.279
1472.0000	426.367
1472.5000	426.36
1473.0000	426.361
1473.5000	426.439
1474.0000	426.435
1474.5000	426.597
1475.0000	426.638
1475.5000	426.648
1476.0000	426.594
1476.5000	426.538
1477.0000	426.583
1477.5000	426.623
1478.0000	426.713
1478.5000	426.761
1479.0000	426.738
1479.5000	426.773
1480.0000	426.803
1480.5000	426.783
1481.0000	426.843
1481.5000	426.753
1482.0000	426.833
1482.5000	426.847
1483.0000	426.893
1483.5000	427.004
1484.0000	427.022
1484.5000	427.12
1485.0000	427.152
1485.5000	427.126
1486.0000	427.083
1486.5000	427.13
1487.0000	427.125
1487.5000	427.329
1488.0000	427.395
1488.5000	427.394
1489.0000	427.449
1489.5000	427.301
1490.0000	427.262
1490.5000	427.295
1491.0000	427.365
1491.5000	427.451
1492.0000	427.487
1492.5000	427.498
1493.0000	427.508
1493.5000	427.5
1494.0000	427.58
1494.5000	427.583
1495.0000	427.534
1495.5000	427.653
1496.0000	427.661
1496.5000	427.73
1497.0000	427.908
1497.5000	427.877
1498.0000	427.961
1498.5000	427.997
1499.0000	427.871
1499.5000	427.94
1500.0000	427.946
1500.5000	427.945
1501.0000	428.03
1501.5000	428.051
1502.0000	428.052
1502.5000	428.128
1503.0000	428.077
1503.5000	428.088
1504.0000	428.123
1504.5000	428.12
1505.0000	428.26
1505.5000	428.293
1506.0000	428.37
1506.5000	428.373
1507.0000	428.411
1507.5000	428.428
1508.0000	428.357
1508.5000	428.416
1509.0000	428.445
1509.5000	428.435
1510.0000	428.504
1510.5000	428.516
1511.0000	428.597
1511.5000	428.633
1512.0000	428.642
1512.5000	428.761
1513.0000	428.745
1513.5000	428.749
1514.0000	428.825
1514.5000	428.704
1515.0000	428.634
1515.5000	428.796
1516.0000	428.843
1516.5000	428.992
1517.0000	429.084
1517.5000	429.132
1518.0000	429.135
1518.5000	429.134
1519.0000	429.1
1519.5000	429.016
1520.0000	429.103
1520.5000	429.14
1521.0000	429.235
1521.5000	429.282
1522.0000	429.191
1522.5000	429.257
1523.0000	429.347
1523.5000	429.402
1524.0000	429.552
1524.5000	429.48
1525.0000	429.409
1525.5000	429.43
1526.0000	429.373
1526.5000	429.517
1527.0000	429.674
1527.5000	429.72
1528.0000	429.808
1528.5000	429.762
1529.0000	429.685
1529.5000	429.692
1530.0000	429.732
1530.5000	429.827
1531.0000	429.864
1531.5000	429.894
1532.0000	429.915
1532.5000	429.887
1533.0000	429.97
1533.5000	430.022
1534.0000	430.036
1534.5000	430.051
1535.0000	430.044
1535.5000	430.103
1536.0000	430.235
1536.5000	430.3
1537.0000	430.334
1537.5000	430.349
1538.0000	430.3
1538.5000	430.361
1539.0000	430.39
1539.5000	430.371
1540.0000	430.381
1540.5000	430.447
1541.0000	430.504
1541.5000	430.546
1542.0000	430.59
1542.5000	430.535
1543.0000	430.578
1543.5000	430.655
1544.0000	430.685
1544.5000	430.716
1545.0000	430.747
1545.5000	430.815
1546.0000	430.883
1546.5000	430.899
1547.0000	430.922
1547.5000	430.871
1548.0000	430.853
1548.5000	430.883
1549.0000	430.962
1549.5000	431.009
1550.0000	431.037
1550.5000	431.021
1551.0000	430.92
1551.5000	430.996
1552.0000	431.092
1552.5000	431.196
1553.0000	431.283
1553.5000	431.225
1554.0000	431.218
1554.5000	431.262
1555.0000	431.268
1555.5000	431.356
1556.0000	431.376
1556.5000	431.392
1557.0000	431.547
1557.5000	431.566
1558.0000	431.615
1558.5000	431.7
1559.0000	431.634
1559.5000	431.642
1560.0000	431.641
1560.5000	431.58
1561.0000	431.566
1561.5000	431.66
1562.0000	431.744
1562.5000	431.775
1563.0000	431.799
1563.5000	431.779
1564.0000	431.817
1564.5000	431.838
1565.0000	431.977
1565.5000	432.032
1566.0000	432.047
1566.5000	432.191
1567.0000	432.17
1567.5000	432.251
1568.0000	432.289
1568.5000	432.283
1569.0000	432.338
1569.5000	432.357
1570.0000	432.295
1570.5000	432.284
1571.0000	432.251
1571.5000	432.152
1572.0000	432.259
1572.5000	432.379
1573.0000	432.449
1573.5000	432.542
1574.0000	432.562
1574.5000	432.482
1575.0000	432.557
1575.5000	432.642
1576.0000	432.601
1576.5000	432.729
1577.0000	432.701
1577.5000	432.681
1578.0000	432.699
1578.5000	432.682
1579.0000	432.734
1579.5000	432.844
1580.0000	432.952
1580.5000	432.989
1581.0000	433.062
1581.5000	433.051
1582.0000	433.018
1582.5000	433.041
1583.0000	433.073
1583.5000	433.044
1584.0000	433.142
1584.5000	433.185
1585.0000	433.168
1585.5000	433.231
1586.0000	433.214
1586.5000	433.233
1587.0000	433.332
1587.5000	433.352
1588.0000	433.433
1588.5000	433.456
1589.0000	433.503
1589.5000	433.577
1590.0000	433.584
1590.5000	433.603
1591.0000	433.615
1591.5000	433.675
1592.0000	433.776
1592.5000	433.843
1593.0000	433.821
1593.5000	433.749
1594.0000	433.748
1594.5000	433.79
1595.0000	433.811
1595.5000	433.893
1596.0000	433.872
1596.5000	433.881
1597.0000	433.98
1597.5000	433.941
1598.0000	434.004
1598.5000	434.104
1599.0000	434.069
1599.5000	434.188
1600.0000	434.27
1600.5000	434.185
1601.0000	434.133
1601.5000	434.141
1602.0000	434.13
1602.5000	434.208
1603.0000	434.333
1603.5000	434.432
1604.0000	434.449
1604.5000	434.565
1605.0000	434.601
1605.5000	434.621
1606.0000	434.697
1606.5000	434.648
1607.0000	434.675
1607.5000	434.66
1608.0000	434.707
1608.5000	434.702
1609.0000	434.74
1609.5000	434.829
1610.0000	434.748
1610.5000	434.858
1611.0000	434.914
1611.5000	434.919
1612.0000	435.069
1612.5000	435.043
1613.0000	435.048
1613.5000	435.029
1614.0000	434.975
1614.5000	435.078
1615.0000	435.031
1615.5000	435.089
1616.0000	435.194
1616.5000	435.137
1617.0000	435.2
1617.5000	435.237
1618.0000	435.312
1618.5000	435.421
1619.0000	435.52
1619.5000	435.475
1620.0000	435.497
1620.5000	435.514
1621.0000	435.53
1621.5000	435.65
1622.0000	435.623
1622.5000	435.515
1623.0000	435.532
1623.5000	435.636
1624.0000	435.665
1624.5000	435.822
1625.0000	435.853
1625.5000	435.809
1626.0000	435.818
1626.5000	435.882
1627.0000	435.939
1627.5000	435.944
1628.0000	435.979
1628.5000	436.073
1629.0000	436.081
1629.5000	436.078
1630.0000	436.145
1630.5000	436.074
1631.0000	436.205
1631.5000	436.334
1632.0000	436.397
1632.5000	436.512
1633.0000	436.371
1633.5000	436.333
1634.0000	436.3
1634.5000	436.261
1635.0000	436.361
1635.5000	436.414
1636.0000	436.448
1636.5000	436.429
1637.0000	436.484
1637.5000	436.468
1638.0000	436.468
1638.5000	436.533
1639.0000	436.648
1639.5000	436.732
1640.0000	436.792
1640.5000	436.817
1641.0000	436.783
1641.5000	436.85
1642.0000	436.925
1642.5000	436.993
1643.0000	437.025
1643.5000	437.025
1644.0000	437.016
1644.5000	436.965
1645.0000	436.978
1645.5000	437.065
1646.0000	437.165
1646.5000	437.295
1647.0000	437.337
1647.5000	437.318
1648.0000	437.277
1648.5000	437.322
1649.0000	437.379
1649.5000	437.391
1650.0000	437.421
1650.5000	437.389
1651.0000	437.445
1651.5000	437.497
1652.0000	437.48
1652.5000	437.548
1653.0000	437.602
1653.5000	437.705
1654.0000	437.83
1654.5000	437.971
1655.0000	437.925
1655.5000	437.946
1656.0000	437.989
1656.5000	437.949
1657.0000	437.985
1657.5000	437.985
1658.0000	437.977
1658.5000	438.012
1659.0000	438.035
1659.5000	437.983
1660.0000	438.043
1660.5000	438.105
1661.0000	438.177
1661.5000	438.22
1662.0000	438.274
1662.5000	438.277
1663.0000	438.299
1663.5000	438.36
1664.0000	438.328
1664.5000	438.347
1665.0000	438.323
1665.5000	438.365
1666.0000	438.489
1666.5000	438.437
1667.0000	438.435
1667.5000	438.498
1668.0000	438.472
1668.5000	438.511
1669.0000	438.593
1669.5000	438.601
1670.0000	438.613
1670.5000	438.717
1671.0000	438.719
1671.5000	438.764
1672.0000	438.834
1672.5000	438.828
1673.0000	438.899
1673.5000	438.943
1674.0000	438.993
1674.5000	439.024
1675.0000	439.044
1675.5000	439.062
1676.0000	439.099
1676.5000	439.098
1677.0000	439.201
1677.5000	439.256
1678.0000	439.198
1678.5000	439.255
1679.0000	439.306
1679.5000	439.313
1680.0000	439.384
1680.5000	439.486
1681.0000	439.45
1681.5000	439.421
1682.0000	439.41
1682.5000	439.312
1683.0000	439.252
1683.5000	439.285
1684.0000	439.369
1684.5000	439.511
1685.0000	439.576
1685.5000	439.76
1686.0000	439.762
1686.5000	439.817
1687.0000	439.792
1687.5000	439.705
1688.0000	439.831
1688.5000	439.8
1689.0000	439.909
1689.5000	439.899
1690.0000	439.844
1690.5000	439.842
1691.0000	439.861
1691.5000	439.882
1692.0000	439.992
1692.5000	440.098
1693.0000	440.104
1693.5000	440.222
1694.0000	440.249
1694.5000	440.193
1695.0000	440.267
1695.5000	440.285
1696.0000	440.321
1696.5000	440.408
1697.0000	440.508
1697.5000	440.488
1698.0000	440.472
1698.5000	440.463
1699.0000	440.479
1699.5000	440.568
1700.0000	440.603
1700.5000	440.721
1701.0000	440.846
1701.5000	440.888
1702.0000	440.919
1702.5000	440.937
1703.0000	440.868
1703.5000	440.916
1704.0000	440.962
1704.5000	441.077
1705.0000	441.178
1705.5000	441.181
1706.0000	441.292
1706.5000	441.235
1707.0000	441.224
1707.5000	441.278
1708.0000	441.287
1708.5000	441.33
1709.0000	441.348
1709.5000	441.378
1710.0000	441.386
1710.5000	441.465
1711.0000	441.479
1711.5000	441.577
1712.0000	441.575
1712.5000	441.585
1713.0000	441.652
1713.5000	441.618
1714.0000	441.691
1714.5000	441.725
1715.0000	441.677
1715.5000	441.687
1716.0000	441.695
1716.5000	441.662
1717.0000	441.774
1717.5000	441.772
1718.0000	441.829
1718.5000	441.894
1719.0000	441.987
1719.5000	442.097
1720.0000	442.129
1720.5000	442.191
1721.0000	442.134
1721.5000	442.108
1722.0000	442.104
1722.5000	442.217
1723.0000	442.301
1723.5000	442.405
1724.0000	442.476
1724.5000	442.398
1725.0000	442.392
1725.5000	442.487
1726.0000	442.532
1726.5000	442.579
1727.0000	442.684
1727.5000	442.586
1728.0000	442.57
1728.5000	442.593
1729.0000	442.565
1729.5000	442.667
1730.0000	442.739
1730.5000	442.741
1731.0000	442.804
1731.5000	442.84
1732.0000	442.844
1732.5000	442.952
1733.0000	442.996
1733.5000	443.059
1734.0000	443.102
1734.5000	443.167
1735.0000	443.196
1735.5000	443.174
1736.0000	443.202
1736.5000	443.266
1737.0000	443.273
1737.5000	443.383
1738.0000	443.478
1738.5000	443.509
1739.0000	443.585
1739.5000	443.583
1740.0000	443.512
1740.5000	443.557
1741.0000	443.649
1741.5000	443.721
1742.0000	443.813
1742.5000	443.719
1743.0000	443.622
1743.5000	443.555
1744.0000	443.612
1744.5000	443.632
1745.0000	443.79
1745.5000	443.939
1746.0000	443.92
1746.5000	444.02
1747.0000	444.035
1747.5000	444.039
1748.0000	444.178
1748.5000	444.133
1749.0000	444.247
1749.5000	444.273
1750.0000	444.207
1750.5000	444.249
1751.0000	444.134
1751.5000	444.212
1752.0000	444.197
1752.5000	444.277
1753.0000	444.276
1753.5000	444.184
1754.0000	444.214
1754.5000	444.177
1755.0000	444.271
1755.5000	444.379
1756.0000	444.471
1756.5000	444.605
1757.0000	444.568
1757.5000	444.633
1758.0000	444.698
1758.5000	444.652
1759.0000	444.735
1759.5000	444.824
1760.0000	444.92
1760.5000	444.962
1761.0000	445.011
1761.5000	444.906
1762.0000	444.84
1762.5000	444.92
1763.0000	444.992
1763.5000	445.124
1764.0000	445.243
1764.5000	445.317
1765.0000	445.265
1765.5000	445.247
1766.0000	445.227
1766.5000	445.191
1767.0000	445.289
1767.5000	445.309
1768.0000	445.372
1768.5000	445.471
1769.0000	445.493
1769.5000	445.527
1770.0000	445.552
1770.5000	445.667
1771.0000	445.711
1771.5000	445.716
1772.0000	445.76
1772.5000	445.714
1773.0000	445.699
1773.5000	445.832
1774.0000	445.83
1774.5000	445.776
1775.0000	445.834
1775.5000	445.816
1776.0000	445.845
1776.5000	445.87
1777.0000	445.853
1777.5000	445.887
1778.0000	445.928
1778.5000	446.042
1779.0000	446.174
1779.5000	446.175
1780.0000	446.176
1780.5000	446.223
1781.0000	446.246
1781.5000	446.319
1782.0000	446.435
1782.5000	446.383
1783.0000	446.398
1783.5000	446.381
1784.0000	446.379
1784.5000	446.48
1785.0000	446.501
1785.5000	446.558
1786.0000	446.547
1786.5000	446.55
1787.0000	446.532
1787.5000	446.467
1788.0000	446.606
1788.5000	446.671
1789.0000	446.732
1789.5000	446.77
1790.0000	446.69
1790.5000	446.742
1791.0000	446.714
1791.5000	446.893
1792.0000	446.929
1792.5000	446.931
1793.0000	447.032
1793.5000	447.004
1794.0000	446.985
1794.5000	447.025
1795.0000	447.053
1795.5000	447.012
1796.0000	447.109
1796.5000	447.1
1797.0000	447.132
1797.5000	447.223
1798.0000	447.348
1798.5000	447.424
1799.0000	447.463
1799.5000	447.534
1800.0000	447.508
1800.5000	447.575
1801.0000	447.56
1801.5000	447.554
1802.0000	447.502
1802.5000	447.461
1803.0000	447.489
1803.5000	447.553
1804.0000	447.607
1804.5000	447.604
1805.0000	447.672
1805.5000	447.705
1806.0000	447.684
1806.5000	447.778
1807.0000	447.754
1807.5000	447.751
1808.0000	447.809
1808.5000	447.822
1809.0000	447.896
1809.5000	447.978
1810.0000	448.016
1810.5000	448.088
1811.0000	448.04
1811.5000	447.932
1812.0000	448.044
1812.5000	447.993
1813.0000	448.023
1813.5000	448.134
1814.0000	448.006
1814.5000	447.957
1815.0000	448.013
1815.5000	448.04
1816.0000	448.129
1816.5000	448.247
1817.0000	448.331
1817.5000	448.266
1818.0000	448.176
1818.5000	448.155
1819.0000	448.172
1819.5000	448.281
1820.0000	448.518
1820.5000	448.582
1821.0000	448.557
1821.5000	448.576
1822.0000	448.456
1822.5000	448.514
1823.0000	448.605
1823.5000	448.59
1824.0000	448.684
1824.5000	448.697
1825.0000	448.655
1825.5000	448.671
1826.0000	448.733
1826.5000	448.71
1827.0000	448.803
1827.5000	448.87
1828.0000	448.842
1828.5000	448.964
1829.0000	448.959
1829.5000	448.962
1830.0000	448.955
1830.5000	448.864
1831.0000	448.895
1831.5000	448.954
1832.0000	449.048
1832.5000	449.067
1833.0000	448.934
1833.5000	449.013
1834.0000	449.001
1834.5000	449.077
1835.0000	449.175
1835.5000	449.171
1836.0000	449.261
1836.5000	449.31
1837.0000	449.382
1837.5000	449.356
1838.0000	449.376
1838.5000	449.425
1839.0000	449.439
1839.5000	449.435
1840.0000	449.423
1840.5000	449.399
1841.0000	449.458
1841.5000	449.462
1842.0000	449.43
1842.5000	449.411
1843.0000	449.424
1843.5000	449.502
1844.0000	449.553
1844.5000	449.53
1845.0000	449.506
1845.5000	449.443
1846.0000	449.357
1846.5000	449.446
1847.0000	449.455
1847.5000	449.523
1848.0000	449.63
1848.5000	449.595
1849.0000	449.629
1849.5000	449.657
1850.0000	449.666
1850.5000	449.669
1851.0000	449.722
1851.5000	449.726
1852.0000	449.775
1852.5000	449.853
1853.0000	449.772
1853.5000	449.791
1854.0000	449.762
1854.5000	449.765
1855.0000	449.782
1855.5000	449.773
1856.0000	449.925
1856.5000	449.99
1857.0000	450.071
1857.5000	450.091
1858.0000	449.993
1858.5000	450.037
1859.0000	450.083
1859.5000	450.182
1860.0000	450.196
1860.5000	450.036
1861.0000	450.015
1861.5000	450.072
1862.0000	450.091
1862.5000	450.202
1863.0000	450.336
1863.5000	450.255
1864.0000	450.22
1864.5000	450.318
1865.0000	450.305
1865.5000	450.355
1866.0000	450.471
1866.5000	450.411
1867.0000	450.403
1867.5000	450.445
1868.0000	450.449
1868.5000	450.479
1869.0000	450.484
1869.5000	450.488
1870.0000	450.444
1870.5000	450.55
1871.0000	450.619
1871.5000	450.596
1872.0000	450.674
1872.5000	450.616
1873.0000	450.671
1873.5000	450.629
1874.0000	450.665
1874.5000	450.765
1875.0000	450.649
1875.5000	450.677
1876.0000	450.714
1876.5000	450.64
1877.0000	450.675
1877.5000	450.823
1878.0000	450.836
1878.5000	450.831
1879.0000	450.958
1879.5000	450.954
1880.0000	450.922
1880.5000	451.005
1881.0000	450.953
1881.5000	450.946
1882.0000	450.967
1882.5000	450.998
1883.0000	450.988
1883.5000	450.999
1884.0000	451.02
1884.5000	451.055
1885.0000	451.077
1885.5000	451.048
1886.0000	451.161
1886.5000	451.126
1887.0000	451.169
1887.5000	451.261
1888.0000	451.208
1888.5000	451.19
1889.0000	451.193
1889.5000	451.119
1890.0000	451.191
1890.5000	451.177
1891.0000	451.129
1891.5000	451.203
1892.0000	451.188
1892.5000	451.219
1893.0000	451.354
1893.5000	451.354
1894.0000	451.337
1894.5000	451.425
1895.0000	451.361
1895.5000	451.445
1896.0000	451.485
1896.5000	451.368
1897.0000	451.343
1897.5000	451.281
1898.0000	451.224
1898.5000	451.305
1899.0000	451.469
1899.5000	451.478
1900.0000	451.516
1900.5000	451.52
1901.0000	451.444
1901.5000	451.531
1902.0000	451.572
1902.5000	451.666
1903.0000	451.675
1903.5000	451.676
1904.0000	451.721
1904.5000	451.705
1905.0000	451.669
1905.5000	451.77
1906.0000	451.673
1906.5000	451.73
1907.0000	451.909
1907.5000	451.905
1908.0000	452.009
1908.5000	452.007
1909.0000	451.948
1909.5000	451.813
1910.0000	451.837
1910.5000	451.794
1911.0000	451.669
1911.5000	451.789
1912.0000	451.872
1912.5000	451.811
1913.0000	451.971
1913.5000	452.003
1914.0000	451.955
1914.5000	452.098
1915.0000	452.086
1915.5000	452.077
1916.0000	452.051
1916.5000	452.031
1917.0000	452.024
1917.5000	451.961
1918.0000	451.932
1918.5000	451.992
1919.0000	452.041
1919.5000	452.099
1920.0000	452.121
1920.5000	452.046
1921.0000	452.016
1921.5000	452.097
1922.0000	452.105
1922.5000	452.192
1923.0000	452.233
1923.5000	452.148
1924.0000	452.177
1924.5000	452.225
1925.0000	452.276
1925.5000	452.297
1926.0000	452.304
1926.5000	452.294
1927.0000	452.223
1927.5000	452.314
1928.0000	452.429
1928.5000	452.42
1929.0000	452.368
1929.5000	452.396
1930.0000	452.378
1930.5000	452.418
1931.0000	452.469
1931.5000	452.424
1932.0000	452.414
1932.5000	452.386
1933.0000	452.46
1933.5000	452.506
1934.0000	452.517
1934.5000	452.55
1935.0000	452.632
1935.5000	452.619
1936.0000	452.634
1936.5000	452.696
1937.0000	452.583
1937.5000	452.603
1938.0000	452.652
1938.5000	452.61
1939.0000	452.689
1939.5000	452.696
1940.0000	452.667
1940.5000	452.662
1941.0000	452.661
1941.5000	452.689
1942.0000	452.691
1942.5000	452.721
1943.0000	452.663
1943.5000	452.682
1944.0000	452.693
1944.5000	452.616
1945.0000	452.716
1945.5000	452.755
1946.0000	452.8
1946.5000	452.901
1947.0000	452.88
1947.5000	452.798
1948.0000	452.709
1948.5000	452.742
1949.0000	452.768
1949.5000	452.783
1950.0000	452.844
1950.5000	452.809
1951.0000	452.798
1951.5000	452.866
1952.0000	452.98
1952.5000	453.02
1953.0000	453.021
1953.5000	452.97
1954.0000	452.844
1954.5000	452.83
1955.0000	452.885
1955.5000	452.877
1956.0000	452.903
1956.5000	452.957
1957.0000	452.932
1957.5000	452.885
1958.0000	452.906
1958.5000	452.869
1959.0000	452.945
1959.5000	453.114
1960.0000	453.216
1960.5000	453.203
1961.0000	453.218
1961.5000	453.19
1962.0000	453.131
1962.5000	453.184
1963.0000	453.214
1963.5000	453.236
1964.0000	453.271
1964.5000	453.293
1965.0000	453.205
1965.5000	453.2
1966.0000	453.277
1966.5000	453.299
1967.0000	453.345
1967.5000	453.342
1968.0000	453.242
1968.5000	453.283
1969.0000	453.342
1969.5000	453.347
1970.0000	453.46
1970.5000	453.401
1971.0000	453.373
1971.5000	453.372
1972.0000	453.267
1972.5000	453.314
1973.0000	453.347
1973.5000	453.337
1974.0000	453.494
1974.5000	453.48
1975.0000	453.431
1975.5000	453.433
1976.0000	453.394
1976.5000	453.41
1977.0000	453.436
1977.5000	453.54
1978.0000	453.5
1978.5000	453.555
1979.0000	453.57
1979.5000	453.559
1980.0000	453.53
1980.5000	453.502
1981.0000	453.576
1981.5000	453.537
1982.0000	453.612
1982.5000	453.588
1983.0000	453.508
1983.5000	453.587
1984.0000	453.643
1984.5000	453.646
1985.0000	453.706
1985.5000	453.738
1986.0000	453.714
1986.5000	453.791
1987.0000	453.811
1987.5000	453.855
1988.0000	453.778
1988.5000	453.812
1989.0000	453.79
1989.5000	453.741
1990.0000	453.799
1990.5000	453.704
1991.0000	453.747
1991.5000	453.676
1992.0000	453.737
1992.5000	453.68
1993.0000	453.683
1993.5000	453.727
1994.0000	453.67
1994.5000	453.818
1995.0000	453.817
1995.5000	453.848
1996.0000	453.908
1996.5000	453.794
1997.0000	453.802
1997.5000	453.778
1998.0000	453.747
1998.5000	453.885
1999.0000	453.921
1999.5000	453.901
2000.0000	453.898
2000.5000	453.949
2001.0000	454.001
2001.5000	454.027
2002.0000	454.084
2002.5000	454.052
2003.0000	454.01
2003.5000	454.082
2004.0000	454.105
2004.5000	454.075
2005.0000	454.008
2005.5000	453.945
2006.0000	453.918
2006.5000	453.898
2007.0000	454.093
2007.5000	454.173
2008.0000	454.186
2008.5000	454.277
2009.0000	454.187
2009.5000	454.133
2010.0000	454.121
2010.5000	454.074
2011.0000	454.07
2011.5000	454.066
2012.0000	454.085
2012.5000	454.111
2013.0000	454.103
2013.5000	454.078
2014.0000	454.049
2014.5000	454.104
2015.0000	454.105
2015.5000	454.199
2016.0000	454.333
2016.5000	454.245
2017.0000	454.265
2017.5000	454.318
2018.0000	454.222
2018.5000	454.146
2019.0000	454.258
2019.5000	454.224
2020.0000	454.24
2020.5000	454.406
2021.0000	454.371
2021.5000	454.412
2022.0000	454.493
2022.5000	454.511
2023.0000	454.42
2023.5000	454.381
2024.0000	454.349
2024.5000	454.369
2025.0000	454.384
2025.5000	454.416
2026.0000	454.521
2026.5000	454.55
2027.0000	454.648
2027.5000	454.587
2028.0000	454.517
2028.5000	454.484
2029.0000	454.449
2029.5000	454.508
2030.0000	454.526
2030.5000	454.571
2031.0000	454.52
2031.5000	454.615
2032.0000	454.546
2032.5000	454.447
2033.0000	454.539
2033.5000	454.441
2034.0000	454.515
2034.5000	454.641
2035.0000	454.6
2035.5000	454.746
2036.0000	454.738
2036.5000	454.731
2037.0000	454.811
2037.5000	454.737
2038.0000	454.801
2038.5000	454.797
2039.0000	454.742
2039.5000	454.692
2040.0000	454.689
2040.5000	454.711
2041.0000	454.632
2041.5000	454.744
2042.0000	454.687
2042.5000	454.677
2043.0000	454.821
2043.5000	454.775
2044.0000	454.839
2044.5000	454.752
2045.0000	454.756
2045.5000	454.772
2046.0000	454.709
2046.5000	454.824
2047.0000	454.87
2047.5000	454.853
2048.0000	454.99
2048.5000	454.942
2049.0000	454.934
2049.5000	454.944
2050.0000	454.913
2050.5000	454.967
2051.0000	454.971
2051.5000	454.959
2052.0000	454.905
2052.5000	454.914
2053.0000	454.901
2053.5000	454.891
2054.0000	454.909
2054.5000	454.875
2055.0000	454.941
2055.5000	455.026
2056.0000	455.11
2056.5000	455.199
2057.0000	455.196
2057.5000	455.225
2058.0000	455.208
2058.5000	455.147
2059.0000	454.992
2059.5000	454.946
2060.0000	454.936
2060.5000	455.057
2061.0000	455.197
2061.5000	455.141
2062.0000	455.105
2062.5000	454.994
2063.0000	455.034
2063.5000	455.18
2064.0000	455.181
2064.5000	455.287
2065.0000	455.284
2065.5000	455.281
2066.0000	455.451
2066.5000	455.381
2067.0000	455.298
2067.5000	455.282
2068.0000	455.163
2068.5000	455.17
2069.0000	455.246
2069.5000	455.244
2070.0000	455.291
2070.5000	455.358
2071.0000	455.363
2071.5000	455.35
2072.0000	455.377
2072.5000	455.408
2073.0000	455.324
2073.5000	455.331
2074.0000	455.34
2074.5000	455.348
2075.0000	455.399
2075.5000	455.456
2076.0000	455.521
2076.5000	455.414
2077.0000	455.435
2077.5000	455.435
2078.0000	455.368
2078.5000	455.356
2079.0000	455.437
2079.5000	455.44
2080.0000	455.423
2080.5000	455.533
2081.0000	455.51
2081.5000	455.538
2082.0000	455.561
2082.5000	455.591
2083.0000	455.673
2083.5000	455.639
2084.0000	455.633
2084.5000	455.592
2085.0000	455.692
2085.5000	455.668
2086.0000	455.681
2086.5000	455.708
2087.0000	455.538
2087.5000	455.588
2088.0000	455.674
2088.5000	455.639
2089.0000	455.671
2089.5000	455.722
2090.0000	455.645
2090.5000	455.677
2091.0000	455.656
2091.5000	455.583
2092.0000	455.637
2092.5000	455.63
2093.0000	455.714
2093.5000	455.712
2094.0000	455.779
2094.5000	455.845
2095.0000	455.832
2095.5000	455.93
2096.0000	455.851
2096.5000	455.853
2097.0000	455.854
2097.5000	455.819
2098.0000	455.836
2098.5000	455.807
2099.0000	455.825
2099.5000	455.844
2100.0000	455.855
2100.5000	455.822
2101.0000	455.897
2101.5000	455.892
2102.0000	455.899
2102.5000	456.003
2103.0000	455.891
2103.5000	455.908
2104.0000	455.86
2104.5000	455.806
2105.0000	455.866
2105.5000	455.893
2106.0000	455.986
2106.5000	456.036
2107.0000	456.044
2107.5000	456.072
2108.0000	456.042
2108.5000	456.056
2109.0000	456.069
2109.5000	456.002
2110.0000	456.042
2110.5000	455.996
2111.0000	456.003
2111.5000	456.063
2112.0000	456.068
2112.5000	456.154
2113.0000	456.127
2113.5000	456.144
2114.0000	456.187
2114.5000	456.119
2115.0000	456.203
2115.5000	456.212
2116.0000	456.175
2116.5000	456.221
2117.0000	456.137
2117.5000	456.058
2118.0000	456.027
2118.5000	456.042
2119.0000	456.087
2119.5000	456.152
2120.0000	456.236
2120.5000	456.29
2121.0000	456.223
2121.5000	456.221
2122.0000	456.195
2122.5000	456.129
2123.0000	456.238
2123.5000	456.365
2124.0000	456.352
2124.5000	456.391
2125.0000	456.483
2125.5000	456.343
2126.0000	456.4
2126.5000	456.422
2127.0000	456.334
2127.5000	456.447
2128.0000	456.414
2128.5000	456.424
2129.0000	456.411
2129.5000	456.341
2130.0000	456.377
2130.5000	456.39
2131.0000	456.326
2131.5000	456.399
2132.0000	456.44
2132.5000	456.356
2133.0000	456.434
2133.5000	456.415
2134.0000	456.395
2134.5000	456.434
2135.0000	456.489
2135.5000	456.528
2136.0000	456.517
2136.5000	456.572
2137.0000	456.483
2137.5000	456.544
2138.0000	456.527
2138.5000	456.455
2139.0000	456.476
2139.5000	456.406
2140.0000	456.479
2140.5000	456.608
2141.0000	456.666
2141.5000	456.677
2142.0000	456.653
2142.5000	456.657
2143.0000	456.731
2143.5000	456.735
2144.0000	456.77
2144.5000	456.759
2145.0000	456.682
2145.5000	456.685
2146.0000	456.781
2146.5000	456.768
2147.0000	456.772
2147.5000	456.832
2148.0000	456.789
2148.5000	456.742
2149.0000	456.815
2149.5000	456.766
2150.0000	456.801
2150.5000	456.863
2151.0000	456.797
2151.5000	456.819
2152.0000	456.736
2152.5000	456.649
2153.0000	456.734
2153.5000	456.799
2154.0000	456.776
2154.5000	456.915
2155.0000	456.873
2155.5000	456.811
2156.0000	456.875
2156.5000	456.852
2157.0000	456.875
2157.5000	456.894
2158.0000	456.872
2158.5000	456.849
2159.0000	456.905
2159.5000	456.945
2160.0000	456.91
2160.5000	456.936
2161.0000	456.818
2161.5000	456.8
2162.0000	456.865
2162.5000	456.933
2163.0000	457.062
2163.5000	457.06
2164.0000	457.034
2164.5000	456.91
2165.0000	456.881
2165.5000	456.875
2166.0000	456.923
2166.5000	457.047
2167.0000	457.01
2167.5000	457.047
2168.0000	457.035
2168.5000	457.056
2169.0000	457.159
2169.5000	457.143
2170.0000	457.142
2170.5000	457.068
2171.0000	457.061
2171.5000	457.024
2172.0000	457.018
2172.5000	457.175
2173.0000	457.131
2173.5000	457.164
2174.0000	457.234
2174.5000	457.176
2175.0000	457.272
2175.5000	457.331
2176.0000	457.37
2176.5000	457.332
2177.0000	457.273
2177.5000	457.283
2178.0000	457.264
2178.5000	457.231
2179.0000	457.222
2179.5000	457.177
2180.0000	457.153
2180.5000	457.219
2181.0000	457.284
2181.5000	457.402
2182.0000	457.418
2182.5000	457.412
2183.0000	457.451
2183.5000	457.438
2184.0000	457.474
2184.5000	457.546
2185.0000	457.415
2185.5000	457.378
2186.0000	457.384
2186.5000	457.448
2187.0000	457.521
2187.5000	457.517
2188.0000	457.531
2188.5000	457.397
2189.0000	457.425
2189.5000	457.512
2190.0000	457.511
2190.5000	457.52
2191.0000	457.522
2191.5000	457.538
2192.0000	457.486
2192.5000	457.597
2193.0000	457.629
2193.5000	457.593
2194.0000	457.633
2194.5000	457.605
2195.0000	457.653
2195.5000	457.678
2196.0000	457.696
2196.5000	457.667
2197.0000	457.684
2197.5000	457.629
2198.0000	457.595
2198.5000	457.632
2199.0000	457.57
2199.5000	457.565
2200.0000	457.568
2200.5000	457.58
2201.0000	457.623
2201.5000	457.595
2202.0000	457.687
2202.5000	457.684
2203.0000	457.6
2203.5000	457.726
2204.0000	457.706
2204.5000	457.737
2205.0000	457.857
2205.5000	457.802
2206.0000	457.86
2206.5000	457.912
2207.0000	457.873
2207.5000	457.942
2208.0000	457.846
2208.5000	457.836
2209.0000	457.892
2209.5000	457.813
2210.0000	457.87
2210.5000	457.784
2211.0000	457.766
2211.5000	457.852
2212.0000	457.841
2212.5000	457.871
2213.0000	457.828
2213.5000	457.806
2214.0000	457.87
2214.5000	457.879
2215.0000	457.91
2215.5000	458
2216.0000	458.031
2216.5000	458.037
2217.0000	458.006
2217.5000	457.993
2218.0000	457.931
2218.5000	457.953
2219.0000	457.956
2219.5000	457.97
2220.0000	458.034
2220.5000	458.013
2221.0000	458.143
2221.5000	458.107
2222.0000	458.217
2222.5000	458.242
2223.0000	458.179
2223.5000	458.174
2224.0000	458.096
2224.5000	458.165
2225.0000	458.102
2225.5000	458.047
2226.0000	458.065
2226.5000	458.034
2227.0000	458.135
2227.5000	458.22
2228.0000	458.149
2228.5000	458.189
2229.0000	458.203
2229.5000	458.193
2230.0000	458.265
2230.5000	458.257
2231.0000	458.329
2231.5000	458.372
2232.0000	458.286
2232.5000	458.289
2233.0000	458.285
2233.5000	458.327
2234.0000	458.432
2234.5000	458.456
2235.0000	458.356
2235.5000	458.253
2236.0000	458.188
2236.5000	458.146
2237.0000	458.21
2237.5000	458.316
2238.0000	458.384
2238.5000	458.439
2239.0000	458.442
2239.5000	458.483
2240.0000	458.466
2240.5000	458.511
2241.0000	458.522
2241.5000	458.418
2242.0000	458.504
2242.5000	458.532
2243.0000	458.529
2243.5000	458.595
2244.0000	458.617
2244.5000	458.535
2245.0000	458.6
2245.5000	458.659
2246.0000	458.668
2246.5000	458.664
2247.0000	458.732
2247.5000	458.749
2248.0000	458.696
2248.5000	458.725
2249.0000	458.64
2249.5000	458.643
2250.0000	458.564
2250.5000	458.645
2251.0000	458.676
2251.5000	458.627
2252.0000	458.703
2252.5000	458.707
2253.0000	458.674
2253.5000	458.736
2254.0000	458.757
2254.5000	458.705
2255.0000	458.733
2255.5000	458.688
2256.0000	458.675
2256.5000	458.636
2257.0000	458.636
2257.5000	458.671
2258.0000	458.778
2258.5000	458.86
2259.0000	458.918
2259.5000	458.958
2260.0000	458.915
2260.5000	458.996
2261.0000	459.056
2261.5000	459.033
2262.0000	458.972
2262.5000	458.872
2263.0000	458.784
2263.5000	458.718
2264.0000	458.809
2264.5000	458.858
2265.0000	458.914
2265.5000	458.899
2266.0000	458.866
2266.5000	458.803
2267.0000	458.784
2267.5000	458.919
2268.0000	458.904
2268.5000	458.977
2269.0000	458.998
2269.5000	458.977
2270.0000	459.015
2270.5000	458.992
2271.0000	458.993
2271.5000	459.009
2272.0000	459.065
2272.5000	459.103
2273.0000	459.145
2273.5000	459.123
2274.0000	459.059
2274.5000	459.093
2275.0000	459.015
2275.5000	459.041
2276.0000	459.109
2276.5000	459.105
2277.0000	459.135
2277.5000	459.117
2278.0000	459.118
2278.5000	459.12
2279.0000	459.168
2279.5000	459.208
2280.0000	459.203
2280.5000	459.253
2281.0000	459.233
