TITLE	
DATA TYPE	
ORIGIN	JASCO
OWNER	
DATE	22/04/19
TIME	20:53:44
SPECTROMETER/DATA SYSTEM	
RESOLUTION	
DELTAX	0.5
XUNITS	SEC
YUNITS	INTENSITY
FIRSTX	0.0000
LASTX	5000.0000
NPOINTS	10001
FIRSTY	441.84091
MAXY	463.57977
MINY	-70.05135
XYDATA
0.0000	441.841
0.5000	441.773
1.0000	441.809
1.5000	441.755
2.0000	441.763
2.5000	441.873
3.0000	441.891
3.5000	441.889
4.0000	441.954
4.5000	442.013
5.0000	442.037
5.5000	442.092
6.0000	442.139
6.5000	442.188
7.0000	442.303
7.5000	442.337
8.0000	442.345
8.5000	442.4
9.0000	442.377
9.5000	442.475
10.0000	442.47
10.5000	442.38
11.0000	442.355
11.5000	442.241
12.0000	442.319
12.5000	442.299
13.0000	442.327
13.5000	442.474
14.0000	442.471
14.5000	442.712
15.0000	429.585
15.5000	410.019
16.0000	367.726
16.5000	150.507
17.0000	-70.0514
17.5000	-38.4985
18.0000	-32.1827
18.5000	-29.9604
19.0000	-28.7862
19.5000	-28.1013
20.0000	-27.3752
20.5000	-26.8518
21.0000	-26.6414
21.5000	-26.2246
22.0000	-26.0294
22.5000	241.982
23.0000	229.878
23.5000	227.313
24.0000	226.059
24.5000	207.389
25.0000	208.217
25.5000	208.177
26.0000	208.125
26.5000	208.147
27.0000	208.167
27.5000	208.238
28.0000	208.328
28.5000	208.419
29.0000	208.5
29.5000	208.634
30.0000	208.758
30.5000	208.855
31.0000	208.993
31.5000	209.106
32.0000	209.218
32.5000	209.299
33.0000	209.45
33.5000	209.563
34.0000	209.645
34.5000	209.787
35.0000	209.879
35.5000	209.988
36.0000	210.168
36.5000	210.287
37.0000	210.406
37.5000	210.526
38.0000	210.628
38.5000	210.722
39.0000	210.84
39.5000	210.921
40.0000	210.985
40.5000	211.076
41.0000	211.133
41.5000	211.255
42.0000	211.432
42.5000	211.502
43.0000	211.658
43.5000	211.77
44.0000	211.815
44.5000	211.974
45.0000	212.094
45.5000	212.206
46.0000	212.313
46.5000	212.427
47.0000	212.5
47.5000	212.625
48.0000	212.741
48.5000	212.84
49.0000	212.926
49.5000	213.022
50.0000	213.115
50.5000	213.247
51.0000	213.38
51.5000	213.501
52.0000	213.643
52.5000	213.743
53.0000	213.884
53.5000	214.072
54.0000	214.224
54.5000	214.371
55.0000	214.517
55.5000	214.577
56.0000	214.733
56.5000	214.855
57.0000	214.956
57.5000	215.091
58.0000	215.175
58.5000	215.348
59.0000	215.434
59.5000	215.521
60.0000	215.617
60.5000	215.667
61.0000	215.824
61.5000	215.932
62.0000	216.045
62.5000	216.126
63.0000	216.23
63.5000	216.393
64.0000	216.465
64.5000	216.621
65.0000	216.725
65.5000	216.847
66.0000	217.044
66.5000	217.164
67.0000	217.315
67.5000	217.447
68.0000	217.523
68.5000	217.604
69.0000	217.694
69.5000	217.764
70.0000	217.893
70.5000	218.007
71.0000	218.101
71.5000	218.226
72.0000	218.335
72.5000	218.517
73.0000	218.677
73.5000	218.801
74.0000	218.915
74.5000	218.969
75.0000	219.087
75.5000	219.18
76.0000	219.32
76.5000	219.45
77.0000	219.527
77.5000	219.679
78.0000	219.792
78.5000	219.923
79.0000	220.023
79.5000	220.121
80.0000	220.24
80.5000	220.37
81.0000	220.543
81.5000	220.647
82.0000	220.761
82.5000	220.905
83.0000	221.039
83.5000	221.168
84.0000	221.272
84.5000	221.374
85.0000	221.457
85.5000	221.546
86.0000	221.699
86.5000	221.847
87.0000	221.998
87.5000	222.137
88.0000	222.221
88.5000	222.336
89.0000	222.483
89.5000	222.603
90.0000	222.74
90.5000	222.838
91.0000	222.946
91.5000	223.116
92.0000	223.215
92.5000	223.328
93.0000	223.445
93.5000	223.577
94.0000	223.716
94.5000	223.835
95.0000	223.935
95.5000	224.009
96.0000	224.149
96.5000	224.303
97.0000	224.462
97.5000	224.565
98.0000	224.685
98.5000	224.78
99.0000	224.852
99.5000	224.975
100.0000	225.083
100.5000	225.234
101.0000	225.381
101.5000	225.542
102.0000	225.652
102.5000	225.773
103.0000	225.876
103.5000	225.965
104.0000	226.131
104.5000	226.234
105.0000	226.336
105.5000	226.456
106.0000	226.52
106.5000	226.651
107.0000	226.806
107.5000	226.937
108.0000	227.105
108.5000	227.203
109.0000	227.33
109.5000	227.499
110.0000	227.611
110.5000	227.69
111.0000	227.778
111.5000	227.846
112.0000	227.966
112.5000	228.149
113.0000	228.269
113.5000	228.41
114.0000	228.492
114.5000	228.629
115.0000	228.799
115.5000	228.935
116.0000	229.079
116.5000	229.154
117.0000	229.248
117.5000	229.315
118.0000	229.417
118.5000	229.543
119.0000	229.689
119.5000	229.818
120.0000	230.01
120.5000	230.19
121.0000	230.272
121.5000	230.391
122.0000	230.461
122.5000	230.526
123.0000	230.651
123.5000	230.776
124.0000	230.891
124.5000	230.999
125.0000	231.101
125.5000	231.223
126.0000	231.356
126.5000	231.517
127.0000	231.676
127.5000	231.823
128.0000	231.93
128.5000	232.036
129.0000	232.15
129.5000	232.243
130.0000	232.366
130.5000	232.477
131.0000	232.615
131.5000	232.771
132.0000	232.901
132.5000	233.014
133.0000	233.094
133.5000	233.19
134.0000	233.311
134.5000	233.437
135.0000	233.596
135.5000	233.783
136.0000	233.916
136.5000	234.051
137.0000	234.13
137.5000	234.201
138.0000	234.298
138.5000	234.418
139.0000	234.539
139.5000	234.631
140.0000	234.736
140.5000	234.844
141.0000	234.958
141.5000	235.079
142.0000	235.183
142.5000	235.305
143.0000	235.45
143.5000	235.551
144.0000	235.627
144.5000	235.724
145.0000	235.844
145.5000	235.923
146.0000	236.109
146.5000	236.239
147.0000	236.38
147.5000	236.516
148.0000	236.633
148.5000	236.769
149.0000	236.817
149.5000	236.979
150.0000	237.022
150.5000	237.065
151.0000	237.179
151.5000	237.326
152.0000	237.488
152.5000	237.651
153.0000	237.725
153.5000	237.785
154.0000	237.943
154.5000	238.036
155.0000	238.233
155.5000	238.393
156.0000	238.448
156.5000	238.569
157.0000	238.72
157.5000	238.738
158.0000	238.889
158.5000	239.023
159.0000	239.029
159.5000	239.169
160.0000	239.276
160.5000	239.34
161.0000	239.457
161.5000	239.559
162.0000	239.643
162.5000	239.724
163.0000	239.897
163.5000	240.006
164.0000	240.147
164.5000	240.312
165.0000	240.37
165.5000	240.462
166.0000	240.571
166.5000	240.64
167.0000	240.773
167.5000	240.908
168.0000	240.959
168.5000	241.068
169.0000	241.134
169.5000	241.244
170.0000	241.404
170.5000	241.553
171.0000	241.695
171.5000	241.77
172.0000	241.836
172.5000	241.958
173.0000	242.05
173.5000	242.209
174.0000	242.343
174.5000	242.478
175.0000	242.594
175.5000	242.687
176.0000	242.775
176.5000	242.848
177.0000	242.966
177.5000	243.113
178.0000	243.225
178.5000	243.278
179.0000	243.391
179.5000	243.482
180.0000	243.576
180.5000	243.705
181.0000	243.821
181.5000	243.885
182.0000	244.02
182.5000	244.134
183.0000	244.224
183.5000	244.359
184.0000	244.415
184.5000	244.552
185.0000	244.637
185.5000	244.758
186.0000	244.971
186.5000	245.042
187.0000	245.194
187.5000	245.254
188.0000	245.296
188.5000	245.417
189.0000	245.47
189.5000	245.587
190.0000	245.735
190.5000	245.824
191.0000	245.971
191.5000	246.125
192.0000	246.189
192.5000	246.286
193.0000	246.401
193.5000	246.464
194.0000	246.589
194.5000	246.658
195.0000	246.711
195.5000	246.851
196.0000	246.921
196.5000	247.123
197.0000	247.267
197.5000	247.35
198.0000	247.431
198.5000	247.545
199.0000	247.603
199.5000	247.691
200.0000	247.82
200.5000	247.86
201.0000	247.994
201.5000	248.118
202.0000	248.216
202.5000	248.302
203.0000	248.407
203.5000	248.497
204.0000	248.589
204.5000	248.726
205.0000	248.866
205.5000	248.948
206.0000	249.063
206.5000	249.183
207.0000	249.242
207.5000	249.396
208.0000	249.502
208.5000	249.543
209.0000	249.646
209.5000	249.718
210.0000	249.82
210.5000	249.955
211.0000	250.013
211.5000	250.099
212.0000	250.208
212.5000	250.277
213.0000	250.408
213.5000	250.549
214.0000	250.627
214.5000	250.782
215.0000	250.899
215.5000	250.951
216.0000	251.083
216.5000	251.182
217.0000	251.296
217.5000	251.46
218.0000	251.538
218.5000	251.662
219.0000	251.763
219.5000	251.82
220.0000	251.913
220.5000	251.963
221.0000	252.046
221.5000	252.183
222.0000	252.273
222.5000	252.359
223.0000	252.471
223.5000	252.588
224.0000	252.741
224.5000	252.822
225.0000	252.899
225.5000	252.99
226.0000	253.069
226.5000	253.198
227.0000	253.304
227.5000	253.325
228.0000	253.45
228.5000	253.598
229.0000	253.703
229.5000	253.837
230.0000	253.881
230.5000	253.886
231.0000	254.012
231.5000	254.103
232.0000	254.184
232.5000	254.378
233.0000	254.416
233.5000	254.536
234.0000	254.676
234.5000	254.74
235.0000	254.816
235.5000	254.897
236.0000	254.964
236.5000	255.107
237.0000	255.248
237.5000	255.33
238.0000	255.458
238.5000	255.498
239.0000	255.563
239.5000	255.642
240.0000	255.743
240.5000	255.853
241.0000	256.025
241.5000	256.104
242.0000	256.196
242.5000	256.26
243.0000	256.337
243.5000	256.465
244.0000	256.529
244.5000	256.609
245.0000	256.666
245.5000	256.78
246.0000	256.897
246.5000	256.975
247.0000	257.138
247.5000	257.185
248.0000	257.278
248.5000	257.394
249.0000	257.394
249.5000	257.54
250.0000	257.637
250.5000	257.769
251.0000	257.914
251.5000	257.966
252.0000	258.085
252.5000	258.163
253.0000	258.234
253.5000	258.371
254.0000	258.466
254.5000	258.536
255.0000	258.624
255.5000	258.73
256.0000	258.856
256.5000	258.956
257.0000	259.038
257.5000	259.053
258.0000	259.059
258.5000	259.184
259.0000	259.239
259.5000	259.346
260.0000	259.46
260.5000	259.536
261.0000	259.661
261.5000	259.783
262.0000	259.898
262.5000	260.006
263.0000	260.114
263.5000	260.178
264.0000	260.278
264.5000	260.371
265.0000	260.437
265.5000	260.556
266.0000	260.599
266.5000	260.673
267.0000	260.828
267.5000	260.909
268.0000	261.042
268.5000	261.132
269.0000	261.182
269.5000	261.347
270.0000	261.381
270.5000	261.518
271.0000	261.6
271.5000	261.631
272.0000	261.787
272.5000	261.864
273.0000	261.971
273.5000	262.09
274.0000	262.145
274.5000	262.222
275.0000	262.363
275.5000	262.488
276.0000	262.588
276.5000	262.672
277.0000	262.765
277.5000	262.823
278.0000	262.955
278.5000	263.047
279.0000	263.111
279.5000	263.2
280.0000	263.246
280.5000	263.408
281.0000	263.437
281.5000	263.515
282.0000	263.604
282.5000	263.569
283.0000	263.719
283.5000	263.788
284.0000	263.878
284.5000	264.063
285.0000	264.159
285.5000	264.267
286.0000	264.405
286.5000	264.473
287.0000	264.55
287.5000	264.64
288.0000	264.709
288.5000	264.772
289.0000	264.853
289.5000	264.943
290.0000	265.039
290.5000	265.152
291.0000	265.228
291.5000	265.292
292.0000	265.403
292.5000	265.506
293.0000	265.617
293.5000	265.697
294.0000	265.736
294.5000	265.797
295.0000	265.886
295.5000	265.955
296.0000	266.022
296.5000	266.151
297.0000	266.21
297.5000	266.368
298.0000	266.5
298.5000	266.536
299.0000	266.658
299.5000	266.699
300.0000	266.79
300.5000	266.86
301.0000	267.003
301.5000	267.134
302.0000	267.189
302.5000	267.272
303.0000	267.378
303.5000	267.439
304.0000	267.553
304.5000	267.689
305.0000	267.721
305.5000	267.79
306.0000	267.863
306.5000	267.99
307.0000	268.161
307.5000	268.286
308.0000	268.398
308.5000	268.452
309.0000	268.428
309.5000	268.508
310.0000	268.597
310.5000	268.718
311.0000	268.827
311.5000	268.902
312.0000	268.939
312.5000	268.992
313.0000	269.113
313.5000	269.256
314.0000	269.402
314.5000	269.439
315.0000	269.489
315.5000	269.523
316.0000	269.572
316.5000	269.656
317.0000	269.764
317.5000	269.85
318.0000	269.973
318.5000	270.062
319.0000	270.145
319.5000	270.275
320.0000	270.29
320.5000	270.431
321.0000	270.49
321.5000	270.548
322.0000	270.721
322.5000	270.773
323.0000	270.897
323.5000	270.99
324.0000	271.033
324.5000	271.148
325.0000	271.19
325.5000	271.328
326.0000	271.435
326.5000	271.49
327.0000	271.581
327.5000	271.611
328.0000	271.674
328.5000	271.784
329.0000	271.882
329.5000	271.965
330.0000	272.07
330.5000	272.167
331.0000	272.191
331.5000	272.263
332.0000	272.377
332.5000	272.43
333.0000	272.588
333.5000	272.713
334.0000	272.756
334.5000	272.849
335.0000	272.888
335.5000	272.976
336.0000	273.104
336.5000	273.208
337.0000	273.316
337.5000	273.391
338.0000	273.442
338.5000	273.525
339.0000	273.634
339.5000	273.651
340.0000	273.712
340.5000	273.769
341.0000	273.808
341.5000	273.929
342.0000	274.049
342.5000	274.166
343.0000	274.251
343.5000	274.343
344.0000	274.404
344.5000	274.419
345.0000	274.511
345.5000	274.595
346.0000	274.685
346.5000	274.868
347.0000	274.986
347.5000	275.1
348.0000	275.138
348.5000	275.186
349.0000	275.218
349.5000	275.319
350.0000	275.468
350.5000	275.621
351.0000	275.716
351.5000	275.707
352.0000	275.764
352.5000	275.825
353.0000	275.916
353.5000	276.011
354.0000	276.064
354.5000	276.084
355.0000	276.18
355.5000	276.263
356.0000	276.347
356.5000	276.458
357.0000	276.572
357.5000	276.693
358.0000	276.824
358.5000	276.959
359.0000	276.952
359.5000	276.984
360.0000	277.039
360.5000	277.05
361.0000	277.205
361.5000	277.323
362.0000	277.413
362.5000	277.502
363.0000	277.587
363.5000	277.689
364.0000	277.727
364.5000	277.802
365.0000	277.852
365.5000	277.889
366.0000	278.067
366.5000	278.228
367.0000	278.287
367.5000	278.426
368.0000	278.525
368.5000	278.506
369.0000	278.622
369.5000	278.711
370.0000	278.76
370.5000	278.841
371.0000	278.914
371.5000	279.013
372.0000	279.06
372.5000	279.21
373.0000	279.27
373.5000	279.329
374.0000	279.374
374.5000	279.43
375.0000	279.528
375.5000	279.617
376.0000	279.744
376.5000	279.813
377.0000	279.92
377.5000	279.969
378.0000	280.066
378.5000	280.204
379.0000	280.273
379.5000	280.336
380.0000	280.417
380.5000	280.439
381.0000	280.545
381.5000	280.685
382.0000	280.773
382.5000	280.85
383.0000	280.91
383.5000	280.958
384.0000	281.028
384.5000	281.131
385.0000	281.223
385.5000	281.272
386.0000	281.321
386.5000	281.368
387.0000	281.465
387.5000	281.573
388.0000	281.641
388.5000	281.704
389.0000	281.791
389.5000	281.892
390.0000	282.033
390.5000	282.181
391.0000	282.247
391.5000	282.346
392.0000	282.437
392.5000	282.501
393.0000	282.548
393.5000	282.625
394.0000	282.67
394.5000	282.731
395.0000	282.892
395.5000	282.951
396.0000	283.038
396.5000	283.135
397.0000	283.176
397.5000	283.262
398.0000	283.376
398.5000	283.447
399.0000	283.518
399.5000	283.56
400.0000	283.609
400.5000	283.729
401.0000	283.845
401.5000	283.962
402.0000	284.08
402.5000	284.158
403.0000	284.245
403.5000	284.33
404.0000	284.394
404.5000	284.507
405.0000	284.564
405.5000	284.672
406.0000	284.725
406.5000	284.811
407.0000	284.916
407.5000	285.029
408.0000	285.155
408.5000	285.212
409.0000	285.295
409.5000	285.347
410.0000	285.392
410.5000	285.42
411.0000	285.459
411.5000	285.525
412.0000	285.628
412.5000	285.685
413.0000	285.801
413.5000	285.897
414.0000	285.96
414.5000	286.117
415.0000	286.194
415.5000	286.275
416.0000	286.384
416.5000	286.499
417.0000	286.563
417.5000	286.664
418.0000	286.716
418.5000	286.714
419.0000	286.843
419.5000	286.839
420.0000	286.971
420.5000	287.088
421.0000	287.142
421.5000	287.272
422.0000	287.365
422.5000	287.428
423.0000	287.518
423.5000	287.656
424.0000	287.727
424.5000	287.839
425.0000	287.941
425.5000	287.995
426.0000	288.073
426.5000	288.175
427.0000	288.237
427.5000	288.264
428.0000	288.315
428.5000	288.386
429.0000	288.444
429.5000	288.608
430.0000	288.753
430.5000	288.815
431.0000	288.936
431.5000	289.041
432.0000	289.087
432.5000	289.164
433.0000	289.259
433.5000	289.325
434.0000	289.436
434.5000	289.569
435.0000	289.587
435.5000	289.691
436.0000	289.775
436.5000	289.838
437.0000	289.98
437.5000	289.988
438.0000	290.061
438.5000	290.126
439.0000	290.159
439.5000	290.28
440.0000	290.393
440.5000	290.516
441.0000	290.618
441.5000	290.72
442.0000	290.767
442.5000	290.811
443.0000	290.943
443.5000	290.994
444.0000	291.077
444.5000	291.242
445.0000	291.377
445.5000	291.52
446.0000	291.648
446.5000	291.688
447.0000	291.763
447.5000	291.871
448.0000	291.936
448.5000	292.022
449.0000	292.113
449.5000	292.189
450.0000	292.26
450.5000	292.347
451.0000	292.404
451.5000	292.483
452.0000	292.615
452.5000	292.725
453.0000	292.824
453.5000	292.88
454.0000	292.969
454.5000	293.037
455.0000	293.104
455.5000	293.172
456.0000	293.262
456.5000	293.41
457.0000	293.499
457.5000	293.697
458.0000	293.82
458.5000	293.888
459.0000	293.978
459.5000	293.985
460.0000	294.067
460.5000	294.186
461.0000	294.311
461.5000	294.455
462.0000	294.501
462.5000	294.591
463.0000	294.699
463.5000	294.77
464.0000	294.897
464.5000	294.964
465.0000	295.1
465.5000	295.217
466.0000	295.335
466.5000	295.486
467.0000	295.609
467.5000	295.717
468.0000	295.826
468.5000	295.916
469.0000	295.855
469.5000	295.956
470.0000	296.088
470.5000	296.157
471.0000	296.371
471.5000	296.51
472.0000	296.525
472.5000	296.609
473.0000	296.693
473.5000	296.757
474.0000	296.922
474.5000	297.044
475.0000	297.159
475.5000	297.263
476.0000	297.404
476.5000	297.51
477.0000	297.658
477.5000	297.799
478.0000	297.871
478.5000	297.999
479.0000	298.077
479.5000	298.168
480.0000	298.258
480.5000	298.381
481.0000	298.528
481.5000	298.666
482.0000	298.832
482.5000	299.005
483.0000	299.057
483.5000	299.229
484.0000	299.311
484.5000	299.39
485.0000	299.52
485.5000	299.582
486.0000	299.722
486.5000	299.815
487.0000	299.991
487.5000	300.073
488.0000	300.184
488.5000	300.328
489.0000	300.453
489.5000	300.568
490.0000	300.704
490.5000	300.808
491.0000	300.909
491.5000	301.087
492.0000	301.195
492.5000	301.377
493.0000	301.633
493.5000	301.805
494.0000	301.964
494.5000	302.084
495.0000	302.128
495.5000	302.229
496.0000	302.384
496.5000	302.523
497.0000	302.637
497.5000	302.881
498.0000	302.99
498.5000	303.136
499.0000	303.283
499.5000	303.316
500.0000	303.442
500.5000	303.586
501.0000	303.743
501.5000	303.917
502.0000	304.144
502.5000	304.291
503.0000	304.488
503.5000	304.609
504.0000	304.733
504.5000	304.876
505.0000	304.88
505.5000	305.106
506.0000	305.261
506.5000	305.375
507.0000	305.615
507.5000	305.719
508.0000	305.858
508.5000	306.079
509.0000	306.246
509.5000	306.396
510.0000	306.574
510.5000	306.724
511.0000	306.878
511.5000	307.016
512.0000	307.157
512.5000	307.333
513.0000	307.516
513.5000	307.752
514.0000	307.915
514.5000	308.019
515.0000	308.208
515.5000	308.352
516.0000	308.493
516.5000	308.721
517.0000	308.917
517.5000	309.056
518.0000	309.245
518.5000	309.428
519.0000	309.535
519.5000	309.775
520.0000	309.974
520.5000	310.114
521.0000	310.302
521.5000	310.425
522.0000	310.619
522.5000	310.816
523.0000	310.976
523.5000	311.113
524.0000	311.238
524.5000	311.43
525.0000	311.632
525.5000	311.912
526.0000	312.146
526.5000	312.307
527.0000	312.528
527.5000	312.65
528.0000	312.814
528.5000	313.008
529.0000	313.141
529.5000	313.351
530.0000	313.523
530.5000	313.748
531.0000	313.941
531.5000	314.133
532.0000	314.315
532.5000	314.499
533.0000	314.663
533.5000	314.8
534.0000	315.025
534.5000	315.147
535.0000	315.354
535.5000	315.562
536.0000	315.768
536.5000	315.98
537.0000	316.145
537.5000	316.365
538.0000	316.51
538.5000	316.693
539.0000	316.892
539.5000	316.984
540.0000	317.2
540.5000	317.389
541.0000	317.579
541.5000	317.841
542.0000	318.067
542.5000	318.277
543.0000	318.431
543.5000	318.618
544.0000	318.764
544.5000	318.941
545.0000	319.173
545.5000	319.322
546.0000	319.505
546.5000	319.662
547.0000	319.832
547.5000	320.037
548.0000	320.177
548.5000	320.326
549.0000	320.553
549.5000	320.697
550.0000	320.854
550.5000	321.104
551.0000	321.257
551.5000	321.49
552.0000	321.72
552.5000	321.901
553.0000	322.08
553.5000	322.31
554.0000	322.53
554.5000	322.689
555.0000	322.824
555.5000	322.917
556.0000	323.048
556.5000	323.177
557.0000	323.387
557.5000	323.635
558.0000	323.844
558.5000	324.083
559.0000	324.265
559.5000	324.341
560.0000	324.528
560.5000	324.741
561.0000	324.877
561.5000	325.076
562.0000	325.248
562.5000	325.307
563.0000	325.523
563.5000	325.703
564.0000	325.826
564.5000	326.048
565.0000	326.204
565.5000	326.38
566.0000	326.625
566.5000	326.769
567.0000	326.94
567.5000	327.064
568.0000	327.085
568.5000	327.285
569.0000	327.442
569.5000	327.616
570.0000	327.846
570.5000	328.01
571.0000	328.142
571.5000	328.295
572.0000	328.482
572.5000	328.591
573.0000	328.718
573.5000	328.849
574.0000	328.971
574.5000	329.136
575.0000	329.352
575.5000	329.55
576.0000	329.626
576.5000	329.738
577.0000	329.91
577.5000	329.978
578.0000	330.184
578.5000	330.331
579.0000	330.398
579.5000	330.606
580.0000	330.672
580.5000	330.838
581.0000	330.981
581.5000	331.101
582.0000	331.251
582.5000	331.327
583.0000	331.453
583.5000	331.552
584.0000	331.72
584.5000	331.857
585.0000	332.003
585.5000	332.205
586.0000	332.313
586.5000	332.437
587.0000	332.539
587.5000	332.605
588.0000	332.674
588.5000	332.804
589.0000	332.891
589.5000	333.05
590.0000	333.194
590.5000	333.31
591.0000	333.409
591.5000	333.423
592.0000	333.575
592.5000	333.713
593.0000	333.845
593.5000	333.995
594.0000	334.02
594.5000	334.112
595.0000	334.25
595.5000	334.388
596.0000	334.517
596.5000	334.598
597.0000	334.64
597.5000	334.713
598.0000	334.904
598.5000	334.994
599.0000	335.049
599.5000	335.182
600.0000	335.266
600.5000	335.384
601.0000	335.532
601.5000	335.615
602.0000	335.663
602.5000	335.77
603.0000	335.91
603.5000	335.965
604.0000	336.09
604.5000	336.175
605.0000	336.238
605.5000	336.352
606.0000	336.44
606.5000	336.526
607.0000	336.661
607.5000	336.758
608.0000	336.836
608.5000	336.91
609.0000	336.924
609.5000	336.984
610.0000	337.158
610.5000	337.283
611.0000	337.416
611.5000	337.54
612.0000	337.56
612.5000	337.576
613.0000	337.706
613.5000	337.779
614.0000	337.883
614.5000	338.056
615.0000	338.061
615.5000	338.165
616.0000	338.237
616.5000	338.285
617.0000	338.444
617.5000	338.533
618.0000	338.622
618.5000	338.751
619.0000	338.819
619.5000	338.924
620.0000	338.962
620.5000	339.003
621.0000	339.096
621.5000	339.207
622.0000	339.303
622.5000	339.384
623.0000	339.485
623.5000	339.543
624.0000	339.629
624.5000	339.729
625.0000	339.834
625.5000	339.935
626.0000	340.035
626.5000	340.099
627.0000	340.152
627.5000	340.237
628.0000	340.309
628.5000	340.405
629.0000	340.503
629.5000	340.548
630.0000	340.648
630.5000	340.755
631.0000	340.826
631.5000	340.918
632.0000	341.036
632.5000	341.125
633.0000	341.254
633.5000	341.346
634.0000	341.461
634.5000	341.561
635.0000	341.576
635.5000	341.591
636.0000	341.643
636.5000	341.696
637.0000	341.831
637.5000	341.95
638.0000	342.027
638.5000	342.154
639.0000	342.126
639.5000	342.237
640.0000	342.351
640.5000	342.405
641.0000	342.613
641.5000	342.672
642.0000	342.72
642.5000	342.813
643.0000	342.825
643.5000	342.918
644.0000	343.001
644.5000	343.069
645.0000	343.187
645.5000	343.305
646.0000	343.443
646.5000	343.565
647.0000	343.671
647.5000	343.67
648.0000	343.712
648.5000	343.775
649.0000	343.891
649.5000	344.065
650.0000	344.17
650.5000	344.268
651.0000	344.314
651.5000	344.355
652.0000	344.404
652.5000	344.543
653.0000	344.527
653.5000	344.649
654.0000	344.732
654.5000	344.717
655.0000	344.848
655.5000	344.938
656.0000	344.995
656.5000	345.094
657.0000	345.213
657.5000	345.262
658.0000	345.303
658.5000	345.37
659.0000	345.454
659.5000	345.523
660.0000	345.712
660.5000	345.804
661.0000	345.861
661.5000	346.016
662.0000	346.026
662.5000	346.085
663.0000	346.15
663.5000	346.227
664.0000	346.427
664.5000	346.483
665.0000	346.617
665.5000	346.722
666.0000	346.681
666.5000	346.791
667.0000	346.847
667.5000	346.811
668.0000	346.913
668.5000	347.032
669.0000	347.209
669.5000	347.375
670.0000	347.425
670.5000	347.483
671.0000	347.488
671.5000	347.474
672.0000	347.58
672.5000	347.738
673.0000	347.849
673.5000	347.984
674.0000	348.139
674.5000	348.163
675.0000	348.224
675.5000	348.314
676.0000	348.301
676.5000	348.379
677.0000	348.455
677.5000	348.566
678.0000	348.762
678.5000	348.857
679.0000	348.953
679.5000	349.03
680.0000	349.125
680.5000	349.245
681.0000	349.37
681.5000	349.444
682.0000	349.473
682.5000	349.537
683.0000	349.583
683.5000	349.677
684.0000	349.758
684.5000	349.918
685.0000	349.984
685.5000	350.082
686.0000	350.237
686.5000	350.309
687.0000	350.487
687.5000	350.589
688.0000	350.619
688.5000	350.681
689.0000	350.766
689.5000	350.837
690.0000	350.93
690.5000	350.974
691.0000	351.071
691.5000	351.174
692.0000	351.302
692.5000	351.404
693.0000	351.442
693.5000	351.578
694.0000	351.685
694.5000	351.818
695.0000	352.028
695.5000	352.077
696.0000	352.15
696.5000	352.256
697.0000	352.218
697.5000	352.405
698.0000	352.52
698.5000	352.631
699.0000	352.747
699.5000	352.776
700.0000	352.799
700.5000	352.91
701.0000	353.009
701.5000	353.143
702.0000	353.345
702.5000	353.348
703.0000	353.536
703.5000	353.618
704.0000	353.658
704.5000	353.825
705.0000	353.843
705.5000	353.984
706.0000	354.086
706.5000	354.181
707.0000	354.31
707.5000	354.312
708.0000	354.43
708.5000	354.521
709.0000	354.534
709.5000	354.649
710.0000	354.692
710.5000	354.701
711.0000	354.804
711.5000	354.863
712.0000	354.96
712.5000	355.157
713.0000	355.282
713.5000	355.369
714.0000	355.49
714.5000	355.616
715.0000	355.713
715.5000	355.796
716.0000	355.892
716.5000	355.927
717.0000	356.003
717.5000	356.126
718.0000	356.193
718.5000	356.234
719.0000	356.345
719.5000	356.433
720.0000	356.456
720.5000	356.592
721.0000	356.673
721.5000	356.671
722.0000	356.85
722.5000	356.837
723.0000	356.897
723.5000	357.117
724.0000	357.184
724.5000	357.352
725.0000	357.461
725.5000	357.541
726.0000	357.56
726.5000	357.575
727.0000	357.61
727.5000	357.615
728.0000	357.728
728.5000	357.83
729.0000	357.934
729.5000	358.049
730.0000	358.177
730.5000	358.239
731.0000	358.312
731.5000	358.381
732.0000	358.39
732.5000	358.474
733.0000	358.645
733.5000	358.704
734.0000	358.785
734.5000	358.868
735.0000	358.827
735.5000	358.926
736.0000	358.996
736.5000	359.14
737.0000	359.173
737.5000	359.209
738.0000	359.309
738.5000	359.251
739.0000	359.416
739.5000	359.486
740.0000	359.585
740.5000	359.73
741.0000	359.752
741.5000	359.809
742.0000	359.84
742.5000	359.995
743.0000	360.006
743.5000	360.125
744.0000	360.145
744.5000	360.153
745.0000	360.31
745.5000	360.361
746.0000	360.489
746.5000	360.494
747.0000	360.513
747.5000	360.513
748.0000	360.584
748.5000	360.697
749.0000	360.852
749.5000	360.975
750.0000	361.048
750.5000	361.158
751.0000	361.128
751.5000	361.208
752.0000	361.268
752.5000	361.241
753.0000	361.406
753.5000	361.481
754.0000	361.504
754.5000	361.558
755.0000	361.57
755.5000	361.59
756.0000	361.625
756.5000	361.742
757.0000	361.816
757.5000	361.879
758.0000	361.999
758.5000	362.006
759.0000	362.025
759.5000	362.105
760.0000	362.135
760.5000	362.255
761.0000	362.33
761.5000	362.431
762.0000	362.557
762.5000	362.649
763.0000	362.718
763.5000	362.732
764.0000	362.763
764.5000	362.811
765.0000	362.894
765.5000	363.041
766.0000	363.121
766.5000	363.207
767.0000	363.226
767.5000	363.226
768.0000	363.232
768.5000	363.224
769.0000	363.332
769.5000	363.399
770.0000	363.501
770.5000	363.649
771.0000	363.731
771.5000	363.772
772.0000	363.851
772.5000	363.833
773.0000	363.867
773.5000	363.956
774.0000	364.011
774.5000	364.124
775.0000	364.205
775.5000	364.21
776.0000	364.301
776.5000	364.297
777.0000	364.292
777.5000	364.347
778.0000	364.369
778.5000	364.523
779.0000	364.602
779.5000	364.743
780.0000	364.834
780.5000	364.792
781.0000	364.956
781.5000	364.981
782.0000	365.083
782.5000	365.26
783.0000	365.229
783.5000	365.252
784.0000	365.262
784.5000	365.295
785.0000	365.401
785.5000	365.581
786.0000	365.604
786.5000	365.67
787.0000	365.672
787.5000	365.678
788.0000	365.764
788.5000	365.783
789.0000	365.848
789.5000	365.815
790.0000	365.818
790.5000	365.904
791.0000	366.02
791.5000	366.197
792.0000	366.321
792.5000	366.346
793.0000	366.466
793.5000	366.495
794.0000	366.49
794.5000	366.531
795.0000	366.473
795.5000	366.54
796.0000	366.708
796.5000	366.834
797.0000	366.932
797.5000	366.918
798.0000	366.912
798.5000	366.939
799.0000	367.049
799.5000	367.186
800.0000	367.253
800.5000	367.323
801.0000	367.322
801.5000	367.389
802.0000	367.462
802.5000	367.533
803.0000	367.594
803.5000	367.661
804.0000	367.686
804.5000	367.706
805.0000	367.75
805.5000	367.851
806.0000	367.968
806.5000	368.07
807.0000	368.202
807.5000	368.21
808.0000	368.216
808.5000	368.254
809.0000	368.287
809.5000	368.315
810.0000	368.437
810.5000	368.497
811.0000	368.544
811.5000	368.704
812.0000	368.808
812.5000	368.915
813.0000	369.086
813.5000	369.147
814.0000	369.196
814.5000	369.178
815.0000	369.136
815.5000	369.151
816.0000	369.202
816.5000	369.277
817.0000	369.377
817.5000	369.383
818.0000	369.401
818.5000	369.447
819.0000	369.477
819.5000	369.523
820.0000	369.508
820.5000	369.658
821.0000	369.677
821.5000	369.84
822.0000	369.89
822.5000	369.961
823.0000	370.036
823.5000	370.031
824.0000	370.149
824.5000	370.12
825.0000	370.113
825.5000	370.161
826.0000	370.247
826.5000	370.379
827.0000	370.426
827.5000	370.485
828.0000	370.467
828.5000	370.407
829.0000	370.52
829.5000	370.585
830.0000	370.674
830.5000	370.834
831.0000	370.871
831.5000	370.891
832.0000	370.999
832.5000	370.997
833.0000	371.073
833.5000	371.17
834.0000	371.203
834.5000	371.236
835.0000	371.272
835.5000	371.319
836.0000	371.388
836.5000	371.497
837.0000	371.57
837.5000	371.639
838.0000	371.666
838.5000	371.706
839.0000	371.764
839.5000	371.765
840.0000	371.868
840.5000	371.933
841.0000	371.971
841.5000	372.126
842.0000	372.084
842.5000	372.033
843.0000	372.095
843.5000	372.112
844.0000	372.208
844.5000	372.351
845.0000	372.406
845.5000	372.432
846.0000	372.468
846.5000	372.522
847.0000	372.54
847.5000	372.608
848.0000	372.68
848.5000	372.762
849.0000	372.857
849.5000	372.902
850.0000	372.938
850.5000	372.905
851.0000	373.008
851.5000	373.103
852.0000	373.23
852.5000	373.4
853.0000	373.463
853.5000	373.44
854.0000	373.387
854.5000	373.426
855.0000	373.39
855.5000	373.454
856.0000	373.473
856.5000	373.452
857.0000	373.555
857.5000	373.672
858.0000	373.791
858.5000	373.876
859.0000	373.919
859.5000	373.889
860.0000	373.953
860.5000	373.957
861.0000	374.024
861.5000	374.167
862.0000	374.267
862.5000	374.333
863.0000	374.324
863.5000	374.305
864.0000	374.338
864.5000	374.382
865.0000	374.542
865.5000	374.64
866.0000	374.655
866.5000	374.689
867.0000	374.699
867.5000	374.715
868.0000	374.793
868.5000	374.887
869.0000	374.929
869.5000	374.979
870.0000	375.054
870.5000	375.064
871.0000	375.157
871.5000	375.233
872.0000	375.259
872.5000	375.383
873.0000	375.435
873.5000	375.486
874.0000	375.575
874.5000	375.553
875.0000	375.524
875.5000	375.611
876.0000	375.615
876.5000	375.718
877.0000	375.758
877.5000	375.767
878.0000	375.811
878.5000	375.823
879.0000	375.893
879.5000	376.023
880.0000	376.139
880.5000	376.163
881.0000	376.265
881.5000	376.27
882.0000	376.33
882.5000	376.433
883.0000	376.479
883.5000	376.548
884.0000	376.529
884.5000	376.563
885.0000	376.582
885.5000	376.626
886.0000	376.7
886.5000	376.807
887.0000	376.881
887.5000	376.827
888.0000	376.862
888.5000	376.864
889.0000	376.878
889.5000	376.959
890.0000	376.998
890.5000	376.951
891.0000	377.009
891.5000	377.104
892.0000	377.172
892.5000	377.35
893.0000	377.408
893.5000	377.459
894.0000	377.607
894.5000	377.613
895.0000	377.681
895.5000	377.664
896.0000	377.673
896.5000	377.83
897.0000	377.822
897.5000	377.912
898.0000	377.933
898.5000	377.91
899.0000	378.033
899.5000	378.036
900.0000	378.096
900.5000	378.108
901.0000	378.102
901.5000	378.141
902.0000	378.133
902.5000	378.249
903.0000	378.32
903.5000	378.394
904.0000	378.405
904.5000	378.475
905.0000	378.561
905.5000	378.634
906.0000	378.668
906.5000	378.675
907.0000	378.701
907.5000	378.795
908.0000	378.927
908.5000	378.965
909.0000	379.029
909.5000	379.06
910.0000	379.075
910.5000	379.069
911.0000	379.113
911.5000	379.176
912.0000	379.228
912.5000	379.369
913.0000	379.378
913.5000	379.437
914.0000	379.431
914.5000	379.416
915.0000	379.433
915.5000	379.425
916.0000	379.565
916.5000	379.619
917.0000	379.686
917.5000	379.715
918.0000	379.78
918.5000	379.817
919.0000	379.841
919.5000	379.911
920.0000	379.925
920.5000	380.021
921.0000	380.028
921.5000	380.078
922.0000	380.118
922.5000	380.135
923.0000	380.259
923.5000	380.347
924.0000	380.383
924.5000	380.478
925.0000	380.524
925.5000	380.513
926.0000	380.477
926.5000	380.493
927.0000	380.533
927.5000	380.513
928.0000	380.647
928.5000	380.622
929.0000	380.659
929.5000	380.774
930.0000	380.767
930.5000	380.841
931.0000	380.939
931.5000	381.027
932.0000	381.164
932.5000	381.194
933.0000	381.188
933.5000	381.16
934.0000	381.127
934.5000	381.152
935.0000	381.225
935.5000	381.337
936.0000	381.419
936.5000	381.556
937.0000	381.538
937.5000	381.568
938.0000	381.592
938.5000	381.633
939.0000	381.7
939.5000	381.75
940.0000	381.772
940.5000	381.834
941.0000	381.949
941.5000	381.977
942.0000	382.065
942.5000	382.019
943.0000	382.054
943.5000	382.159
944.0000	382.232
944.5000	382.282
945.0000	382.277
945.5000	382.293
946.0000	382.302
946.5000	382.401
947.0000	382.566
947.5000	382.559
948.0000	382.533
948.5000	382.591
949.0000	382.551
949.5000	382.613
950.0000	382.787
950.5000	382.856
951.0000	382.926
951.5000	383.002
952.0000	383.008
952.5000	382.954
953.0000	382.994
953.5000	382.956
954.0000	383.021
954.5000	383.143
955.0000	383.171
955.5000	383.297
956.0000	383.28
956.5000	383.29
957.0000	383.347
957.5000	383.388
958.0000	383.5
958.5000	383.591
959.0000	383.622
959.5000	383.69
960.0000	383.718
960.5000	383.789
961.0000	383.84
961.5000	383.857
962.0000	383.891
962.5000	383.882
963.0000	383.972
963.5000	384.075
964.0000	384.114
964.5000	384.205
965.0000	384.244
965.5000	384.257
966.0000	384.37
966.5000	384.376
967.0000	384.434
967.5000	384.481
968.0000	384.483
968.5000	384.545
969.0000	384.532
969.5000	384.564
970.0000	384.638
970.5000	384.698
971.0000	384.76
971.5000	384.78
972.0000	384.769
972.5000	384.855
973.0000	384.903
973.5000	384.998
974.0000	385.105
974.5000	385.098
975.0000	385.202
975.5000	385.19
976.0000	385.2
976.5000	385.272
977.0000	385.318
977.5000	385.407
978.0000	385.454
978.5000	385.476
979.0000	385.548
979.5000	385.631
980.0000	385.675
980.5000	385.812
981.0000	385.806
981.5000	385.897
982.0000	385.996
982.5000	386.039
983.0000	386.156
983.5000	386.196
984.0000	386.207
984.5000	386.192
985.0000	386.145
985.5000	386.201
986.0000	386.247
986.5000	386.349
987.0000	386.511
987.5000	386.483
988.0000	386.569
988.5000	386.59
989.0000	386.613
989.5000	386.727
990.0000	386.81
990.5000	386.82
991.0000	386.769
991.5000	386.828
992.0000	386.76
992.5000	386.87
993.0000	386.954
993.5000	386.947
994.0000	387.016
994.5000	387.01
995.0000	387.095
995.5000	387.146
996.0000	387.343
996.5000	387.414
997.0000	387.42
997.5000	387.536
998.0000	387.473
998.5000	387.533
999.0000	387.602
999.5000	387.57
1000.0000	387.638
1000.5000	387.743
1001.0000	387.779
1001.5000	387.827
1002.0000	387.855
1002.5000	387.849
1003.0000	387.89
1003.5000	387.923
1004.0000	387.966
1004.5000	387.983
1005.0000	388.065
1005.5000	388.168
1006.0000	388.243
1006.5000	388.276
1007.0000	388.269
1007.5000	388.244
1008.0000	388.308
1008.5000	388.464
1009.0000	388.507
1009.5000	388.556
1010.0000	388.528
1010.5000	388.535
1011.0000	388.609
1011.5000	388.659
1012.0000	388.715
1012.5000	388.732
1013.0000	388.766
1013.5000	388.803
1014.0000	388.867
1014.5000	388.836
1015.0000	388.881
1015.5000	388.995
1016.0000	389.069
1016.5000	389.138
1017.0000	389.09
1017.5000	389.056
1018.0000	389.016
1018.5000	389.074
1019.0000	389.226
1019.5000	389.272
1020.0000	389.329
1020.5000	389.394
1021.0000	389.357
1021.5000	389.408
1022.0000	389.557
1022.5000	389.5
1023.0000	389.605
1023.5000	389.685
1024.0000	389.671
1024.5000	389.744
1025.0000	389.847
1025.5000	389.927
1026.0000	389.932
1026.5000	390.053
1027.0000	390.092
1027.5000	390.003
1028.0000	390.039
1028.5000	390.075
1029.0000	390.081
1029.5000	390.178
1030.0000	390.246
1030.5000	390.204
1031.0000	390.243
1031.5000	390.303
1032.0000	390.346
1032.5000	390.471
1033.0000	390.526
1033.5000	390.538
1034.0000	390.535
1034.5000	390.496
1035.0000	390.524
1035.5000	390.629
1036.0000	390.647
1036.5000	390.697
1037.0000	390.693
1037.5000	390.708
1038.0000	390.815
1038.5000	390.921
1039.0000	390.999
1039.5000	390.948
1040.0000	390.973
1040.5000	391.007
1041.0000	391.067
1041.5000	391.134
1042.0000	391.203
1042.5000	391.169
1043.0000	391.126
1043.5000	391.277
1044.0000	391.292
1044.5000	391.384
1045.0000	391.496
1045.5000	391.475
1046.0000	391.509
1046.5000	391.527
1047.0000	391.516
1047.5000	391.494
1048.0000	391.571
1048.5000	391.631
1049.0000	391.652
1049.5000	391.706
1050.0000	391.685
1050.5000	391.675
1051.0000	391.762
1051.5000	391.853
1052.0000	391.915
1052.5000	391.977
1053.0000	391.971
1053.5000	392.003
1054.0000	392.001
1054.5000	392.084
1055.0000	392.129
1055.5000	392.173
1056.0000	392.219
1056.5000	392.241
1057.0000	392.282
1057.5000	392.272
1058.0000	392.319
1058.5000	392.288
1059.0000	392.34
1059.5000	392.312
1060.0000	392.436
1060.5000	392.461
1061.0000	392.488
1061.5000	392.619
1062.0000	392.58
1062.5000	392.66
1063.0000	392.716
1063.5000	392.668
1064.0000	392.752
1064.5000	392.831
1065.0000	392.848
1065.5000	392.962
1066.0000	392.968
1066.5000	393.043
1067.0000	393.051
1067.5000	393.021
1068.0000	393.035
1068.5000	393.112
1069.0000	393.152
1069.5000	393.21
1070.0000	393.252
1070.5000	393.128
1071.0000	393.128
1071.5000	393.212
1072.0000	393.191
1072.5000	393.25
1073.0000	393.298
1073.5000	393.409
1074.0000	393.557
1074.5000	393.615
1075.0000	393.669
1075.5000	393.72
1076.0000	393.721
1076.5000	393.812
1077.0000	393.934
1077.5000	393.873
1078.0000	393.915
1078.5000	393.961
1079.0000	393.906
1079.5000	393.959
1080.0000	393.988
1080.5000	393.994
1081.0000	394.027
1081.5000	394.152
1082.0000	394.23
1082.5000	394.283
1083.0000	394.46
1083.5000	394.372
1084.0000	394.454
1084.5000	394.484
1085.0000	394.446
1085.5000	394.549
1086.0000	394.516
1086.5000	394.496
1087.0000	394.542
1087.5000	394.538
1088.0000	394.543
1088.5000	394.636
1089.0000	394.674
1089.5000	394.762
1090.0000	394.822
1090.5000	394.845
1091.0000	394.832
1091.5000	394.867
1092.0000	394.901
1092.5000	394.82
1093.0000	394.916
1093.5000	394.949
1094.0000	394.98
1094.5000	395.077
1095.0000	395.062
1095.5000	395.029
1096.0000	395.068
1096.5000	395.164
1097.0000	395.234
1097.5000	395.33
1098.0000	395.385
1098.5000	395.379
1099.0000	395.439
1099.5000	395.463
1100.0000	395.502
1100.5000	395.646
1101.0000	395.65
1101.5000	395.673
1102.0000	395.708
1102.5000	395.743
1103.0000	395.763
1103.5000	395.745
1104.0000	395.787
1104.5000	395.768
1105.0000	395.812
1105.5000	395.935
1106.0000	395.939
1106.5000	396.012
1107.0000	396.071
1107.5000	396.111
1108.0000	396.118
1108.5000	396.152
1109.0000	396.213
1109.5000	396.194
1110.0000	396.282
1110.5000	396.276
1111.0000	396.259
1111.5000	396.331
1112.0000	396.388
1112.5000	396.486
1113.0000	396.566
1113.5000	396.679
1114.0000	396.761
1114.5000	396.886
1115.0000	396.86
1115.5000	396.881
1116.0000	396.948
1116.5000	396.825
1117.0000	396.89
1117.5000	396.904
1118.0000	396.854
1118.5000	396.861
1119.0000	396.934
1119.5000	396.931
1120.0000	396.942
1120.5000	396.993
1121.0000	396.981
1121.5000	397.033
1122.0000	397.037
1122.5000	397.124
1123.0000	397.181
1123.5000	397.211
1124.0000	397.26
1124.5000	397.275
1125.0000	397.326
1125.5000	397.344
1126.0000	397.465
1126.5000	397.539
1127.0000	397.611
1127.5000	397.65
1128.0000	397.71
1128.5000	397.712
1129.0000	397.682
1129.5000	397.721
1130.0000	397.734
1130.5000	397.804
1131.0000	397.874
1131.5000	397.905
1132.0000	397.863
1132.5000	397.855
1133.0000	397.901
1133.5000	397.955
1134.0000	398.03
1134.5000	398.041
1135.0000	398.082
1135.5000	398.053
1136.0000	398.066
1136.5000	398.146
1137.0000	398.204
1137.5000	398.265
1138.0000	398.367
1138.5000	398.493
1139.0000	398.424
1139.5000	398.539
1140.0000	398.522
1140.5000	398.533
1141.0000	398.704
1141.5000	398.649
1142.0000	398.729
1142.5000	398.743
1143.0000	398.674
1143.5000	398.766
1144.0000	398.722
1144.5000	398.737
1145.0000	398.874
1145.5000	398.93
1146.0000	399.033
1146.5000	399.015
1147.0000	398.998
1147.5000	399.012
1148.0000	399.061
1148.5000	399.13
1149.0000	399.13
1149.5000	399.172
1150.0000	399.147
1150.5000	399.09
1151.0000	399.164
1151.5000	399.237
1152.0000	399.336
1152.5000	399.51
1153.0000	399.588
1153.5000	399.522
1154.0000	399.564
1154.5000	399.541
1155.0000	399.538
1155.5000	399.657
1156.0000	399.672
1156.5000	399.729
1157.0000	399.783
1157.5000	399.837
1158.0000	399.873
1158.5000	399.921
1159.0000	399.933
1159.5000	399.952
1160.0000	399.914
1160.5000	399.958
1161.0000	399.989
1161.5000	400.047
1162.0000	400.087
1162.5000	400.1
1163.0000	400.195
1163.5000	400.174
1164.0000	400.276
1164.5000	400.33
1165.0000	400.351
1165.5000	400.379
1166.0000	400.392
1166.5000	400.431
1167.0000	400.424
1167.5000	400.43
1168.0000	400.446
1168.5000	400.387
1169.0000	400.382
1169.5000	400.477
1170.0000	400.543
1170.5000	400.621
1171.0000	400.663
1171.5000	400.674
1172.0000	400.69
1172.5000	400.775
1173.0000	400.863
1173.5000	400.923
1174.0000	400.917
1174.5000	400.915
1175.0000	400.964
1175.5000	401.025
1176.0000	401.066
1176.5000	401.103
1177.0000	401.133
1177.5000	401.165
1178.0000	401.236
1178.5000	401.306
1179.0000	401.28
1179.5000	401.326
1180.0000	401.416
1180.5000	401.431
1181.0000	401.48
1181.5000	401.461
1182.0000	401.5
1182.5000	401.505
1183.0000	401.516
1183.5000	401.607
1184.0000	401.63
1184.5000	401.698
1185.0000	401.767
1185.5000	401.773
1186.0000	401.731
1186.5000	401.763
1187.0000	401.824
1187.5000	401.923
1188.0000	402.004
1188.5000	402.019
1189.0000	402.068
1189.5000	402.013
1190.0000	402.036
1190.5000	402.132
1191.0000	402.102
1191.5000	402.186
1192.0000	402.233
1192.5000	402.186
1193.0000	402.278
1193.5000	402.324
1194.0000	402.352
1194.5000	402.448
1195.0000	402.499
1195.5000	402.497
1196.0000	402.514
1196.5000	402.585
1197.0000	402.622
1197.5000	402.689
1198.0000	402.748
1198.5000	402.708
1199.0000	402.739
1199.5000	402.698
1200.0000	402.79
1200.5000	402.823
1201.0000	402.809
1201.5000	402.914
1202.0000	402.931
1202.5000	402.94
1203.0000	403.03
1203.5000	403.181
1204.0000	403.167
1204.5000	403.322
1205.0000	403.328
1205.5000	403.155
1206.0000	403.302
1206.5000	403.29
1207.0000	403.3
1207.5000	403.464
1208.0000	403.388
1208.5000	403.451
1209.0000	403.544
1209.5000	403.518
1210.0000	403.545
1210.5000	403.536
1211.0000	403.535
1211.5000	403.576
1212.0000	403.658
1212.5000	403.633
1213.0000	403.611
1213.5000	403.686
1214.0000	403.747
1214.5000	403.779
1215.0000	403.924
1215.5000	403.895
1216.0000	403.827
1216.5000	403.965
1217.0000	404.034
1217.5000	404.092
1218.0000	404.123
1218.5000	404.142
1219.0000	404.172
1219.5000	404.219
1220.0000	404.331
1220.5000	404.379
1221.0000	404.353
1221.5000	404.399
1222.0000	404.501
1222.5000	404.494
1223.0000	404.488
1223.5000	404.521
1224.0000	404.556
1224.5000	404.614
1225.0000	404.739
1225.5000	404.79
1226.0000	404.736
1226.5000	404.842
1227.0000	404.916
1227.5000	404.978
1228.0000	405.062
1228.5000	405.092
1229.0000	405.073
1229.5000	405.109
1230.0000	405.147
1230.5000	405.194
1231.0000	405.197
1231.5000	405.183
1232.0000	405.253
1232.5000	405.264
1233.0000	405.275
1233.5000	405.347
1234.0000	405.327
1234.5000	405.315
1235.0000	405.397
1235.5000	405.49
1236.0000	405.562
1236.5000	405.59
1237.0000	405.659
1237.5000	405.636
1238.0000	405.648
1238.5000	405.683
1239.0000	405.67
1239.5000	405.778
1240.0000	405.821
1240.5000	405.9
1241.0000	405.934
1241.5000	405.899
1242.0000	405.898
1242.5000	405.903
1243.0000	406.007
1243.5000	406.018
1244.0000	406.02
1244.5000	406.111
1245.0000	406.185
1245.5000	406.237
1246.0000	406.35
1246.5000	406.358
1247.0000	406.32
1247.5000	406.402
1248.0000	406.406
1248.5000	406.401
1249.0000	406.404
1249.5000	406.359
1250.0000	406.421
1250.5000	406.47
1251.0000	406.512
1251.5000	406.559
1252.0000	406.613
1252.5000	406.613
1253.0000	406.669
1253.5000	406.717
1254.0000	406.767
1254.5000	406.886
1255.0000	406.872
1255.5000	406.907
1256.0000	406.912
1256.5000	406.867
1257.0000	406.977
1257.5000	407.109
1258.0000	407.124
1258.5000	407.247
1259.0000	407.17
1259.5000	407.179
1260.0000	407.299
1260.5000	407.28
1261.0000	407.377
1261.5000	407.281
1262.0000	407.202
1262.5000	407.197
1263.0000	407.265
1263.5000	407.332
1264.0000	407.404
1264.5000	407.526
1265.0000	407.633
1265.5000	407.703
1266.0000	407.793
1266.5000	407.787
1267.0000	407.756
1267.5000	407.818
1268.0000	407.813
1268.5000	407.843
1269.0000	407.841
1269.5000	407.911
1270.0000	407.957
1270.5000	407.968
1271.0000	407.973
1271.5000	407.891
1272.0000	407.821
1272.5000	407.88
1273.0000	407.905
1273.5000	407.989
1274.0000	408.093
1274.5000	408.158
1275.0000	408.249
1275.5000	408.311
1276.0000	408.382
1276.5000	408.411
1277.0000	408.416
1277.5000	408.426
1278.0000	408.472
1278.5000	408.513
1279.0000	408.542
1279.5000	408.582
1280.0000	408.601
1280.5000	408.618
1281.0000	408.67
1281.5000	408.699
1282.0000	408.679
1282.5000	408.692
1283.0000	408.692
1283.5000	408.755
1284.0000	408.868
1284.5000	408.961
1285.0000	409.074
1285.5000	409.065
1286.0000	409.048
1286.5000	409.055
1287.0000	409.058
1287.5000	409.143
1288.0000	409.16
1288.5000	409.181
1289.0000	409.148
1289.5000	409.154
1290.0000	409.19
1290.5000	409.193
1291.0000	409.244
1291.5000	409.264
1292.0000	409.317
1292.5000	409.323
1293.0000	409.385
1293.5000	409.45
1294.0000	409.506
1294.5000	409.606
1295.0000	409.657
1295.5000	409.642
1296.0000	409.604
1296.5000	409.619
1297.0000	409.608
1297.5000	409.65
1298.0000	409.713
1298.5000	409.759
1299.0000	409.867
1299.5000	409.945
1300.0000	409.97
1300.5000	409.921
1301.0000	409.972
1301.5000	410.012
1302.0000	410.05
1302.5000	410.112
1303.0000	410.09
1303.5000	410.148
1304.0000	410.111
1304.5000	410.2
1305.0000	410.196
1305.5000	410.137
1306.0000	410.163
1306.5000	410.194
1307.0000	410.272
1307.5000	410.353
1308.0000	410.466
1308.5000	410.488
1309.0000	410.528
1309.5000	410.551
1310.0000	410.562
1310.5000	410.629
1311.0000	410.689
1311.5000	410.706
1312.0000	410.771
1312.5000	410.791
1313.0000	410.872
1313.5000	410.977
1314.0000	411.022
1314.5000	411.054
1315.0000	411
1315.5000	410.984
1316.0000	410.987
1316.5000	411.033
1317.0000	411.057
1317.5000	411.103
1318.0000	411.127
1318.5000	411.137
1319.0000	411.199
1319.5000	411.166
1320.0000	411.234
1320.5000	411.221
1321.0000	411.27
1321.5000	411.314
1322.0000	411.357
1322.5000	411.438
1323.0000	411.395
1323.5000	411.454
1324.0000	411.507
1324.5000	411.581
1325.0000	411.707
1325.5000	411.771
1326.0000	411.797
1326.5000	411.785
1327.0000	411.759
1327.5000	411.716
1328.0000	411.67
1328.5000	411.691
1329.0000	411.738
1329.5000	411.789
1330.0000	411.888
1330.5000	411.987
1331.0000	412.002
1331.5000	412.032
1332.0000	412.1
1332.5000	412.073
1333.0000	412.096
1333.5000	412.134
1334.0000	412.143
1334.5000	412.196
1335.0000	412.299
1335.5000	412.347
1336.0000	412.448
1336.5000	412.517
1337.0000	412.527
1337.5000	412.566
1338.0000	412.557
1338.5000	412.507
1339.0000	412.491
1339.5000	412.536
1340.0000	412.549
1340.5000	412.605
1341.0000	412.647
1341.5000	412.743
1342.0000	412.711
1342.5000	412.707
1343.0000	412.731
1343.5000	412.702
1344.0000	412.766
1344.5000	412.852
1345.0000	412.935
1345.5000	412.994
1346.0000	413.031
1346.5000	413.002
1347.0000	413.041
1347.5000	413.033
1348.0000	413.098
1348.5000	413.134
1349.0000	413.077
1349.5000	413.151
1350.0000	413.121
1350.5000	413.19
1351.0000	413.192
1351.5000	413.153
1352.0000	413.249
1352.5000	413.315
1353.0000	413.365
1353.5000	413.46
1354.0000	413.474
1354.5000	413.463
1355.0000	413.555
1355.5000	413.549
1356.0000	413.594
1356.5000	413.613
1357.0000	413.702
1357.5000	413.719
1358.0000	413.722
1358.5000	413.796
1359.0000	413.909
1359.5000	413.944
1360.0000	413.991
1360.5000	414.026
1361.0000	413.902
1361.5000	413.998
1362.0000	414.028
1362.5000	414.035
1363.0000	414.133
1363.5000	414.116
1364.0000	414.116
1364.5000	414.19
1365.0000	414.213
1365.5000	414.228
1366.0000	414.372
1366.5000	414.465
1367.0000	414.403
1367.5000	414.475
1368.0000	414.507
1368.5000	414.389
1369.0000	414.504
1369.5000	414.509
1370.0000	414.391
1370.5000	414.451
1371.0000	414.486
1371.5000	414.579
1372.0000	414.655
1372.5000	414.703
1373.0000	414.721
1373.5000	414.669
1374.0000	414.733
1374.5000	414.762
1375.0000	414.813
1375.5000	414.911
1376.0000	414.95
1376.5000	415.002
1377.0000	415.015
1377.5000	415.03
1378.0000	415.038
1378.5000	415.057
1379.0000	415.123
1379.5000	415.164
1380.0000	415.191
1380.5000	415.243
1381.0000	415.322
1381.5000	415.304
1382.0000	415.405
1382.5000	415.493
1383.0000	415.445
1383.5000	415.525
1384.0000	415.516
1384.5000	415.459
1385.0000	415.479
1385.5000	415.501
1386.0000	415.491
1386.5000	415.558
1387.0000	415.572
1387.5000	415.596
1388.0000	415.759
1388.5000	415.819
1389.0000	415.842
1389.5000	415.866
1390.0000	415.857
1390.5000	415.928
1391.0000	416.003
1391.5000	416.057
1392.0000	416.087
1392.5000	416.177
1393.0000	416.266
1393.5000	416.358
1394.0000	416.368
1394.5000	416.326
1395.0000	416.344
1395.5000	416.355
1396.0000	416.371
1396.5000	416.292
1397.0000	416.35
1397.5000	416.369
1398.0000	416.427
1398.5000	416.554
1399.0000	416.597
1399.5000	416.656
1400.0000	416.736
1400.5000	416.767
1401.0000	416.733
1401.5000	416.731
1402.0000	416.702
1402.5000	416.681
1403.0000	416.731
1403.5000	416.739
1404.0000	416.83
1404.5000	416.842
1405.0000	416.931
1405.5000	417.029
1406.0000	416.989
1406.5000	417.152
1407.0000	417.125
1407.5000	417.108
1408.0000	417.181
1408.5000	417.177
1409.0000	417.247
1409.5000	417.355
1410.0000	417.415
1410.5000	417.383
1411.0000	417.434
1411.5000	417.422
1412.0000	417.514
1412.5000	417.68
1413.0000	417.658
1413.5000	417.721
1414.0000	417.613
1414.5000	417.592
1415.0000	417.618
1415.5000	417.578
1416.0000	417.682
1416.5000	417.64
1417.0000	417.777
1417.5000	417.848
1418.0000	417.862
1418.5000	417.964
1419.0000	417.931
1419.5000	417.99
1420.0000	417.969
1420.5000	418.017
1421.0000	418.078
1421.5000	418.077
1422.0000	418.144
1422.5000	418.166
1423.0000	418.19
1423.5000	418.221
1424.0000	418.255
1424.5000	418.31
1425.0000	418.422
1425.5000	418.438
1426.0000	418.398
1426.5000	418.409
1427.0000	418.372
1427.5000	418.44
1428.0000	418.577
1428.5000	418.599
1429.0000	418.608
1429.5000	418.705
1430.0000	418.774
1430.5000	418.739
1431.0000	418.837
1431.5000	418.842
1432.0000	418.922
1432.5000	419.069
1433.0000	419.02
1433.5000	419.036
1434.0000	419.022
1434.5000	419.09
1435.0000	419.182
1435.5000	419.252
1436.0000	419.21
1436.5000	419.159
1437.0000	419.13
1437.5000	419.219
1438.0000	419.289
1438.5000	419.352
1439.0000	419.396
1439.5000	419.4
1440.0000	419.483
1440.5000	419.524
1441.0000	419.552
1441.5000	419.511
1442.0000	419.449
1442.5000	419.431
1443.0000	419.498
1443.5000	419.591
1444.0000	419.684
1444.5000	419.823
1445.0000	419.852
1445.5000	419.866
1446.0000	419.95
1446.5000	419.922
1447.0000	419.955
1447.5000	420.018
1448.0000	420.026
1448.5000	420.061
1449.0000	420.141
1449.5000	420.094
1450.0000	420.215
1450.5000	420.192
1451.0000	420.266
1451.5000	420.324
1452.0000	420.2
1452.5000	420.283
1453.0000	420.271
1453.5000	420.314
1454.0000	420.431
1454.5000	420.487
1455.0000	420.504
1455.5000	420.57
1456.0000	420.615
1456.5000	420.576
1457.0000	420.598
1457.5000	420.643
1458.0000	420.663
1458.5000	420.722
1459.0000	420.781
1459.5000	420.728
1460.0000	420.697
1460.5000	420.778
1461.0000	420.806
1461.5000	420.908
1462.0000	420.967
1462.5000	421.011
1463.0000	420.954
1463.5000	420.958
1464.0000	420.988
1464.5000	421.082
1465.0000	421.217
1465.5000	421.283
1466.0000	421.38
1466.5000	421.372
1467.0000	421.388
1467.5000	421.392
1468.0000	421.359
1468.5000	421.331
1469.0000	421.33
1469.5000	421.353
1470.0000	421.407
1470.5000	421.433
1471.0000	421.51
1471.5000	421.662
1472.0000	421.784
1472.5000	421.904
1473.0000	422.002
1473.5000	421.926
1474.0000	421.858
1474.5000	421.834
1475.0000	421.729
1475.5000	421.696
1476.0000	421.779
1476.5000	421.767
1477.0000	421.932
1477.5000	421.969
1478.0000	421.906
1478.5000	421.968
1479.0000	421.92
1479.5000	422.021
1480.0000	422.035
1480.5000	422.097
1481.0000	422.07
1481.5000	422.171
1482.0000	422.301
1482.5000	422.23
1483.0000	422.323
1483.5000	422.325
1484.0000	422.377
1484.5000	422.439
1485.0000	422.482
1485.5000	422.452
1486.0000	422.467
1486.5000	422.503
1487.0000	422.565
1487.5000	422.565
1488.0000	422.61
1488.5000	422.734
1489.0000	422.701
1489.5000	422.8
1490.0000	422.768
1490.5000	422.77
1491.0000	422.794
1491.5000	422.812
1492.0000	422.884
1492.5000	422.862
1493.0000	422.872
1493.5000	422.912
1494.0000	422.88
1494.5000	422.888
1495.0000	423.021
1495.5000	423.027
1496.0000	423.066
1496.5000	423.138
1497.0000	423.103
1497.5000	423.113
1498.0000	423.082
1498.5000	423.183
1499.0000	423.166
1499.5000	423.273
1500.0000	423.406
1500.5000	423.364
1501.0000	423.404
1501.5000	423.384
1502.0000	423.385
1502.5000	423.409
1503.0000	423.543
1503.5000	423.669
1504.0000	423.652
1504.5000	423.685
1505.0000	423.745
1505.5000	423.613
1506.0000	423.761
1506.5000	423.844
1507.0000	423.811
1507.5000	423.964
1508.0000	423.967
1508.5000	424.033
1509.0000	424.017
1509.5000	424.026
1510.0000	423.995
1510.5000	424.036
1511.0000	424.038
1511.5000	424.066
1512.0000	424.144
1512.5000	424.056
1513.0000	424.153
1513.5000	424.128
1514.0000	424.155
1514.5000	424.228
1515.0000	424.266
1515.5000	424.339
1516.0000	424.312
1516.5000	424.392
1517.0000	424.375
1517.5000	424.397
1518.0000	424.466
1518.5000	424.423
1519.0000	424.438
1519.5000	424.482
1520.0000	424.491
1520.5000	424.536
1521.0000	424.614
1521.5000	424.651
1522.0000	424.765
1522.5000	424.749
1523.0000	424.778
1523.5000	424.828
1524.0000	424.79
1524.5000	424.857
1525.0000	424.854
1525.5000	424.844
1526.0000	424.878
1526.5000	424.883
1527.0000	424.979
1527.5000	425.028
1528.0000	425.025
1528.5000	425.085
1529.0000	425.064
1529.5000	425.068
1530.0000	425.14
1530.5000	425.155
1531.0000	425.195
1531.5000	425.19
1532.0000	425.235
1532.5000	425.312
1533.0000	425.34
1533.5000	425.376
1534.0000	425.313
1534.5000	425.302
1535.0000	425.301
1535.5000	425.364
1536.0000	425.499
1536.5000	425.67
1537.0000	425.663
1537.5000	425.682
1538.0000	425.656
1538.5000	425.58
1539.0000	425.698
1539.5000	425.745
1540.0000	425.775
1540.5000	425.891
1541.0000	425.856
1541.5000	425.87
1542.0000	425.94
1542.5000	425.897
1543.0000	425.944
1543.5000	426.039
1544.0000	426.031
1544.5000	425.947
1545.0000	425.989
1545.5000	425.992
1546.0000	426.011
1546.5000	426.115
1547.0000	426.084
1547.5000	426.035
1548.0000	426.101
1548.5000	426.161
1549.0000	426.365
1549.5000	426.425
1550.0000	426.446
1550.5000	426.443
1551.0000	426.431
1551.5000	426.447
1552.0000	426.436
1552.5000	426.471
1553.0000	426.421
1553.5000	426.491
1554.0000	426.489
1554.5000	426.567
1555.0000	426.598
1555.5000	426.563
1556.0000	426.62
1556.5000	426.611
1557.0000	426.658
1557.5000	426.671
1558.0000	426.728
1558.5000	426.763
1559.0000	426.747
1559.5000	426.841
1560.0000	426.903
1560.5000	426.904
1561.0000	426.957
1561.5000	426.978
1562.0000	426.998
1562.5000	427.04
1563.0000	427.062
1563.5000	427.111
1564.0000	427.163
1564.5000	427.085
1565.0000	427.128
1565.5000	427.242
1566.0000	427.209
1566.5000	427.383
1567.0000	427.486
1567.5000	427.424
1568.0000	427.454
1568.5000	427.447
1569.0000	427.382
1569.5000	427.385
1570.0000	427.434
1570.5000	427.469
1571.0000	427.482
1571.5000	427.425
1572.0000	427.454
1572.5000	427.485
1573.0000	427.527
1573.5000	427.673
1574.0000	427.668
1574.5000	427.663
1575.0000	427.737
1575.5000	427.732
1576.0000	427.787
1576.5000	427.816
1577.0000	427.816
1577.5000	427.831
1578.0000	427.786
1578.5000	427.794
1579.0000	427.844
1579.5000	427.833
1580.0000	427.862
1580.5000	427.904
1581.0000	427.92
1581.5000	427.984
1582.0000	427.983
1582.5000	428.081
1583.0000	428.051
1583.5000	428.094
1584.0000	428.199
1584.5000	428.185
1585.0000	428.202
1585.5000	428.159
1586.0000	428.19
1586.5000	428.116
1587.0000	428.21
1587.5000	428.272
1588.0000	428.263
1588.5000	428.422
1589.0000	428.455
1589.5000	428.498
1590.0000	428.562
1590.5000	428.532
1591.0000	428.555
1591.5000	428.551
1592.0000	428.621
1592.5000	428.571
1593.0000	428.553
1593.5000	428.665
1594.0000	428.661
1594.5000	428.816
1595.0000	428.881
1595.5000	428.799
1596.0000	428.816
1596.5000	428.802
1597.0000	428.85
1597.5000	428.938
1598.0000	428.871
1598.5000	428.916
1599.0000	428.928
1599.5000	428.939
1600.0000	429.041
1600.5000	429.092
1601.0000	429.108
1601.5000	429.177
1602.0000	429.254
1602.5000	429.198
1603.0000	429.178
1603.5000	429.161
1604.0000	429.13
1604.5000	429.223
1605.0000	429.312
1605.5000	429.303
1606.0000	429.354
1606.5000	429.338
1607.0000	429.388
1607.5000	429.49
1608.0000	429.618
1608.5000	429.69
1609.0000	429.659
1609.5000	429.592
1610.0000	429.515
1610.5000	429.543
1611.0000	429.575
1611.5000	429.665
1612.0000	429.64
1612.5000	429.608
1613.0000	429.592
1613.5000	429.601
1614.0000	429.73
1614.5000	429.773
1615.0000	429.83
1615.5000	429.931
1616.0000	429.914
1616.5000	429.954
1617.0000	429.992
1617.5000	429.941
1618.0000	430.001
1618.5000	430.054
1619.0000	430.073
1619.5000	430.178
1620.0000	430.168
1620.5000	430.114
1621.0000	430.141
1621.5000	430.056
1622.0000	430.074
1622.5000	430.287
1623.0000	430.402
1623.5000	430.62
1624.0000	430.734
1624.5000	430.608
1625.0000	430.531
1625.5000	430.483
1626.0000	430.503
1626.5000	430.542
1627.0000	430.625
1627.5000	430.606
1628.0000	430.584
1628.5000	430.686
1629.0000	430.705
1629.5000	430.743
1630.0000	430.799
1630.5000	430.717
1631.0000	430.766
1631.5000	430.776
1632.0000	430.792
1632.5000	430.935
1633.0000	430.995
1633.5000	431.059
1634.0000	431.044
1634.5000	431.023
1635.0000	431.001
1635.5000	431.079
1636.0000	431.147
1636.5000	431.183
1637.0000	431.244
1637.5000	431.231
1638.0000	431.277
1638.5000	431.3
1639.0000	431.306
1639.5000	431.299
1640.0000	431.338
1640.5000	431.375
1641.0000	431.385
1641.5000	431.474
1642.0000	431.494
1642.5000	431.497
1643.0000	431.499
1643.5000	431.544
1644.0000	431.6
1644.5000	431.671
1645.0000	431.71
1645.5000	431.712
1646.0000	431.69
1646.5000	431.766
1647.0000	431.884
1647.5000	431.939
1648.0000	432.05
1648.5000	431.999
1649.0000	431.944
1649.5000	431.946
1650.0000	431.938
1650.5000	431.97
1651.0000	432.028
1651.5000	432.002
1652.0000	431.909
1652.5000	431.934
1653.0000	431.98
1653.5000	431.991
1654.0000	432.138
1654.5000	432.182
1655.0000	432.257
1655.5000	432.383
1656.0000	432.406
1656.5000	432.412
1657.0000	432.396
1657.5000	432.364
1658.0000	432.329
1658.5000	432.443
1659.0000	432.425
1659.5000	432.419
1660.0000	432.475
1660.5000	432.435
1661.0000	432.488
1661.5000	432.591
1662.0000	432.599
1662.5000	432.687
1663.0000	432.756
1663.5000	432.766
1664.0000	432.858
1664.5000	432.862
1665.0000	432.808
1665.5000	432.885
1666.0000	432.876
1666.5000	432.851
1667.0000	432.997
1667.5000	432.933
1668.0000	432.98
1668.5000	433.058
1669.0000	433.046
1669.5000	433.056
1670.0000	433.034
1670.5000	432.983
1671.0000	432.974
1671.5000	433.073
1672.0000	433.071
1672.5000	433.093
1673.0000	433.04
1673.5000	433.022
1674.0000	433.078
1674.5000	433.143
1675.0000	433.305
1675.5000	433.362
1676.0000	433.423
1676.5000	433.507
1677.0000	433.438
1677.5000	433.426
1678.0000	433.402
1678.5000	433.385
1679.0000	433.378
1679.5000	433.422
1680.0000	433.48
1680.5000	433.485
1681.0000	433.541
1681.5000	433.58
1682.0000	433.579
1682.5000	433.598
1683.0000	433.632
1683.5000	433.66
1684.0000	433.719
1684.5000	433.74
1685.0000	433.766
1685.5000	433.75
1686.0000	433.756
1686.5000	433.816
1687.0000	433.841
1687.5000	433.914
1688.0000	433.893
1688.5000	433.927
1689.0000	433.991
1689.5000	433.998
1690.0000	434.079
1690.5000	434.097
1691.0000	434.068
1691.5000	434.058
1692.0000	434.076
1692.5000	434.042
1693.0000	434.062
1693.5000	434.144
1694.0000	434.152
1694.5000	434.181
1695.0000	434.285
1695.5000	434.311
1696.0000	434.331
1696.5000	434.405
1697.0000	434.404
1697.5000	434.349
1698.0000	434.399
1698.5000	434.466
1699.0000	434.442
1699.5000	434.494
1700.0000	434.514
1700.5000	434.412
1701.0000	434.44
1701.5000	434.482
1702.0000	434.457
1702.5000	434.459
1703.0000	434.489
1703.5000	434.528
1704.0000	434.597
1704.5000	434.647
1705.0000	434.732
1705.5000	434.669
1706.0000	434.696
1706.5000	434.802
1707.0000	434.822
1707.5000	434.941
1708.0000	434.975
1708.5000	434.987
1709.0000	434.89
1709.5000	434.748
1710.0000	434.766
1710.5000	434.761
1711.0000	434.844
1711.5000	435.049
1712.0000	435.064
1712.5000	435.112
1713.0000	435.115
1713.5000	435.052
1714.0000	435.039
1714.5000	435.041
1715.0000	435.08
1715.5000	435.141
1716.0000	435.198
1716.5000	435.206
1717.0000	435.195
1717.5000	435.178
1718.0000	435.215
1718.5000	435.249
1719.0000	435.226
1719.5000	435.253
1720.0000	435.279
1720.5000	435.261
1721.0000	435.38
1721.5000	435.387
1722.0000	435.367
1722.5000	435.392
1723.0000	435.343
1723.5000	435.354
1724.0000	435.338
1724.5000	435.416
1725.0000	435.4
1725.5000	435.458
1726.0000	435.475
1726.5000	435.493
1727.0000	435.585
1727.5000	435.669
1728.0000	435.809
1728.5000	435.79
1729.0000	435.762
1729.5000	435.736
1730.0000	435.6
1730.5000	435.684
1731.0000	435.723
1731.5000	435.815
1732.0000	436.051
1732.5000	435.977
1733.0000	436.125
1733.5000	436.07
1734.0000	435.927
1734.5000	436.045
1735.0000	435.959
1735.5000	435.968
1736.0000	436.047
1736.5000	435.999
1737.0000	436.114
1737.5000	436.129
1738.0000	436.087
1738.5000	436.103
1739.0000	436.082
1739.5000	436.089
1740.0000	436.131
1740.5000	436.132
1741.0000	436.117
1741.5000	436.129
1742.0000	436.061
1742.5000	436.101
1743.0000	436.077
1743.5000	436.074
1744.0000	436.207
1744.5000	436.236
1745.0000	436.292
1745.5000	436.326
1746.0000	436.333
1746.5000	436.303
1747.0000	436.254
1747.5000	436.308
1748.0000	436.312
1748.5000	436.349
1749.0000	436.428
1749.5000	436.419
1750.0000	436.413
1750.5000	436.406
1751.0000	436.367
1751.5000	436.429
1752.0000	436.476
1752.5000	436.546
1753.0000	436.587
1753.5000	436.534
1754.0000	436.495
1754.5000	436.425
1755.0000	436.393
1755.5000	436.402
1756.0000	436.45
1756.5000	436.483
1757.0000	436.528
1757.5000	436.616
1758.0000	436.648
1758.5000	436.65
1759.0000	436.711
1759.5000	436.684
1760.0000	436.644
1760.5000	436.707
1761.0000	436.719
1761.5000	436.737
1762.0000	436.734
1762.5000	436.708
1763.0000	436.676
1763.5000	436.682
1764.0000	436.774
1764.5000	436.86
1765.0000	436.973
1765.5000	436.929
1766.0000	436.897
1766.5000	436.903
1767.0000	436.875
1767.5000	437.069
1768.0000	437.087
1768.5000	437.153
1769.0000	437.092
1769.5000	436.93
1770.0000	436.982
1770.5000	436.822
1771.0000	436.822
1771.5000	436.903
1772.0000	436.862
1772.5000	436.995
1773.0000	437.154
1773.5000	437.145
1774.0000	437.198
1774.5000	437.204
1775.0000	437.066
1775.5000	437.128
1776.0000	437.113
1776.5000	437.151
1777.0000	437.194
1777.5000	437.089
1778.0000	437.113
1778.5000	437.097
1779.0000	437.109
1779.5000	437.275
1780.0000	437.319
1780.5000	437.367
1781.0000	437.457
1781.5000	437.391
1782.0000	437.353
1782.5000	437.391
1783.0000	437.432
1783.5000	437.478
1784.0000	437.603
1784.5000	437.698
1785.0000	437.675
1785.5000	437.71
1786.0000	437.673
1786.5000	437.533
1787.0000	437.603
1787.5000	437.614
1788.0000	437.638
1788.5000	437.748
1789.0000	437.749
1789.5000	437.709
1790.0000	437.773
1790.5000	437.727
1791.0000	437.725
1791.5000	437.786
1792.0000	437.728
1792.5000	437.685
1793.0000	437.717
1793.5000	437.675
1794.0000	437.747
1794.5000	437.836
1795.0000	437.744
1795.5000	437.802
1796.0000	437.805
1796.5000	437.826
1797.0000	437.93
1797.5000	437.968
1798.0000	437.855
1798.5000	437.877
1799.0000	437.806
1799.5000	437.81
1800.0000	437.961
1800.5000	438.032
1801.0000	438.103
1801.5000	438.09
1802.0000	438.132
1802.5000	438.122
1803.0000	438.16
1803.5000	438.298
1804.0000	438.235
1804.5000	438.193
1805.0000	438.256
1805.5000	438.24
1806.0000	438.375
1806.5000	438.382
1807.0000	438.362
1807.5000	438.387
1808.0000	438.318
1808.5000	438.35
1809.0000	438.363
1809.5000	438.251
1810.0000	438.299
1810.5000	438.295
1811.0000	438.3
1811.5000	438.333
1812.0000	438.317
1812.5000	438.367
1813.0000	438.428
1813.5000	438.458
1814.0000	438.464
1814.5000	438.457
1815.0000	438.492
1815.5000	438.564
1816.0000	438.591
1816.5000	438.608
1817.0000	438.52
1817.5000	438.482
1818.0000	438.496
1818.5000	438.558
1819.0000	438.656
1819.5000	438.747
1820.0000	438.75
1820.5000	438.752
1821.0000	438.719
1821.5000	438.712
1822.0000	438.779
1822.5000	438.782
1823.0000	438.846
1823.5000	438.911
1824.0000	438.809
1824.5000	438.837
1825.0000	438.864
1825.5000	438.835
1826.0000	438.958
1826.5000	439.055
1827.0000	439.037
1827.5000	439.093
1828.0000	439.086
1828.5000	439.032
1829.0000	439.113
1829.5000	439.1
1830.0000	439.017
1830.5000	439.019
1831.0000	438.981
1831.5000	438.982
1832.0000	439.108
1832.5000	439.122
1833.0000	439.17
1833.5000	439.201
1834.0000	439.275
1834.5000	439.352
1835.0000	439.296
1835.5000	439.293
1836.0000	439.34
1836.5000	439.329
1837.0000	439.353
1837.5000	439.358
1838.0000	439.34
1838.5000	439.349
1839.0000	439.485
1839.5000	439.541
1840.0000	439.519
1840.5000	439.599
1841.0000	439.499
1841.5000	439.467
1842.0000	439.481
1842.5000	439.541
1843.0000	439.665
1843.5000	439.785
1844.0000	439.835
1844.5000	439.761
1845.0000	439.743
1845.5000	439.708
1846.0000	439.703
1846.5000	439.775
1847.0000	439.8
1847.5000	439.763
1848.0000	439.753
1848.5000	439.789
1849.0000	439.777
1849.5000	439.889
1850.0000	439.935
1850.5000	439.945
1851.0000	439.98
1851.5000	439.955
1852.0000	440.036
1852.5000	439.99
1853.0000	439.966
1853.5000	439.98
1854.0000	440.023
1854.5000	439.999
1855.0000	440.091
1855.5000	440.151
1856.0000	440.119
1856.5000	440.267
1857.0000	440.234
1857.5000	440.222
1858.0000	440.264
1858.5000	440.2
1859.0000	440.262
1859.5000	440.303
1860.0000	440.296
1860.5000	440.34
1861.0000	440.422
1861.5000	440.452
1862.0000	440.493
1862.5000	440.529
1863.0000	440.521
1863.5000	440.615
1864.0000	440.691
1864.5000	440.659
1865.0000	440.664
1865.5000	440.647
1866.0000	440.579
1866.5000	440.594
1867.0000	440.627
1867.5000	440.644
1868.0000	440.733
1868.5000	440.743
1869.0000	440.73
1869.5000	440.779
1870.0000	440.77
1870.5000	440.815
1871.0000	440.847
1871.5000	440.777
1872.0000	440.725
1872.5000	440.838
1873.0000	440.813
1873.5000	440.794
1874.0000	440.946
1874.5000	440.948
1875.0000	441.059
1875.5000	441.184
1876.0000	441.164
1876.5000	441.19
1877.0000	441.11
1877.5000	441.104
1878.0000	441.114
1878.5000	441.13
1879.0000	441.227
1879.5000	441.301
1880.0000	441.264
1880.5000	441.276
1881.0000	441.17
1881.5000	441.023
1882.0000	441.083
1882.5000	441.103
1883.0000	441.238
1883.5000	441.436
1884.0000	441.426
1884.5000	441.374
1885.0000	441.319
1885.5000	441.263
1886.0000	441.292
1886.5000	441.325
1887.0000	441.404
1887.5000	441.443
1888.0000	441.508
1888.5000	441.561
1889.0000	441.629
1889.5000	441.736
1890.0000	441.662
1890.5000	441.733
1891.0000	441.684
1891.5000	441.659
1892.0000	441.686
1892.5000	441.681
1893.0000	441.698
1893.5000	441.655
1894.0000	441.715
1894.5000	441.719
1895.0000	441.745
1895.5000	441.838
1896.0000	441.963
1896.5000	441.984
1897.0000	442.029
1897.5000	442.006
1898.0000	441.941
1898.5000	441.957
1899.0000	441.959
1899.5000	441.961
1900.0000	441.977
1900.5000	441.993
1901.0000	442.034
1901.5000	442.028
1902.0000	442.07
1902.5000	442.101
1903.0000	442.043
1903.5000	442.133
1904.0000	442.186
1904.5000	442.193
1905.0000	442.304
1905.5000	442.347
1906.0000	442.226
1906.5000	442.257
1907.0000	442.192
1907.5000	442.142
1908.0000	442.182
1908.5000	442.182
1909.0000	442.352
1909.5000	442.332
1910.0000	442.342
1910.5000	442.364
1911.0000	442.333
1911.5000	442.401
1912.0000	442.59
1912.5000	442.595
1913.0000	442.57
1913.5000	442.561
1914.0000	442.428
1914.5000	442.418
1915.0000	442.426
1915.5000	442.434
1916.0000	442.508
1916.5000	442.605
1917.0000	442.654
1917.5000	442.662
1918.0000	442.721
1918.5000	442.68
1919.0000	442.631
1919.5000	442.689
1920.0000	442.62
1920.5000	442.689
1921.0000	442.696
1921.5000	442.653
1922.0000	442.721
1922.5000	442.612
1923.0000	442.631
1923.5000	442.624
1924.0000	442.555
1924.5000	442.65
1925.0000	442.612
1925.5000	442.713
1926.0000	442.745
1926.5000	442.754
1927.0000	442.866
1927.5000	442.928
1928.0000	442.948
1928.5000	442.985
1929.0000	442.958
1929.5000	442.888
1930.0000	442.952
1930.5000	442.894
1931.0000	442.974
1931.5000	442.985
1932.0000	443.043
1932.5000	443.108
1933.0000	443.059
1933.5000	443.055
1934.0000	442.986
1934.5000	442.974
1935.0000	442.913
1935.5000	442.94
1936.0000	443.024
1936.5000	443.042
1937.0000	443.108
1937.5000	443.15
1938.0000	443.091
1938.5000	443.029
1939.0000	443.054
1939.5000	442.997
1940.0000	443.017
1940.5000	443.077
1941.0000	443.094
1941.5000	443.114
1942.0000	443.094
1942.5000	443.119
1943.0000	443.126
1943.5000	443.138
1944.0000	443.211
1944.5000	443.192
1945.0000	443.169
1945.5000	443.243
1946.0000	443.12
1946.5000	443.131
1947.0000	443.309
1947.5000	443.26
1948.0000	443.369
1948.5000	443.383
1949.0000	443.315
1949.5000	443.4
1950.0000	443.338
1950.5000	443.39
1951.0000	443.38
1951.5000	443.339
1952.0000	443.462
1952.5000	443.473
1953.0000	443.397
1953.5000	443.457
1954.0000	443.412
1954.5000	443.391
1955.0000	443.454
1955.5000	443.376
1956.0000	443.496
1956.5000	443.467
1957.0000	443.468
1957.5000	443.546
1958.0000	443.458
1958.5000	443.525
1959.0000	443.583
1959.5000	443.599
1960.0000	443.564
1960.5000	443.668
1961.0000	443.637
1961.5000	443.673
1962.0000	443.768
1962.5000	443.682
1963.0000	443.719
1963.5000	443.751
1964.0000	443.749
1964.5000	443.88
1965.0000	443.868
1965.5000	443.773
1966.0000	443.803
1966.5000	443.714
1967.0000	443.771
1967.5000	443.828
1968.0000	443.778
1968.5000	443.749
1969.0000	443.738
1969.5000	443.695
1970.0000	443.714
1970.5000	443.761
1971.0000	443.714
1971.5000	443.672
1972.0000	443.754
1972.5000	443.746
1973.0000	443.83
1973.5000	443.931
1974.0000	443.801
1974.5000	443.823
1975.0000	443.842
1975.5000	443.828
1976.0000	443.841
1976.5000	443.965
1977.0000	443.95
1977.5000	443.922
1978.0000	443.999
1978.5000	443.897
1979.0000	443.904
1979.5000	443.936
1980.0000	443.909
1980.5000	443.896
1981.0000	443.912
1981.5000	443.977
1982.0000	444.024
1982.5000	444.083
1983.0000	444.103
1983.5000	444.077
1984.0000	444.044
1984.5000	444.04
1985.0000	444.01
1985.5000	444.076
1986.0000	444.178
1986.5000	444.095
1987.0000	444.145
1987.5000	444.081
1988.0000	444.013
1988.5000	444.098
1989.0000	444.047
1989.5000	444.087
1990.0000	444.061
1990.5000	444.098
1991.0000	444.178
1991.5000	444.124
1992.0000	444.189
1992.5000	444.273
1993.0000	444.281
1993.5000	444.31
1994.0000	444.359
1994.5000	444.315
1995.0000	444.326
1995.5000	444.504
1996.0000	444.509
1996.5000	444.467
1997.0000	444.452
1997.5000	444.354
1998.0000	444.327
1998.5000	444.378
1999.0000	444.469
1999.5000	444.476
2000.0000	444.522
2000.5000	444.481
2001.0000	444.439
2001.5000	444.465
2002.0000	444.457
2002.5000	444.514
2003.0000	444.528
2003.5000	444.552
2004.0000	444.666
2004.5000	444.608
2005.0000	444.634
2005.5000	444.645
2006.0000	444.638
2006.5000	444.685
2007.0000	444.642
2007.5000	444.646
2008.0000	444.601
2008.5000	444.663
2009.0000	444.637
2009.5000	444.634
2010.0000	444.644
2010.5000	444.646
2011.0000	444.675
2011.5000	444.776
2012.0000	444.785
2012.5000	444.743
2013.0000	444.812
2013.5000	444.792
2014.0000	444.73
2014.5000	444.743
2015.0000	444.713
2015.5000	444.606
2016.0000	444.762
2016.5000	444.762
2017.0000	444.797
2017.5000	444.862
2018.0000	444.903
2018.5000	444.913
2019.0000	444.887
2019.5000	444.93
2020.0000	444.846
2020.5000	444.865
2021.0000	444.935
2021.5000	444.9
2022.0000	444.875
2022.5000	444.916
2023.0000	444.911
2023.5000	444.888
2024.0000	444.956
2024.5000	445.007
2025.0000	445.035
2025.5000	445.019
2026.0000	445.019
2026.5000	444.964
2027.0000	444.932
2027.5000	445.076
2028.0000	445.087
2028.5000	445.09
2029.0000	445.106
2029.5000	445.123
2030.0000	445.1
2030.5000	445.197
2031.0000	445.169
2031.5000	445.161
2032.0000	445.198
2032.5000	445.208
2033.0000	445.202
2033.5000	445.187
2034.0000	445.162
2034.5000	445.09
2035.0000	445.136
2035.5000	445.22
2036.0000	445.348
2036.5000	445.367
2037.0000	445.434
2037.5000	445.446
2038.0000	445.348
2038.5000	445.425
2039.0000	445.454
2039.5000	445.343
2040.0000	445.428
2040.5000	445.48
2041.0000	445.428
2041.5000	445.584
2042.0000	445.614
2042.5000	445.523
2043.0000	445.611
2043.5000	445.577
2044.0000	445.519
2044.5000	445.619
2045.0000	445.636
2045.5000	445.648
2046.0000	445.689
2046.5000	445.741
2047.0000	445.722
2047.5000	445.59
2048.0000	445.594
2048.5000	445.618
2049.0000	445.635
2049.5000	445.736
2050.0000	445.806
2050.5000	445.829
2051.0000	445.942
2051.5000	446.015
2052.0000	445.942
2052.5000	445.927
2053.0000	445.821
2053.5000	445.806
2054.0000	445.873
2054.5000	445.83
2055.0000	445.892
2055.5000	445.983
2056.0000	446.043
2056.5000	446.06
2057.0000	446.01
2057.5000	446.006
2058.0000	445.962
2058.5000	446.009
2059.0000	446.054
2059.5000	446.027
2060.0000	446.091
2060.5000	446.124
2061.0000	446.132
2061.5000	446.157
2062.0000	446.148
2062.5000	446.182
2063.0000	446.271
2063.5000	446.222
2064.0000	446.273
2064.5000	446.291
2065.0000	446.282
2065.5000	446.379
2066.0000	446.376
2066.5000	446.314
2067.0000	446.303
2067.5000	446.282
2068.0000	446.31
2068.5000	446.402
2069.0000	446.479
2069.5000	446.628
2070.0000	446.579
2070.5000	446.554
2071.0000	446.542
2071.5000	446.478
2072.0000	446.594
2072.5000	446.595
2073.0000	446.62
2073.5000	446.587
2074.0000	446.627
2074.5000	446.68
2075.0000	446.687
2075.5000	446.788
2076.0000	446.793
2076.5000	446.873
2077.0000	446.92
2077.5000	446.936
2078.0000	446.956
2078.5000	446.93
2079.0000	446.924
2079.5000	446.951
2080.0000	447.013
2080.5000	446.939
2081.0000	446.972
2081.5000	446.993
2082.0000	446.871
2082.5000	446.965
2083.0000	446.997
2083.5000	446.976
2084.0000	446.99
2084.5000	447.046
2085.0000	447.065
2085.5000	447.086
2086.0000	447.158
2086.5000	447.138
2087.0000	447.064
2087.5000	447.134
2088.0000	447.125
2088.5000	447.147
2089.0000	447.341
2089.5000	447.376
2090.0000	447.363
2090.5000	447.432
2091.0000	447.485
2091.5000	447.387
2092.0000	447.447
2092.5000	447.388
2093.0000	447.36
2093.5000	447.39
2094.0000	447.515
2094.5000	447.69
2095.0000	447.643
2095.5000	447.712
2096.0000	447.678
2096.5000	447.701
2097.0000	447.692
2097.5000	447.758
2098.0000	447.74
2098.5000	447.645
2099.0000	447.709
2099.5000	447.719
2100.0000	447.794
2100.5000	447.912
2101.0000	447.837
2101.5000	447.865
2102.0000	447.939
2102.5000	447.91
2103.0000	447.989
2103.5000	448.027
2104.0000	448.02
2104.5000	447.998
2105.0000	448.105
2105.5000	448.058
2106.0000	448.037
2106.5000	448.1
2107.0000	448.098
2107.5000	448.126
2108.0000	448.159
2108.5000	448.179
2109.0000	448.189
2109.5000	448.288
2110.0000	448.276
2110.5000	448.311
2111.0000	448.276
2111.5000	448.165
2112.0000	448.257
2112.5000	448.26
2113.0000	448.299
2113.5000	448.346
2114.0000	448.306
2114.5000	448.284
2115.0000	448.287
2115.5000	448.339
2116.0000	448.299
2116.5000	448.275
2117.0000	448.26
2117.5000	448.217
2118.0000	448.279
2118.5000	448.331
2119.0000	448.43
2119.5000	448.467
2120.0000	448.483
2120.5000	448.472
2121.0000	448.385
2121.5000	448.369
2122.0000	448.411
2122.5000	448.385
2123.0000	448.385
2123.5000	448.417
2124.0000	448.387
2124.5000	448.317
2125.0000	448.38
2125.5000	448.411
2126.0000	448.447
2126.5000	448.61
2127.0000	448.645
2127.5000	448.614
2128.0000	448.606
2128.5000	448.624
2129.0000	448.645
2129.5000	448.63
2130.0000	448.591
2130.5000	448.557
2131.0000	448.544
2131.5000	448.64
2132.0000	448.652
2132.5000	448.584
2133.0000	448.629
2133.5000	448.595
2134.0000	448.665
2134.5000	448.809
2135.0000	448.747
2135.5000	448.872
2136.0000	448.841
2136.5000	448.804
2137.0000	448.867
2137.5000	448.787
2138.0000	448.789
2138.5000	448.831
2139.0000	448.909
2139.5000	448.95
2140.0000	448.989
2140.5000	449.055
2141.0000	448.992
2141.5000	448.951
2142.0000	448.947
2142.5000	448.875
2143.0000	448.887
2143.5000	448.874
2144.0000	448.844
2144.5000	448.936
2145.0000	448.924
2145.5000	449.007
2146.0000	449
2146.5000	448.882
2147.0000	448.927
2147.5000	448.858
2148.0000	448.877
2148.5000	448.905
2149.0000	448.904
2149.5000	448.936
2150.0000	448.947
2150.5000	449.09
2151.0000	449.118
2151.5000	449.078
2152.0000	449.108
2152.5000	448.973
2153.0000	448.863
2153.5000	448.951
2154.0000	448.96
2154.5000	449.052
2155.0000	449.076
2155.5000	449.024
2156.0000	448.991
2156.5000	448.968
2157.0000	448.995
2157.5000	449.037
2158.0000	449.146
2158.5000	449.1
2159.0000	449.217
2159.5000	449.232
2160.0000	449.17
2160.5000	449.193
2161.0000	449.091
2161.5000	449.115
2162.0000	449.109
2162.5000	449.107
2163.0000	449.149
2163.5000	449.16
2164.0000	449.278
2164.5000	449.233
2165.0000	449.226
2165.5000	449.185
2166.0000	449.103
2166.5000	449.178
2167.0000	449.226
2167.5000	449.243
2168.0000	449.254
2168.5000	449.172
2169.0000	449.107
2169.5000	449.211
2170.0000	449.098
2170.5000	449.221
2171.0000	449.337
2171.5000	449.314
2172.0000	449.403
2172.5000	449.388
2173.0000	449.309
2173.5000	449.194
2174.0000	449.226
2174.5000	449.229
2175.0000	449.251
2175.5000	449.348
2176.0000	449.306
2176.5000	449.308
2177.0000	449.333
2177.5000	449.273
2178.0000	449.311
2178.5000	449.351
2179.0000	449.288
2179.5000	449.334
2180.0000	449.364
2180.5000	449.284
2181.0000	449.359
2181.5000	449.472
2182.0000	449.503
2182.5000	449.591
2183.0000	449.576
2183.5000	449.512
2184.0000	449.423
2184.5000	449.469
2185.0000	449.506
2185.5000	449.466
2186.0000	449.537
2186.5000	449.507
2187.0000	449.54
2187.5000	449.543
2188.0000	449.586
2188.5000	449.536
2189.0000	449.524
2189.5000	449.569
2190.0000	449.526
2190.5000	449.552
2191.0000	449.562
2191.5000	449.525
2192.0000	449.533
2192.5000	449.558
2193.0000	449.564
2193.5000	449.621
2194.0000	449.622
2194.5000	449.645
2195.0000	449.554
2195.5000	449.553
2196.0000	449.626
2196.5000	449.609
2197.0000	449.676
2197.5000	449.666
2198.0000	449.622
2198.5000	449.673
2199.0000	449.704
2199.5000	449.645
2200.0000	449.735
2200.5000	449.688
2201.0000	449.626
2201.5000	449.731
2202.0000	449.7
2202.5000	449.678
2203.0000	449.794
2203.5000	449.796
2204.0000	449.745
2204.5000	449.772
2205.0000	449.701
2205.5000	449.701
2206.0000	449.758
2206.5000	449.766
2207.0000	449.744
2207.5000	449.8
2208.0000	449.787
2208.5000	449.793
2209.0000	449.859
2209.5000	449.794
2210.0000	449.832
2210.5000	449.785
2211.0000	449.798
2211.5000	449.773
2212.0000	449.708
2212.5000	449.728
2213.0000	449.766
2213.5000	449.81
2214.0000	449.835
2214.5000	449.899
2215.0000	449.843
2215.5000	449.835
2216.0000	449.89
2216.5000	449.92
2217.0000	449.852
2217.5000	449.89
2218.0000	449.907
2218.5000	449.834
2219.0000	449.968
2219.5000	449.966
2220.0000	449.921
2220.5000	450.008
2221.0000	449.995
2221.5000	450.041
2222.0000	450.085
2222.5000	450.075
2223.0000	450.037
2223.5000	449.995
2224.0000	449.931
2224.5000	450.017
2225.0000	450.049
2225.5000	450.076
2226.0000	450.12
2226.5000	450.036
2227.0000	450.013
2227.5000	449.956
2228.0000	449.969
2228.5000	449.933
2229.0000	449.992
2229.5000	450.069
2230.0000	450.141
2230.5000	450.193
2231.0000	450.164
2231.5000	450.181
2232.0000	450.137
2232.5000	450.146
2233.0000	450.199
2233.5000	450.239
2234.0000	450.178
2234.5000	450.194
2235.0000	450.151
2235.5000	450.114
2236.0000	450.199
2236.5000	450.227
2237.0000	450.286
2237.5000	450.254
2238.0000	450.288
2238.5000	450.187
2239.0000	450.143
2239.5000	450.273
2240.0000	450.207
2240.5000	450.269
2241.0000	450.277
2241.5000	450.184
2242.0000	450.165
2242.5000	450.328
2243.0000	450.312
2243.5000	450.323
2244.0000	450.349
2244.5000	450.368
2245.0000	450.432
2245.5000	450.383
2246.0000	450.413
2246.5000	450.319
2247.0000	450.412
2247.5000	450.547
2248.0000	450.592
2248.5000	450.534
2249.0000	450.454
2249.5000	450.38
2250.0000	450.399
2250.5000	450.452
2251.0000	450.385
2251.5000	450.432
2252.0000	450.383
2252.5000	450.327
2253.0000	450.374
2253.5000	450.302
2254.0000	450.336
2254.5000	450.381
2255.0000	450.434
2255.5000	450.463
2256.0000	450.416
2256.5000	450.408
2257.0000	450.361
2257.5000	450.394
2258.0000	450.439
2258.5000	450.474
2259.0000	450.502
2259.5000	450.377
2260.0000	450.459
2260.5000	450.449
2261.0000	450.43
2261.5000	450.558
2262.0000	450.492
2262.5000	450.536
2263.0000	450.591
2263.5000	450.608
2264.0000	450.716
2264.5000	450.691
2265.0000	450.668
2265.5000	450.724
2266.0000	450.571
2266.5000	450.565
2267.0000	450.583
2267.5000	450.509
2268.0000	450.655
2268.5000	450.654
2269.0000	450.607
2269.5000	450.644
2270.0000	450.51
2270.5000	450.554
2271.0000	450.624
2271.5000	450.615
2272.0000	450.796
2272.5000	450.82
2273.0000	450.802
2273.5000	450.907
2274.0000	450.85
2274.5000	450.857
2275.0000	450.925
2275.5000	450.889
2276.0000	450.907
2276.5000	450.859
2277.0000	450.89
2277.5000	450.886
2278.0000	450.942
2278.5000	451.031
2279.0000	451.02
2279.5000	450.996
2280.0000	451.01
2280.5000	451.011
2281.0000	450.961
2281.5000	450.957
2282.0000	450.812
2282.5000	450.875
2283.0000	450.926
2283.5000	451.038
2284.0000	451.082
2284.5000	451.025
2285.0000	451.014
2285.5000	451.036
2286.0000	451.108
2286.5000	451.138
2287.0000	451.181
2287.5000	451.136
2288.0000	451.073
2288.5000	451.098
2289.0000	451.131
2289.5000	451.083
2290.0000	451.234
2290.5000	451.139
2291.0000	451.145
2291.5000	451.15
2292.0000	451.096
2292.5000	451.122
2293.0000	451.13
2293.5000	451.32
2294.0000	451.308
2294.5000	451.361
2295.0000	451.37
2295.5000	451.311
2296.0000	451.277
2296.5000	451.294
2297.0000	451.364
2297.5000	451.358
2298.0000	451.427
2298.5000	451.497
2299.0000	451.437
2299.5000	451.43
2300.0000	451.522
2300.5000	451.537
2301.0000	451.559
2301.5000	451.554
2302.0000	451.532
2302.5000	451.451
2303.0000	451.519
2303.5000	451.545
2304.0000	451.546
2304.5000	451.641
2305.0000	451.543
2305.5000	451.6
2306.0000	451.653
2306.5000	451.706
2307.0000	451.778
2307.5000	451.771
2308.0000	451.706
2308.5000	451.784
2309.0000	451.78
2309.5000	451.76
2310.0000	451.778
2310.5000	451.734
2311.0000	451.822
2311.5000	451.818
2312.0000	451.908
2312.5000	451.887
2313.0000	451.87
2313.5000	451.956
2314.0000	451.957
2314.5000	452.023
2315.0000	452.013
2315.5000	452.041
2316.0000	452.099
2316.5000	451.961
2317.0000	452.087
2317.5000	452.118
2318.0000	452.107
2318.5000	452.267
2319.0000	452.253
2319.5000	452.315
2320.0000	452.322
2320.5000	452.31
2321.0000	452.254
2321.5000	452.245
2322.0000	452.264
2322.5000	452.331
2323.0000	452.417
2323.5000	452.4
2324.0000	452.44
2324.5000	452.396
2325.0000	452.389
2325.5000	452.339
2326.0000	452.276
2326.5000	452.349
2327.0000	452.418
2327.5000	452.506
2328.0000	452.553
2328.5000	452.561
2329.0000	452.62
2329.5000	452.613
2330.0000	452.719
2330.5000	452.693
2331.0000	452.614
2331.5000	452.728
2332.0000	452.641
2332.5000	452.722
2333.0000	452.791
2333.5000	452.691
2334.0000	452.74
2334.5000	452.713
2335.0000	452.683
2335.5000	452.728
2336.0000	452.682
2336.5000	452.716
2337.0000	452.743
2337.5000	452.809
2338.0000	452.88
2338.5000	452.847
2339.0000	452.82
2339.5000	452.788
2340.0000	452.745
2340.5000	452.801
2341.0000	452.795
2341.5000	452.769
2342.0000	452.846
2342.5000	452.895
2343.0000	452.932
2343.5000	452.937
2344.0000	452.919
2344.5000	452.883
2345.0000	452.877
2345.5000	452.968
2346.0000	453.043
2346.5000	453.001
2347.0000	453.057
2347.5000	453.015
2348.0000	452.98
2348.5000	453.072
2349.0000	453.099
2349.5000	453.107
2350.0000	453.099
2350.5000	453.161
2351.0000	453.239
2351.5000	453.34
2352.0000	453.375
2352.5000	453.272
2353.0000	453.198
2353.5000	453.06
2354.0000	453.089
2354.5000	453.066
2355.0000	453.126
2355.5000	453.226
2356.0000	453.249
2356.5000	453.324
2357.0000	453.276
2357.5000	453.214
2358.0000	453.221
2358.5000	453.261
2359.0000	453.236
2359.5000	453.322
2360.0000	453.294
2360.5000	453.279
2361.0000	453.307
2361.5000	453.308
2362.0000	453.271
2362.5000	453.288
2363.0000	453.328
2363.5000	453.321
2364.0000	453.333
2364.5000	453.281
2365.0000	453.269
2365.5000	453.276
2366.0000	453.298
2366.5000	453.315
2367.0000	453.306
2367.5000	453.344
2368.0000	453.46
2368.5000	453.45
2369.0000	453.469
2369.5000	453.479
2370.0000	453.436
2370.5000	453.582
2371.0000	453.563
2371.5000	453.628
2372.0000	453.615
2372.5000	453.533
2373.0000	453.677
2373.5000	453.607
2374.0000	453.597
2374.5000	453.589
2375.0000	453.592
2375.5000	453.551
2376.0000	453.567
2376.5000	453.496
2377.0000	453.491
2377.5000	453.554
2378.0000	453.548
2378.5000	453.628
2379.0000	453.551
2379.5000	453.49
2380.0000	453.476
2380.5000	453.45
2381.0000	453.505
2381.5000	453.521
2382.0000	453.533
2382.5000	453.544
2383.0000	453.526
2383.5000	453.524
2384.0000	453.512
2384.5000	453.546
2385.0000	453.541
2385.5000	453.528
2386.0000	453.628
2386.5000	453.676
2387.0000	453.599
2387.5000	453.702
2388.0000	453.637
2388.5000	453.576
2389.0000	453.617
2389.5000	453.633
2390.0000	453.633
2390.5000	453.699
2391.0000	453.699
2391.5000	453.618
2392.0000	453.65
2392.5000	453.568
2393.0000	453.62
2393.5000	453.616
2394.0000	453.606
2394.5000	453.644
2395.0000	453.596
2395.5000	453.705
2396.0000	453.759
2396.5000	453.75
2397.0000	453.726
2397.5000	453.658
2398.0000	453.599
2398.5000	453.645
2399.0000	453.76
2399.5000	453.764
2400.0000	453.873
2400.5000	453.893
2401.0000	453.875
2401.5000	453.982
2402.0000	453.934
2402.5000	453.883
2403.0000	453.873
2403.5000	453.787
2404.0000	453.723
2404.5000	453.762
2405.0000	453.766
2405.5000	453.795
2406.0000	453.83
2406.5000	453.839
2407.0000	453.907
2407.5000	453.908
2408.0000	453.937
2408.5000	453.869
2409.0000	453.824
2409.5000	453.807
2410.0000	453.881
2410.5000	453.955
2411.0000	453.924
2411.5000	453.936
2412.0000	453.859
2412.5000	453.846
2413.0000	453.874
2413.5000	453.879
2414.0000	453.935
2414.5000	453.952
2415.0000	453.933
2415.5000	453.937
2416.0000	453.939
2416.5000	453.951
2417.0000	454.024
2417.5000	454.092
2418.0000	454.027
2418.5000	454.044
2419.0000	453.965
2419.5000	454.008
2420.0000	454.004
2420.5000	454.004
2421.0000	453.997
2421.5000	453.893
2422.0000	453.914
2422.5000	453.996
2423.0000	454.031
2423.5000	454.018
2424.0000	454.08
2424.5000	454
2425.0000	454.055
2425.5000	454.086
2426.0000	454.041
2426.5000	454.057
2427.0000	454.077
2427.5000	454.057
2428.0000	454.101
2428.5000	454.124
2429.0000	454.089
2429.5000	454.117
2430.0000	454.084
2430.5000	454.006
2431.0000	454.04
2431.5000	453.978
2432.0000	453.964
2432.5000	454.108
2433.0000	454.102
2433.5000	454.207
2434.0000	454.285
2434.5000	454.138
2435.0000	454.232
2435.5000	454.206
2436.0000	454.224
2436.5000	454.356
2437.0000	454.294
2437.5000	454.335
2438.0000	454.279
2438.5000	454.24
2439.0000	454.256
2439.5000	454.238
2440.0000	454.178
2440.5000	454.234
2441.0000	454.174
2441.5000	454.189
2442.0000	454.272
2442.5000	454.167
2443.0000	454.179
2443.5000	454.09
2444.0000	454.09
2444.5000	454.201
2445.0000	454.294
2445.5000	454.388
2446.0000	454.414
2446.5000	454.45
2447.0000	454.267
2447.5000	454.328
2448.0000	454.305
2448.5000	454.315
2449.0000	454.421
2449.5000	454.315
2450.0000	454.431
2450.5000	454.406
2451.0000	454.393
2451.5000	454.37
2452.0000	454.33
2452.5000	454.187
2453.0000	454.21
2453.5000	454.295
2454.0000	454.173
2454.5000	454.185
2455.0000	454.15
2455.5000	454.139
2456.0000	454.252
2456.5000	454.414
2457.0000	454.481
2457.5000	454.551
2458.0000	454.532
2458.5000	454.49
2459.0000	454.426
2459.5000	454.385
2460.0000	454.39
2460.5000	454.369
2461.0000	454.359
2461.5000	454.382
2462.0000	454.337
2462.5000	454.342
2463.0000	454.415
2463.5000	454.379
2464.0000	454.382
2464.5000	454.394
2465.0000	454.361
2465.5000	454.401
2466.0000	454.453
2466.5000	454.383
2467.0000	454.433
2467.5000	454.384
2468.0000	454.419
2468.5000	454.524
2469.0000	454.488
2469.5000	454.499
2470.0000	454.448
2470.5000	454.434
2471.0000	454.442
2471.5000	454.505
2472.0000	454.506
2472.5000	454.466
2473.0000	454.527
2473.5000	454.432
2474.0000	454.364
2474.5000	454.383
2475.0000	454.343
2475.5000	454.341
2476.0000	454.459
2476.5000	454.468
2477.0000	454.419
2477.5000	454.49
2478.0000	454.473
2478.5000	454.46
2479.0000	454.512
2479.5000	454.521
2480.0000	454.52
2480.5000	454.531
2481.0000	454.519
2481.5000	454.477
2482.0000	454.498
2482.5000	454.492
2483.0000	454.547
2483.5000	454.579
2484.0000	454.568
2484.5000	454.619
2485.0000	454.59
2485.5000	454.601
2486.0000	454.562
2486.5000	454.548
2487.0000	454.629
2487.5000	454.664
2488.0000	454.659
2488.5000	454.645
2489.0000	454.609
2489.5000	454.594
2490.0000	454.737
2490.5000	454.785
2491.0000	454.827
2491.5000	454.839
2492.0000	454.799
2492.5000	454.77
2493.0000	454.68
2493.5000	454.635
2494.0000	454.582
2494.5000	454.592
2495.0000	454.7
2495.5000	454.72
2496.0000	454.674
2496.5000	454.673
2497.0000	454.653
2497.5000	454.633
2498.0000	454.752
2498.5000	454.77
2499.0000	454.724
2499.5000	454.825
2500.0000	454.752
2500.5000	454.801
2501.0000	454.779
2501.5000	454.688
2502.0000	454.815
2502.5000	454.775
2503.0000	454.845
2503.5000	454.918
2504.0000	454.809
2504.5000	454.815
2505.0000	454.785
2505.5000	454.805
2506.0000	454.865
2506.5000	454.805
2507.0000	454.895
2507.5000	454.897
2508.0000	454.849
2508.5000	454.917
2509.0000	454.818
2509.5000	454.807
2510.0000	454.863
2510.5000	454.866
2511.0000	454.931
2511.5000	454.995
2512.0000	454.972
2512.5000	454.968
2513.0000	454.952
2513.5000	454.856
2514.0000	454.952
2514.5000	455.049
2515.0000	455.033
2515.5000	455.091
2516.0000	455.115
2516.5000	455.064
2517.0000	455.067
2517.5000	455.012
2518.0000	454.972
2518.5000	454.989
2519.0000	455.078
2519.5000	455.166
2520.0000	455.185
2520.5000	455.201
2521.0000	455.161
2521.5000	455.12
2522.0000	455.06
2522.5000	455.075
2523.0000	455.157
2523.5000	455.27
2524.0000	455.293
2524.5000	455.305
2525.0000	455.241
2525.5000	455.269
2526.0000	455.318
2526.5000	455.336
2527.0000	455.351
2527.5000	455.245
2528.0000	455.222
2528.5000	455.271
2529.0000	455.333
2529.5000	455.38
2530.0000	455.461
2530.5000	455.379
2531.0000	455.37
2531.5000	455.351
2532.0000	455.256
2532.5000	455.336
2533.0000	455.406
2533.5000	455.354
2534.0000	455.435
2534.5000	455.412
2535.0000	455.335
2535.5000	455.39
2536.0000	455.464
2536.5000	455.547
2537.0000	455.493
2537.5000	455.623
2538.0000	455.551
2538.5000	455.541
2539.0000	455.652
2539.5000	455.636
2540.0000	455.692
2540.5000	455.68
2541.0000	455.655
2541.5000	455.673
2542.0000	455.652
2542.5000	455.668
2543.0000	455.765
2543.5000	455.771
2544.0000	455.779
2544.5000	455.808
2545.0000	455.825
2545.5000	455.774
2546.0000	455.842
2546.5000	455.836
2547.0000	455.808
2547.5000	455.961
2548.0000	456.007
2548.5000	456.039
2549.0000	456.098
2549.5000	456.089
2550.0000	456.003
2550.5000	456.061
2551.0000	456.087
2551.5000	456.019
2552.0000	456.129
2552.5000	456.155
2553.0000	456.143
2553.5000	456.206
2554.0000	456.205
2554.5000	456.151
2555.0000	456.165
2555.5000	456.117
2556.0000	456.142
2556.5000	456.179
2557.0000	456.226
2557.5000	456.326
2558.0000	456.289
2558.5000	456.295
2559.0000	456.253
2559.5000	456.216
2560.0000	456.207
2560.5000	456.196
2561.0000	456.211
2561.5000	456.246
2562.0000	456.373
2562.5000	456.426
2563.0000	456.554
2563.5000	456.669
2564.0000	456.602
2564.5000	456.64
2565.0000	456.614
2565.5000	456.527
2566.0000	456.569
2566.5000	456.493
2567.0000	456.393
2567.5000	456.481
2568.0000	456.484
2568.5000	456.609
2569.0000	456.697
2569.5000	456.651
2570.0000	456.621
2570.5000	456.659
2571.0000	456.731
2571.5000	456.725
2572.0000	456.735
2572.5000	456.716
2573.0000	456.759
2573.5000	456.809
2574.0000	456.896
2574.5000	456.924
2575.0000	456.845
2575.5000	456.87
2576.0000	456.857
2576.5000	456.785
2577.0000	456.817
2577.5000	456.809
2578.0000	456.856
2578.5000	456.945
2579.0000	456.955
2579.5000	456.92
2580.0000	456.989
2580.5000	456.972
2581.0000	457
2581.5000	457.123
2582.0000	457.107
2582.5000	457.133
2583.0000	457.084
2583.5000	457.098
2584.0000	457.033
2584.5000	457.018
2585.0000	457.104
2585.5000	457.106
2586.0000	457.13
2586.5000	457.173
2587.0000	457.188
2587.5000	457.157
2588.0000	457.152
2588.5000	457.16
2589.0000	457.105
2589.5000	457.199
2590.0000	457.275
2590.5000	457.281
2591.0000	457.358
2591.5000	457.243
2592.0000	457.201
2592.5000	457.192
2593.0000	457.105
2593.5000	457.175
2594.0000	457.227
2594.5000	457.301
2595.0000	457.435
2595.5000	457.381
2596.0000	457.4
2596.5000	457.37
2597.0000	457.318
2597.5000	457.392
2598.0000	457.392
2598.5000	457.323
2599.0000	457.333
2599.5000	457.3
2600.0000	457.169
2600.5000	457.218
2601.0000	457.131
2601.5000	457.065
2602.0000	457.266
2602.5000	457.305
2603.0000	457.456
2603.5000	457.447
2604.0000	457.402
2604.5000	457.404
2605.0000	457.361
2605.5000	457.498
2606.0000	457.555
2606.5000	457.669
2607.0000	457.713
2607.5000	457.649
2608.0000	457.621
2608.5000	457.52
2609.0000	457.482
2609.5000	457.536
2610.0000	457.446
2610.5000	457.506
2611.0000	457.451
2611.5000	457.445
2612.0000	457.583
2612.5000	457.561
2613.0000	457.612
2613.5000	457.607
2614.0000	457.493
2614.5000	457.447
2615.0000	457.416
2615.5000	457.425
2616.0000	457.448
2616.5000	457.384
2617.0000	457.436
2617.5000	457.502
2618.0000	457.521
2618.5000	457.565
2619.0000	457.565
2619.5000	457.501
2620.0000	457.421
2620.5000	457.486
2621.0000	457.47
2621.5000	457.472
2622.0000	457.528
2622.5000	457.553
2623.0000	457.548
2623.5000	457.508
2624.0000	457.631
2624.5000	457.595
2625.0000	457.608
2625.5000	457.719
2626.0000	457.653
2626.5000	457.662
2627.0000	457.617
2627.5000	457.626
2628.0000	457.702
2628.5000	457.657
2629.0000	457.733
2629.5000	457.75
2630.0000	457.775
2630.5000	457.89
2631.0000	457.909
2631.5000	457.882
2632.0000	457.825
2632.5000	457.81
2633.0000	457.835
2633.5000	457.825
2634.0000	457.832
2634.5000	457.822
2635.0000	457.842
2635.5000	457.943
2636.0000	457.834
2636.5000	457.789
2637.0000	457.74
2637.5000	457.539
2638.0000	457.67
2638.5000	457.721
2639.0000	457.833
2639.5000	457.969
2640.0000	457.872
2640.5000	457.869
2641.0000	457.792
2641.5000	457.721
2642.0000	457.763
2642.5000	457.764
2643.0000	457.721
2643.5000	457.862
2644.0000	457.893
2644.5000	457.911
2645.0000	457.998
2645.5000	457.907
2646.0000	457.947
2646.5000	457.922
2647.0000	457.945
2647.5000	457.98
2648.0000	457.982
2648.5000	458
2649.0000	457.94
2649.5000	458.023
2650.0000	457.903
2650.5000	457.981
2651.0000	457.983
2651.5000	457.901
2652.0000	457.909
2652.5000	457.853
2653.0000	457.806
2653.5000	457.759
2654.0000	457.864
2654.5000	457.831
2655.0000	457.892
2655.5000	457.986
2656.0000	457.917
2656.5000	457.918
2657.0000	457.933
2657.5000	457.915
2658.0000	458.018
2658.5000	458.075
2659.0000	458.07
2659.5000	458.068
2660.0000	458.037
2660.5000	458.001
2661.0000	458.033
2661.5000	458.022
2662.0000	458.037
2662.5000	458.093
2663.0000	458.065
2663.5000	458.114
2664.0000	458.19
2664.5000	458.159
2665.0000	458.18
2665.5000	458.069
2666.0000	458.014
2666.5000	458.051
2667.0000	458.066
2667.5000	458.045
2668.0000	458.026
2668.5000	457.965
2669.0000	457.877
2669.5000	458.021
2670.0000	458.062
2670.5000	458.091
2671.0000	458.167
2671.5000	458.129
2672.0000	458.029
2672.5000	458.051
2673.0000	458.055
2673.5000	458.04
2674.0000	458.147
2674.5000	458.109
2675.0000	458.116
2675.5000	458.088
2676.0000	458.078
2676.5000	458.052
2677.0000	458.092
2677.5000	458.189
2678.0000	458.165
2678.5000	458.192
2679.0000	458.163
2679.5000	458.082
2680.0000	458.033
2680.5000	458.182
2681.0000	458.163
2681.5000	458.166
2682.0000	458.279
2682.5000	458.143
2683.0000	458.13
2683.5000	458.177
2684.0000	458.109
2684.5000	458.086
2685.0000	458.134
2685.5000	458.171
2686.0000	458.137
2686.5000	458.189
2687.0000	458.289
2687.5000	458.236
2688.0000	458.214
2688.5000	458.211
2689.0000	458.073
2689.5000	458.038
2690.0000	458.136
2690.5000	458.118
2691.0000	458.173
2691.5000	458.237
2692.0000	458.211
2692.5000	458.23
2693.0000	458.283
2693.5000	458.283
2694.0000	458.333
2694.5000	458.319
2695.0000	458.281
2695.5000	458.294
2696.0000	458.302
2696.5000	458.356
2697.0000	458.324
2697.5000	458.257
2698.0000	458.224
2698.5000	458.156
2699.0000	458.12
2699.5000	458.173
2700.0000	458.105
2700.5000	458.136
2701.0000	458.197
2701.5000	458.173
2702.0000	458.225
2702.5000	458.228
2703.0000	458.198
2703.5000	458.19
2704.0000	458.167
2704.5000	458.178
2705.0000	458.17
2705.5000	458.263
2706.0000	458.277
2706.5000	458.303
2707.0000	458.321
2707.5000	458.332
2708.0000	458.373
2708.5000	458.306
2709.0000	458.319
2709.5000	458.348
2710.0000	458.341
2710.5000	458.439
2711.0000	458.433
2711.5000	458.283
2712.0000	458.255
2712.5000	458.262
2713.0000	458.171
2713.5000	458.298
2714.0000	458.328
2714.5000	458.178
2715.0000	458.256
2715.5000	458.227
2716.0000	458.239
2716.5000	458.409
2717.0000	458.454
2717.5000	458.434
2718.0000	458.35
2718.5000	458.32
2719.0000	458.284
2719.5000	458.342
2720.0000	458.414
2720.5000	458.403
2721.0000	458.418
2721.5000	458.353
2722.0000	458.291
2722.5000	458.278
2723.0000	458.336
2723.5000	458.312
2724.0000	458.392
2724.5000	458.397
2725.0000	458.353
2725.5000	458.389
2726.0000	458.38
2726.5000	458.337
2727.0000	458.367
2727.5000	458.38
2728.0000	458.32
2728.5000	458.465
2729.0000	458.444
2729.5000	458.416
2730.0000	458.517
2730.5000	458.488
2731.0000	458.54
2731.5000	458.669
2732.0000	458.625
2732.5000	458.574
2733.0000	458.491
2733.5000	458.439
2734.0000	458.493
2734.5000	458.485
2735.0000	458.51
2735.5000	458.422
2736.0000	458.435
2736.5000	458.462
2737.0000	458.61
2737.5000	458.711
2738.0000	458.664
2738.5000	458.691
2739.0000	458.62
2739.5000	458.597
2740.0000	458.629
2740.5000	458.603
2741.0000	458.637
2741.5000	458.604
2742.0000	458.635
2742.5000	458.693
2743.0000	458.735
2743.5000	458.751
2744.0000	458.785
2744.5000	458.794
2745.0000	458.655
2745.5000	458.695
2746.0000	458.669
2746.5000	458.627
2747.0000	458.654
2747.5000	458.673
2748.0000	458.705
2748.5000	458.791
2749.0000	458.844
2749.5000	458.867
2750.0000	458.873
2750.5000	458.861
2751.0000	458.84
2751.5000	458.787
2752.0000	458.81
2752.5000	458.787
2753.0000	458.822
2753.5000	458.904
2754.0000	458.941
2754.5000	458.967
2755.0000	459.03
2755.5000	459
2756.0000	459.039
2756.5000	459.006
2757.0000	459.025
2757.5000	459.038
2758.0000	459
2758.5000	459.061
2759.0000	458.969
2759.5000	458.936
2760.0000	458.984
2760.5000	458.999
2761.0000	458.984
2761.5000	459.086
2762.0000	459.118
2762.5000	459.123
2763.0000	459.184
2763.5000	459.155
2764.0000	459.115
2764.5000	459.055
2765.0000	458.987
2765.5000	459.055
2766.0000	459.088
2766.5000	459.129
2767.0000	459.327
2767.5000	459.29
2768.0000	459.305
2768.5000	459.343
2769.0000	459.312
2769.5000	459.275
2770.0000	459.219
2770.5000	459.2
2771.0000	459.138
2771.5000	459.202
2772.0000	459.251
2772.5000	459.267
2773.0000	459.364
2773.5000	459.405
2774.0000	459.354
2774.5000	459.479
2775.0000	459.483
2775.5000	459.474
2776.0000	459.525
2776.5000	459.457
2777.0000	459.46
2777.5000	459.491
2778.0000	459.547
2778.5000	459.503
2779.0000	459.496
2779.5000	459.471
2780.0000	459.506
2780.5000	459.609
2781.0000	459.667
2781.5000	459.735
2782.0000	459.671
2782.5000	459.656
2783.0000	459.577
2783.5000	459.606
2784.0000	459.603
2784.5000	459.55
2785.0000	459.591
2785.5000	459.525
2786.0000	459.597
2786.5000	459.713
2787.0000	459.799
2787.5000	459.807
2788.0000	459.806
2788.5000	459.847
2789.0000	459.779
2789.5000	459.896
2790.0000	459.899
2790.5000	459.786
2791.0000	459.815
2791.5000	459.777
2792.0000	459.823
2792.5000	459.89
2793.0000	459.931
2793.5000	459.957
2794.0000	459.981
2794.5000	459.897
2795.0000	459.894
2795.5000	459.924
2796.0000	459.941
2796.5000	460.105
2797.0000	460.1
2797.5000	459.98
2798.0000	459.953
2798.5000	460.003
2799.0000	460.068
2799.5000	460.141
2800.0000	460.161
2800.5000	460.086
2801.0000	460.043
2801.5000	460.161
2802.0000	460.195
2802.5000	460.122
2803.0000	460.167
2803.5000	460.106
2804.0000	460.056
2804.5000	460.181
2805.0000	460.138
2805.5000	460.157
2806.0000	460.196
2806.5000	460.195
2807.0000	460.31
2807.5000	460.335
2808.0000	460.364
2808.5000	460.394
2809.0000	460.346
2809.5000	460.22
2810.0000	460.207
2810.5000	460.198
2811.0000	460.177
2811.5000	460.3
2812.0000	460.389
2812.5000	460.391
2813.0000	460.424
2813.5000	460.475
2814.0000	460.409
2814.5000	460.473
2815.0000	460.504
2815.5000	460.482
2816.0000	460.499
2816.5000	460.403
2817.0000	460.49
2817.5000	460.471
2818.0000	460.477
2818.5000	460.446
2819.0000	460.379
2819.5000	460.349
2820.0000	460.319
2820.5000	460.333
2821.0000	460.306
2821.5000	460.352
2822.0000	460.329
2822.5000	460.462
2823.0000	460.503
2823.5000	460.524
2824.0000	460.597
2824.5000	460.524
2825.0000	460.435
2825.5000	460.358
2826.0000	460.362
2826.5000	460.452
2827.0000	460.489
2827.5000	460.528
2828.0000	460.508
2828.5000	460.422
2829.0000	460.379
2829.5000	460.441
2830.0000	460.517
2830.5000	460.552
2831.0000	460.648
2831.5000	460.665
2832.0000	460.611
2832.5000	460.592
2833.0000	460.615
2833.5000	460.56
2834.0000	460.566
2834.5000	460.645
2835.0000	460.655
2835.5000	460.636
2836.0000	460.613
2836.5000	460.609
2837.0000	460.718
2837.5000	460.793
2838.0000	460.8
2838.5000	460.751
2839.0000	460.621
2839.5000	460.583
2840.0000	460.654
2840.5000	460.682
2841.0000	460.699
2841.5000	460.709
2842.0000	460.711
2842.5000	460.783
2843.0000	460.765
2843.5000	460.765
2844.0000	460.801
2844.5000	460.679
2845.0000	460.609
2845.5000	460.664
2846.0000	460.593
2846.5000	460.619
2847.0000	460.811
2847.5000	460.806
2848.0000	460.795
2848.5000	460.819
2849.0000	460.738
2849.5000	460.681
2850.0000	460.573
2850.5000	460.514
2851.0000	460.5
2851.5000	460.522
2852.0000	460.662
2852.5000	460.665
2853.0000	460.633
2853.5000	460.623
2854.0000	460.608
2854.5000	460.694
2855.0000	460.729
2855.5000	460.752
2856.0000	460.72
2856.5000	460.684
2857.0000	460.665
2857.5000	460.654
2858.0000	460.686
2858.5000	460.737
2859.0000	460.834
2859.5000	460.837
2860.0000	460.805
2860.5000	460.7
2861.0000	460.69
2861.5000	460.781
2862.0000	460.759
2862.5000	460.975
2863.0000	460.883
2863.5000	460.84
2864.0000	460.975
2864.5000	460.832
2865.0000	460.765
2865.5000	460.772
2866.0000	460.643
2866.5000	460.734
2867.0000	460.892
2867.5000	460.847
2868.0000	460.926
2868.5000	460.816
2869.0000	460.759
2869.5000	460.889
2870.0000	460.9
2870.5000	460.953
2871.0000	460.937
2871.5000	460.874
2872.0000	460.779
2872.5000	460.738
2873.0000	460.765
2873.5000	460.791
2874.0000	460.889
2874.5000	460.873
2875.0000	460.892
2875.5000	460.792
2876.0000	460.838
2876.5000	460.811
2877.0000	460.76
2877.5000	460.75
2878.0000	460.738
2878.5000	460.825
2879.0000	460.902
2879.5000	460.985
2880.0000	460.95
2880.5000	460.847
2881.0000	460.794
2881.5000	460.689
2882.0000	460.685
2882.5000	460.811
2883.0000	460.707
2883.5000	460.791
2884.0000	460.779
2884.5000	460.744
2885.0000	460.876
2885.5000	460.886
2886.0000	461.006
2886.5000	461.011
2887.0000	461.012
2887.5000	461.016
2888.0000	460.854
2888.5000	460.878
2889.0000	460.829
2889.5000	460.864
2890.0000	460.922
2890.5000	460.931
2891.0000	460.988
2891.5000	460.907
2892.0000	460.9
2892.5000	460.866
2893.0000	460.91
2893.5000	460.933
2894.0000	460.929
2894.5000	460.904
2895.0000	460.86
2895.5000	460.896
2896.0000	460.887
2896.5000	460.862
2897.0000	460.877
2897.5000	460.82
2898.0000	460.89
2898.5000	460.941
2899.0000	460.919
2899.5000	460.917
2900.0000	460.774
2900.5000	460.762
2901.0000	460.802
2901.5000	460.853
2902.0000	460.998
2902.5000	461.053
2903.0000	461.008
2903.5000	461.008
2904.0000	460.991
2904.5000	460.898
2905.0000	460.905
2905.5000	460.945
2906.0000	460.972
2906.5000	461.046
2907.0000	461.072
2907.5000	461.026
2908.0000	460.973
2908.5000	460.908
2909.0000	460.835
2909.5000	460.811
2910.0000	460.844
2910.5000	460.909
2911.0000	460.967
2911.5000	461.052
2912.0000	460.978
2912.5000	460.927
2913.0000	460.923
2913.5000	460.844
2914.0000	460.926
2914.5000	460.982
2915.0000	460.893
2915.5000	460.933
2916.0000	460.838
2916.5000	460.818
2917.0000	460.905
2917.5000	460.876
2918.0000	460.91
2918.5000	460.951
2919.0000	460.935
2919.5000	460.91
2920.0000	460.946
2920.5000	460.916
2921.0000	460.92
2921.5000	460.996
2922.0000	460.956
2922.5000	460.928
2923.0000	460.995
2923.5000	460.908
2924.0000	460.803
2924.5000	460.855
2925.0000	460.815
2925.5000	460.77
2926.0000	460.938
2926.5000	460.999
2927.0000	460.992
2927.5000	461.113
2928.0000	461.041
2928.5000	460.95
2929.0000	461.037
2929.5000	461.058
2930.0000	461.072
2930.5000	461.097
2931.0000	461.041
2931.5000	460.9
2932.0000	460.952
2932.5000	460.924
2933.0000	460.878
2933.5000	460.964
2934.0000	460.934
2934.5000	460.917
2935.0000	460.841
2935.5000	460.786
2936.0000	460.741
2936.5000	460.74
2937.0000	460.788
2937.5000	460.867
2938.0000	460.859
2938.5000	460.874
2939.0000	460.781
2939.5000	460.751
2940.0000	460.766
2940.5000	460.829
2941.0000	460.909
2941.5000	460.93
2942.0000	460.955
2942.5000	460.917
2943.0000	461.002
2943.5000	460.999
2944.0000	461.119
2944.5000	461.097
2945.0000	460.981
2945.5000	460.991
2946.0000	460.864
2946.5000	460.863
2947.0000	461.05
2947.5000	461.085
2948.0000	461.019
2948.5000	460.962
2949.0000	460.909
2949.5000	460.87
2950.0000	460.877
2950.5000	460.986
2951.0000	461.013
2951.5000	460.924
2952.0000	461
2952.5000	461.033
2953.0000	460.933
2953.5000	461.062
2954.0000	461.035
2954.5000	460.94
2955.0000	460.984
2955.5000	460.958
2956.0000	460.99
2956.5000	461.008
2957.0000	461.038
2957.5000	461.084
2958.0000	461.116
2958.5000	461.137
2959.0000	461.056
2959.5000	461.042
2960.0000	461.003
2960.5000	460.967
2961.0000	461.091
2961.5000	460.971
2962.0000	460.925
2962.5000	460.956
2963.0000	460.892
2963.5000	460.977
2964.0000	461.034
2964.5000	461.072
2965.0000	461.003
2965.5000	461.082
2966.0000	461.126
2966.5000	461.146
2967.0000	461.216
2967.5000	461.197
2968.0000	461.197
2968.5000	461.128
2969.0000	461.116
2969.5000	461.091
2970.0000	461.061
2970.5000	461.121
2971.0000	461.233
2971.5000	461.216
2972.0000	461.196
2972.5000	461.186
2973.0000	461.152
2973.5000	461.17
2974.0000	461.127
2974.5000	461.172
2975.0000	461.13
2975.5000	461.136
2976.0000	461.254
2976.5000	461.2
2977.0000	461.247
2977.5000	461.251
2978.0000	461.151
2978.5000	461.169
2979.0000	461.122
2979.5000	461.119
2980.0000	461.245
2980.5000	461.287
2981.0000	461.404
2981.5000	461.518
2982.0000	461.55
2982.5000	461.567
2983.0000	461.484
2983.5000	461.377
2984.0000	461.379
2984.5000	461.403
2985.0000	461.419
2985.5000	461.359
2986.0000	461.416
2986.5000	461.376
2987.0000	461.361
2987.5000	461.484
2988.0000	461.338
2988.5000	461.448
2989.0000	461.522
2989.5000	461.551
2990.0000	461.633
2990.5000	461.548
2991.0000	461.598
2991.5000	461.552
2992.0000	461.56
2992.5000	461.621
2993.0000	461.558
2993.5000	461.664
2994.0000	461.771
2994.5000	461.771
2995.0000	461.725
2995.5000	461.752
2996.0000	461.673
2996.5000	461.626
2997.0000	461.661
2997.5000	461.642
2998.0000	461.697
2998.5000	461.744
2999.0000	461.823
2999.5000	461.853
3000.0000	461.857
3000.5000	461.822
3001.0000	461.754
3001.5000	461.71
3002.0000	461.69
3002.5000	461.843
3003.0000	461.907
3003.5000	461.987
3004.0000	462.034
3004.5000	461.971
3005.0000	461.956
3005.5000	461.86
3006.0000	461.833
3006.5000	461.861
3007.0000	461.912
3007.5000	461.914
3008.0000	461.983
3008.5000	461.901
3009.0000	461.883
3009.5000	461.886
3010.0000	461.966
3010.5000	462.018
3011.0000	462.002
3011.5000	462.062
3012.0000	462.005
3012.5000	462.027
3013.0000	462.044
3013.5000	462.117
3014.0000	462.004
3014.5000	462.021
3015.0000	462.084
3015.5000	461.979
3016.0000	462.059
3016.5000	462.099
3017.0000	462.072
3017.5000	462.219
3018.0000	462.209
3018.5000	462.175
3019.0000	462.189
3019.5000	462.094
3020.0000	462.194
3020.5000	462.283
3021.0000	462.294
3021.5000	462.404
3022.0000	462.349
3022.5000	462.243
3023.0000	462.251
3023.5000	462.108
3024.0000	462.225
3024.5000	462.283
3025.0000	462.345
3025.5000	462.454
3026.0000	462.363
3026.5000	462.346
3027.0000	462.261
3027.5000	462.224
3028.0000	462.302
3028.5000	462.223
3029.0000	462.342
3029.5000	462.389
3030.0000	462.286
3030.5000	462.398
3031.0000	462.367
3031.5000	462.363
3032.0000	462.416
3032.5000	462.43
3033.0000	462.494
3033.5000	462.489
3034.0000	462.485
3034.5000	462.491
3035.0000	462.46
3035.5000	462.5
3036.0000	462.435
3036.5000	462.444
3037.0000	462.394
3037.5000	462.325
3038.0000	462.405
3038.5000	462.416
3039.0000	462.417
3039.5000	462.402
3040.0000	462.421
3040.5000	462.384
3041.0000	462.436
3041.5000	462.485
3042.0000	462.489
3042.5000	462.556
3043.0000	462.574
3043.5000	462.556
3044.0000	462.497
3044.5000	462.418
3045.0000	462.307
3045.5000	462.381
3046.0000	462.427
3046.5000	462.414
3047.0000	462.475
3047.5000	462.436
3048.0000	462.42
3048.5000	462.418
3049.0000	462.432
3049.5000	462.504
3050.0000	462.412
3050.5000	462.416
3051.0000	462.423
3051.5000	462.35
3052.0000	462.376
3052.5000	462.467
3053.0000	462.444
3053.5000	462.427
3054.0000	462.438
3054.5000	462.434
3055.0000	462.391
3055.5000	462.348
3056.0000	462.396
3056.5000	462.326
3057.0000	462.329
3057.5000	462.39
3058.0000	462.311
3058.5000	462.378
3059.0000	462.409
3059.5000	462.382
3060.0000	462.48
3060.5000	462.362
3061.0000	462.406
3061.5000	462.425
3062.0000	462.397
3062.5000	462.504
3063.0000	462.41
3063.5000	462.355
3064.0000	462.369
3064.5000	462.322
3065.0000	462.334
3065.5000	462.425
3066.0000	462.419
3066.5000	462.445
3067.0000	462.55
3067.5000	462.449
3068.0000	462.419
3068.5000	462.383
3069.0000	462.362
3069.5000	462.455
3070.0000	462.44
3070.5000	462.448
3071.0000	462.404
3071.5000	462.284
3072.0000	462.361
3072.5000	462.46
3073.0000	462.44
3073.5000	462.548
3074.0000	462.476
3074.5000	462.375
3075.0000	462.288
3075.5000	462.245
3076.0000	462.311
3076.5000	462.111
3077.0000	462.214
3077.5000	462.225
3078.0000	462.111
3078.5000	462.203
3079.0000	462.239
3079.5000	462.273
3080.0000	462.293
3080.5000	462.429
3081.0000	462.346
3081.5000	462.273
3082.0000	462.323
3082.5000	462.282
3083.0000	462.317
3083.5000	462.41
3084.0000	462.419
3084.5000	462.482
3085.0000	462.467
3085.5000	462.438
3086.0000	462.41
3086.5000	462.337
3087.0000	462.314
3087.5000	462.287
3088.0000	462.341
3088.5000	462.365
3089.0000	462.375
3089.5000	462.403
3090.0000	462.421
3090.5000	462.485
3091.0000	462.472
3091.5000	462.484
3092.0000	462.437
3092.5000	462.383
3093.0000	462.378
3093.5000	462.345
3094.0000	462.395
3094.5000	462.372
3095.0000	462.395
3095.5000	462.428
3096.0000	462.392
3096.5000	462.447
3097.0000	462.408
3097.5000	462.357
3098.0000	462.38
3098.5000	462.295
3099.0000	462.372
3099.5000	462.336
3100.0000	462.323
3100.5000	462.367
3101.0000	462.369
3101.5000	462.357
3102.0000	462.34
3102.5000	462.326
3103.0000	462.238
3103.5000	462.335
3104.0000	462.305
3104.5000	462.275
3105.0000	462.316
3105.5000	462.246
3106.0000	462.221
3106.5000	462.238
3107.0000	462.212
3107.5000	462.28
3108.0000	462.315
3108.5000	462.302
3109.0000	462.317
3109.5000	462.217
3110.0000	462.145
3110.5000	462.191
3111.0000	462.252
3111.5000	462.311
3112.0000	462.446
3112.5000	462.392
3113.0000	462.29
3113.5000	462.253
3114.0000	462.198
3114.5000	462.269
3115.0000	462.359
3115.5000	462.416
3116.0000	462.418
3116.5000	462.363
3117.0000	462.387
3117.5000	462.371
3118.0000	462.324
3118.5000	462.371
3119.0000	462.302
3119.5000	462.302
3120.0000	462.356
3120.5000	462.292
3121.0000	462.356
3121.5000	462.25
3122.0000	462.265
3122.5000	462.191
3123.0000	462.103
3123.5000	462.172
3124.0000	462.077
3124.5000	462.182
3125.0000	462.23
3125.5000	462.308
3126.0000	462.334
3126.5000	462.324
3127.0000	462.29
3127.5000	462.162
3128.0000	462.231
3128.5000	462.23
3129.0000	462.316
3129.5000	462.268
3130.0000	462.18
3130.5000	462.2
3131.0000	462.127
3131.5000	462.218
3132.0000	462.227
3132.5000	462.187
3133.0000	462.19
3133.5000	462.183
3134.0000	462.228
3134.5000	462.323
3135.0000	462.336
3135.5000	462.249
3136.0000	462.216
3136.5000	462.146
3137.0000	462.156
3137.5000	462.2
3138.0000	462.099
3138.5000	462.089
3139.0000	461.991
3139.5000	462.078
3140.0000	462.188
3140.5000	462.151
3141.0000	462.19
3141.5000	462.121
3142.0000	462.097
3142.5000	462.105
3143.0000	462.064
3143.5000	462.091
3144.0000	462.096
3144.5000	462.087
3145.0000	462.159
3145.5000	462.14
3146.0000	462.178
3146.5000	462.183
3147.0000	462.214
3147.5000	462.213
3148.0000	462.105
3148.5000	462.09
3149.0000	462.016
3149.5000	461.979
3150.0000	462.089
3150.5000	462.08
3151.0000	462.081
3151.5000	462.177
3152.0000	462.088
3152.5000	462.116
3153.0000	462.147
3153.5000	462.055
3154.0000	462.142
3154.5000	462.171
3155.0000	462.158
3155.5000	462.298
3156.0000	462.268
3156.5000	462.23
3157.0000	462.246
3157.5000	462.147
3158.0000	462.057
3158.5000	462.042
3159.0000	462.092
3159.5000	462.119
3160.0000	462.235
3160.5000	462.312
3161.0000	462.188
3161.5000	462.229
3162.0000	462.221
3162.5000	462.188
3163.0000	462.243
3163.5000	462.227
3164.0000	462.173
3164.5000	462.137
3165.0000	462.103
3165.5000	462.021
3166.0000	462.02
3166.5000	462.097
3167.0000	462.156
3167.5000	462.181
3168.0000	462.262
3168.5000	462.306
3169.0000	462.396
3169.5000	462.365
3170.0000	462.227
3170.5000	462.101
3171.0000	461.945
3171.5000	461.96
3172.0000	462.016
3172.5000	462.115
3173.0000	462.221
3173.5000	462.295
3174.0000	462.311
3174.5000	462.217
3175.0000	462.132
3175.5000	462.098
3176.0000	462.133
3176.5000	462.118
3177.0000	462.126
3177.5000	462.113
3178.0000	462.069
3178.5000	462.081
3179.0000	462.067
3179.5000	462.077
3180.0000	462.136
3180.5000	462.148
3181.0000	462.159
3181.5000	462.157
3182.0000	462.187
3182.5000	462.192
3183.0000	462.242
3183.5000	462.204
3184.0000	462.165
3184.5000	462.227
3185.0000	462.135
3185.5000	462.12
3186.0000	462.082
3186.5000	462.042
3187.0000	462.098
3187.5000	462.151
3188.0000	462.21
3188.5000	462.208
3189.0000	462.246
3189.5000	462.206
3190.0000	462.228
3190.5000	462.212
3191.0000	462.229
3191.5000	462.207
3192.0000	462.18
3192.5000	462.198
3193.0000	462.143
3193.5000	462.22
3194.0000	462.241
3194.5000	462.276
3195.0000	462.261
3195.5000	462.272
3196.0000	462.228
3196.5000	462.266
3197.0000	462.286
3197.5000	462.362
3198.0000	462.434
3198.5000	462.389
3199.0000	462.409
3199.5000	462.346
3200.0000	462.243
3200.5000	462.175
3201.0000	462.214
3201.5000	462.129
3202.0000	462.218
3202.5000	462.261
3203.0000	462.241
3203.5000	462.34
3204.0000	462.331
3204.5000	462.434
3205.0000	462.408
3205.5000	462.395
3206.0000	462.468
3206.5000	462.426
3207.0000	462.463
3207.5000	462.525
3208.0000	462.442
3208.5000	462.426
3209.0000	462.482
3209.5000	462.349
3210.0000	462.367
3210.5000	462.407
3211.0000	462.444
3211.5000	462.534
3212.0000	462.501
3212.5000	462.535
3213.0000	462.485
3213.5000	462.491
3214.0000	462.545
3214.5000	462.554
3215.0000	462.537
3215.5000	462.591
3216.0000	462.553
3216.5000	462.567
3217.0000	462.725
3217.5000	462.715
3218.0000	462.748
3218.5000	462.7
3219.0000	462.63
3219.5000	462.606
3220.0000	462.569
3220.5000	462.612
3221.0000	462.61
3221.5000	462.743
3222.0000	462.843
3222.5000	462.864
3223.0000	462.822
3223.5000	462.689
3224.0000	462.752
3224.5000	462.686
3225.0000	462.659
3225.5000	462.73
3226.0000	462.596
3226.5000	462.629
3227.0000	462.712
3227.5000	462.718
3228.0000	462.784
3228.5000	462.807
3229.0000	462.787
3229.5000	462.746
3230.0000	462.791
3230.5000	462.871
3231.0000	462.926
3231.5000	462.985
3232.0000	462.942
3232.5000	462.826
3233.0000	462.831
3233.5000	462.777
3234.0000	462.821
3234.5000	462.795
3235.0000	462.794
3235.5000	462.855
3236.0000	462.878
3236.5000	462.92
3237.0000	462.975
3237.5000	462.996
3238.0000	462.935
3238.5000	463.025
3239.0000	463.004
3239.5000	463.085
3240.0000	463.143
3240.5000	463.142
3241.0000	463.146
3241.5000	463.072
3242.0000	463.132
3242.5000	463.123
3243.0000	463.087
3243.5000	463.072
3244.0000	462.943
3244.5000	462.935
3245.0000	462.964
3245.5000	462.979
3246.0000	463.106
3246.5000	463.147
3247.0000	463.068
3247.5000	463.039
3248.0000	463.092
3248.5000	463.115
3249.0000	463.249
3249.5000	463.316
3250.0000	463.326
3250.5000	463.248
3251.0000	463.181
3251.5000	463.194
3252.0000	463.142
3252.5000	463.165
3253.0000	463.199
3253.5000	463.16
3254.0000	463.23
3254.5000	463.2
3255.0000	463.215
3255.5000	463.258
3256.0000	463.191
3256.5000	463.244
3257.0000	463.215
3257.5000	463.329
3258.0000	463.291
3258.5000	463.36
3259.0000	463.425
3259.5000	463.231
3260.0000	463.239
3260.5000	463.245
3261.0000	463.188
3261.5000	463.332
3262.0000	463.38
3262.5000	463.333
3263.0000	463.275
3263.5000	463.189
3264.0000	463.139
3264.5000	463.12
3265.0000	463.148
3265.5000	463.192
3266.0000	463.136
3266.5000	463.22
3267.0000	463.265
3267.5000	463.183
3268.0000	463.273
3268.5000	463.126
3269.0000	463.122
3269.5000	463.154
3270.0000	463.146
3270.5000	463.238
3271.0000	463.243
3271.5000	463.274
3272.0000	463.204
3272.5000	463.236
3273.0000	463.237
3273.5000	463.186
3274.0000	463.231
3274.5000	463.205
3275.0000	463.177
3275.5000	463.314
3276.0000	463.356
3276.5000	463.349
3277.0000	463.384
3277.5000	463.291
3278.0000	463.216
3278.5000	463.225
3279.0000	463.146
3279.5000	463.095
3280.0000	463.082
3280.5000	463.071
3281.0000	463.074
3281.5000	463.028
3282.0000	463.078
3282.5000	463.087
3283.0000	463.099
3283.5000	463.14
3284.0000	463.033
3284.5000	462.934
3285.0000	463.04
3285.5000	463.025
3286.0000	463.117
3286.5000	463.221
3287.0000	463.101
3287.5000	463.101
3288.0000	463.065
3288.5000	463.074
3289.0000	463.082
3289.5000	463.131
3290.0000	463.166
3290.5000	463.123
3291.0000	463.088
3291.5000	463.047
3292.0000	463.002
3292.5000	462.97
3293.0000	462.99
3293.5000	462.97
3294.0000	462.934
3294.5000	462.901
3295.0000	462.935
3295.5000	462.946
3296.0000	463.015
3296.5000	463.031
3297.0000	463.017
3297.5000	463.023
3298.0000	463.054
3298.5000	463.042
3299.0000	463.014
3299.5000	463.037
3300.0000	463.02
3300.5000	463.092
3301.0000	463.11
3301.5000	463.084
3302.0000	463.144
3302.5000	463.079
3303.0000	463.065
3303.5000	463.046
3304.0000	462.957
3304.5000	463.006
3305.0000	462.996
3305.5000	462.99
3306.0000	463.02
3306.5000	462.863
3307.0000	462.886
3307.5000	462.892
3308.0000	462.906
3308.5000	463.056
3309.0000	463.014
3309.5000	463.021
3310.0000	463.037
3310.5000	462.917
3311.0000	462.91
3311.5000	462.934
3312.0000	462.899
3312.5000	462.915
3313.0000	462.927
3313.5000	462.919
3314.0000	462.878
3314.5000	462.875
3315.0000	462.993
3315.5000	463.03
3316.0000	462.936
3316.5000	463.019
3317.0000	462.849
3317.5000	462.762
3318.0000	462.818
3318.5000	462.845
3319.0000	462.822
3319.5000	462.873
3320.0000	462.922
3320.5000	462.769
3321.0000	462.89
3321.5000	462.867
3322.0000	462.818
3322.5000	462.916
3323.0000	462.829
3323.5000	462.799
3324.0000	462.842
3324.5000	462.85
3325.0000	463.013
3325.5000	463.046
3326.0000	462.979
3326.5000	462.879
3327.0000	462.721
3327.5000	462.676
3328.0000	462.698
3328.5000	462.817
3329.0000	462.859
3329.5000	462.856
3330.0000	462.857
3330.5000	462.779
3331.0000	462.785
3331.5000	462.798
3332.0000	462.844
3332.5000	462.948
3333.0000	462.896
3333.5000	462.918
3334.0000	462.847
3334.5000	462.786
3335.0000	462.779
3335.5000	462.72
3336.0000	462.792
3336.5000	462.795
3337.0000	462.795
3337.5000	462.841
3338.0000	462.8
3338.5000	462.794
3339.0000	462.747
3339.5000	462.724
3340.0000	462.71
3340.5000	462.724
3341.0000	462.792
3341.5000	462.875
3342.0000	462.891
3342.5000	462.818
3343.0000	462.802
3343.5000	462.781
3344.0000	462.712
3344.5000	462.732
3345.0000	462.754
3345.5000	462.719
3346.0000	462.798
3346.5000	462.812
3347.0000	462.757
3347.5000	462.811
3348.0000	462.761
3348.5000	462.734
3349.0000	462.775
3349.5000	462.704
3350.0000	462.67
3350.5000	462.724
3351.0000	462.7
3351.5000	462.625
3352.0000	462.707
3352.5000	462.646
3353.0000	462.699
3353.5000	462.728
3354.0000	462.692
3354.5000	462.686
3355.0000	462.588
3355.5000	462.628
3356.0000	462.655
3356.5000	462.662
3357.0000	462.715
3357.5000	462.682
3358.0000	462.666
3358.5000	462.693
3359.0000	462.667
3359.5000	462.564
3360.0000	462.522
3360.5000	462.506
3361.0000	462.566
3361.5000	462.582
3362.0000	462.53
3362.5000	462.507
3363.0000	462.421
3363.5000	462.431
3364.0000	462.489
3364.5000	462.537
3365.0000	462.493
3365.5000	462.563
3366.0000	462.555
3366.5000	462.49
3367.0000	462.604
3367.5000	462.694
3368.0000	462.632
3368.5000	462.618
3369.0000	462.547
3369.5000	462.479
3370.0000	462.504
3370.5000	462.59
3371.0000	462.559
3371.5000	462.555
3372.0000	462.63
3372.5000	462.57
3373.0000	462.652
3373.5000	462.63
3374.0000	462.572
3374.5000	462.57
3375.0000	462.516
3375.5000	462.47
3376.0000	462.391
3376.5000	462.339
3377.0000	462.347
3377.5000	462.324
3378.0000	462.442
3378.5000	462.489
3379.0000	462.483
3379.5000	462.461
3380.0000	462.448
3380.5000	462.51
3381.0000	462.426
3381.5000	462.48
3382.0000	462.43
3382.5000	462.361
3383.0000	462.332
3383.5000	462.28
3384.0000	462.301
3384.5000	462.232
3385.0000	462.311
3385.5000	462.419
3386.0000	462.372
3386.5000	462.455
3387.0000	462.502
3387.5000	462.512
3388.0000	462.548
3388.5000	462.462
3389.0000	462.438
3389.5000	462.302
3390.0000	462.291
3390.5000	462.332
3391.0000	462.345
3391.5000	462.413
3392.0000	462.411
3392.5000	462.524
3393.0000	462.451
3393.5000	462.423
3394.0000	462.515
3394.5000	462.445
3395.0000	462.465
3395.5000	462.508
3396.0000	462.41
3396.5000	462.281
3397.0000	462.286
3397.5000	462.246
3398.0000	462.207
3398.5000	462.336
3399.0000	462.448
3399.5000	462.491
3400.0000	462.51
3400.5000	462.443
3401.0000	462.393
3401.5000	462.382
3402.0000	462.393
3402.5000	462.388
3403.0000	462.296
3403.5000	462.245
3404.0000	462.205
3404.5000	462.245
3405.0000	462.28
3405.5000	462.339
3406.0000	462.401
3406.5000	462.398
3407.0000	462.402
3407.5000	462.393
3408.0000	462.34
3408.5000	462.308
3409.0000	462.351
3409.5000	462.274
3410.0000	462.337
3410.5000	462.305
3411.0000	462.212
3411.5000	462.345
3412.0000	462.327
3412.5000	462.403
3413.0000	462.498
3413.5000	462.382
3414.0000	462.426
3414.5000	462.481
3415.0000	462.451
3415.5000	462.432
3416.0000	462.413
3416.5000	462.344
3417.0000	462.336
3417.5000	462.421
3418.0000	462.527
3418.5000	462.509
3419.0000	462.533
3419.5000	462.6
3420.0000	462.419
3420.5000	462.508
3421.0000	462.487
3421.5000	462.432
3422.0000	462.509
3422.5000	462.484
3423.0000	462.471
3423.5000	462.458
3424.0000	462.475
3424.5000	462.48
3425.0000	462.555
3425.5000	462.533
3426.0000	462.569
3426.5000	462.479
3427.0000	462.493
3427.5000	462.545
3428.0000	462.514
3428.5000	462.568
3429.0000	462.625
3429.5000	462.648
3430.0000	462.587
3430.5000	462.597
3431.0000	462.522
3431.5000	462.505
3432.0000	462.578
3432.5000	462.631
3433.0000	462.686
3433.5000	462.654
3434.0000	462.605
3434.5000	462.595
3435.0000	462.54
3435.5000	462.578
3436.0000	462.634
3436.5000	462.606
3437.0000	462.67
3437.5000	462.726
3438.0000	462.726
3438.5000	462.72
3439.0000	462.664
3439.5000	462.67
3440.0000	462.6
3440.5000	462.609
3441.0000	462.659
3441.5000	462.699
3442.0000	462.792
3442.5000	462.906
3443.0000	462.878
3443.5000	462.837
3444.0000	462.787
3444.5000	462.781
3445.0000	462.826
3445.5000	462.727
3446.0000	462.743
3446.5000	462.692
3447.0000	462.719
3447.5000	462.879
3448.0000	462.93
3448.5000	463.033
3449.0000	463.009
3449.5000	462.962
3450.0000	462.887
3450.5000	462.807
3451.0000	462.806
3451.5000	462.809
3452.0000	462.965
3452.5000	463.077
3453.0000	463.122
3453.5000	463.197
3454.0000	463.23
3454.5000	463.223
3455.0000	463.208
3455.5000	463.158
3456.0000	463.113
3456.5000	463.082
3457.0000	463.119
3457.5000	463.109
3458.0000	463.075
3458.5000	463.052
3459.0000	462.991
3459.5000	463.036
3460.0000	463.003
3460.5000	462.991
3461.0000	463.121
3461.5000	463.093
3462.0000	463.12
3462.5000	463.15
3463.0000	463.129
3463.5000	463.213
3464.0000	463.212
3464.5000	463.207
3465.0000	463.132
3465.5000	463.15
3466.0000	463.265
3466.5000	463.254
3467.0000	463.29
3467.5000	463.249
3468.0000	463.193
3468.5000	463.262
3469.0000	463.244
3469.5000	463.214
3470.0000	463.22
3470.5000	463.181
3471.0000	463.2
3471.5000	463.341
3472.0000	463.395
3472.5000	463.488
3473.0000	463.464
3473.5000	463.313
3474.0000	463.355
3474.5000	463.312
3475.0000	463.293
3475.5000	463.366
3476.0000	463.341
3476.5000	463.283
3477.0000	463.376
3477.5000	463.311
3478.0000	463.367
3478.5000	463.378
3479.0000	463.316
3479.5000	463.422
3480.0000	463.323
3480.5000	463.351
3481.0000	463.433
3481.5000	463.398
3482.0000	463.334
3482.5000	463.364
3483.0000	463.334
3483.5000	463.361
3484.0000	463.453
3484.5000	463.454
3485.0000	463.456
3485.5000	463.487
3486.0000	463.519
3486.5000	463.452
3487.0000	463.486
3487.5000	463.454
3488.0000	463.47
3488.5000	463.521
3489.0000	463.465
3489.5000	463.45
3490.0000	463.424
3490.5000	463.477
3491.0000	463.508
3491.5000	463.5
3492.0000	463.58
3492.5000	463.503
3493.0000	463.463
3493.5000	463.541
3494.0000	463.445
3494.5000	463.471
3495.0000	463.573
3495.5000	463.41
3496.0000	463.387
3496.5000	463.38
3497.0000	463.304
3497.5000	463.42
3498.0000	463.339
3498.5000	463.372
3499.0000	463.372
3499.5000	463.353
3500.0000	463.519
3500.5000	463.486
3501.0000	463.548
3501.5000	463.483
3502.0000	463.381
3502.5000	463.336
3503.0000	463.271
3503.5000	463.368
3504.0000	463.396
3504.5000	463.414
3505.0000	463.406
3505.5000	463.363
3506.0000	463.294
3506.5000	463.302
3507.0000	463.341
3507.5000	463.244
3508.0000	463.243
3508.5000	463.322
3509.0000	463.211
3509.5000	463.265
3510.0000	463.327
3510.5000	463.281
3511.0000	463.343
3511.5000	463.368
3512.0000	463.38
3512.5000	463.397
3513.0000	463.421
3513.5000	463.458
3514.0000	463.417
3514.5000	463.303
3515.0000	463.344
3515.5000	463.288
3516.0000	463.26
3516.5000	463.326
3517.0000	463.288
3517.5000	463.249
3518.0000	463.317
3518.5000	463.294
3519.0000	463.309
3519.5000	463.337
3520.0000	463.352
3520.5000	463.36
3521.0000	463.232
3521.5000	463.256
3522.0000	463.118
3522.5000	463.101
3523.0000	463.209
3523.5000	463.151
3524.0000	463.214
3524.5000	463.316
3525.0000	463.264
3525.5000	463.247
3526.0000	463.2
3526.5000	463.077
3527.0000	463.116
3527.5000	463.201
3528.0000	463.25
3528.5000	463.312
3529.0000	463.292
3529.5000	463.246
3530.0000	463.292
3530.5000	463.207
3531.0000	463.222
3531.5000	463.183
3532.0000	463.095
3532.5000	463.126
3533.0000	463.114
3533.5000	463.042
3534.0000	463.071
3534.5000	463.142
3535.0000	463.121
3535.5000	463.18
3536.0000	463.227
3536.5000	463.276
3537.0000	463.21
3537.5000	463.261
3538.0000	463.154
3538.5000	462.989
3539.0000	462.999
3539.5000	462.9
3540.0000	463.023
3540.5000	463.046
3541.0000	463.072
3541.5000	463.179
3542.0000	463.07
3542.5000	463.095
3543.0000	463.099
3543.5000	463.031
3544.0000	462.987
3544.5000	463.004
3545.0000	463.019
3545.5000	463.092
3546.0000	463.172
3546.5000	463.093
3547.0000	462.984
3547.5000	462.844
3548.0000	462.829
3548.5000	462.821
3549.0000	462.879
3549.5000	462.985
3550.0000	462.917
3550.5000	462.96
3551.0000	463.002
3551.5000	462.945
3552.0000	463.03
3552.5000	462.972
3553.0000	462.934
3553.5000	462.912
3554.0000	462.924
3554.5000	462.942
3555.0000	462.981
3555.5000	462.947
3556.0000	462.89
3556.5000	462.884
3557.0000	462.773
3557.5000	462.719
3558.0000	462.732
3558.5000	462.697
3559.0000	462.71
3559.5000	462.816
3560.0000	462.79
3560.5000	462.787
3561.0000	462.812
3561.5000	462.789
3562.0000	462.782
3562.5000	462.873
3563.0000	462.844
3563.5000	462.738
3564.0000	462.729
3564.5000	462.667
3565.0000	462.725
3565.5000	462.853
3566.0000	462.854
3566.5000	462.81
3567.0000	462.801
3567.5000	462.778
3568.0000	462.694
3568.5000	462.708
3569.0000	462.664
3569.5000	462.625
3570.0000	462.712
3570.5000	462.734
3571.0000	462.741
3571.5000	462.778
3572.0000	462.708
3572.5000	462.72
3573.0000	462.728
3573.5000	462.784
3574.0000	462.782
3574.5000	462.768
3575.0000	462.806
3575.5000	462.662
3576.0000	462.674
3576.5000	462.724
3577.0000	462.654
3577.5000	462.715
3578.0000	462.692
3578.5000	462.665
3579.0000	462.685
3579.5000	462.677
3580.0000	462.711
3580.5000	462.631
3581.0000	462.648
3581.5000	462.627
3582.0000	462.541
3582.5000	462.564
3583.0000	462.444
3583.5000	462.453
3584.0000	462.519
3584.5000	462.504
3585.0000	462.571
3585.5000	462.571
3586.0000	462.596
3586.5000	462.583
3587.0000	462.5
3587.5000	462.455
3588.0000	462.392
3588.5000	462.343
3589.0000	462.48
3589.5000	462.486
3590.0000	462.485
3590.5000	462.578
3591.0000	462.465
3591.5000	462.556
3592.0000	462.624
3592.5000	462.687
3593.0000	462.749
3593.5000	462.675
3594.0000	462.689
3594.5000	462.558
3595.0000	462.509
3595.5000	462.519
3596.0000	462.42
3596.5000	462.427
3597.0000	462.391
3597.5000	462.287
3598.0000	462.336
3598.5000	462.246
3599.0000	462.315
3599.5000	462.339
3600.0000	462.308
3600.5000	462.395
3601.0000	462.415
3601.5000	462.381
3602.0000	462.369
3602.5000	462.414
3603.0000	462.472
3603.5000	462.546
3604.0000	462.566
3604.5000	462.579
3605.0000	462.438
3605.5000	462.427
3606.0000	462.522
3606.5000	462.474
3607.0000	462.438
3607.5000	462.456
3608.0000	462.359
3608.5000	462.317
3609.0000	462.401
3609.5000	462.399
3610.0000	462.303
3610.5000	462.285
3611.0000	462.226
3611.5000	462.192
3612.0000	462.261
3612.5000	462.307
3613.0000	462.343
3613.5000	462.36
3614.0000	462.38
3614.5000	462.316
3615.0000	462.273
3615.5000	462.206
3616.0000	462.21
3616.5000	462.242
3617.0000	462.323
3617.5000	462.357
3618.0000	462.306
3618.5000	462.275
3619.0000	462.198
3619.5000	462.197
3620.0000	462.252
3620.5000	462.235
3621.0000	462.253
3621.5000	462.26
3622.0000	462.167
3622.5000	462.232
3623.0000	462.268
3623.5000	462.376
3624.0000	462.438
3624.5000	462.447
3625.0000	462.397
3625.5000	462.299
3626.0000	462.314
3626.5000	462.324
3627.0000	462.349
3627.5000	462.416
3628.0000	462.409
3628.5000	462.363
3629.0000	462.324
3629.5000	462.266
3630.0000	462.186
3630.5000	462.198
3631.0000	462.274
3631.5000	462.234
3632.0000	462.323
3632.5000	462.28
3633.0000	462.166
3633.5000	462.167
3634.0000	462.164
3634.5000	462.222
3635.0000	462.296
3635.5000	462.274
3636.0000	462.282
3636.5000	462.31
3637.0000	462.331
3637.5000	462.338
3638.0000	462.353
3638.5000	462.259
3639.0000	462.231
3639.5000	462.275
3640.0000	462.224
3640.5000	462.302
3641.0000	462.336
3641.5000	462.307
3642.0000	462.228
3642.5000	462.146
3643.0000	462.08
3643.5000	462.102
3644.0000	462.209
3644.5000	462.232
3645.0000	462.226
3645.5000	462.276
3646.0000	462.204
3646.5000	462.213
3647.0000	462.229
3647.5000	462.214
3648.0000	462.277
3648.5000	462.253
3649.0000	462.313
3649.5000	462.339
3650.0000	462.292
3650.5000	462.342
3651.0000	462.359
3651.5000	462.339
3652.0000	462.4
3652.5000	462.379
3653.0000	462.323
3653.5000	462.33
3654.0000	462.321
3654.5000	462.319
3655.0000	462.319
3655.5000	462.302
3656.0000	462.393
3656.5000	462.404
3657.0000	462.467
3657.5000	462.482
3658.0000	462.428
3658.5000	462.432
3659.0000	462.365
3659.5000	462.363
3660.0000	462.371
3660.5000	462.483
3661.0000	462.503
3661.5000	462.485
3662.0000	462.498
3662.5000	462.412
3663.0000	462.423
3663.5000	462.486
3664.0000	462.486
3664.5000	462.532
3665.0000	462.547
3665.5000	462.546
3666.0000	462.58
3666.5000	462.559
3667.0000	462.679
3667.5000	462.625
3668.0000	462.63
3668.5000	462.643
3669.0000	462.497
3669.5000	462.473
3670.0000	462.397
3670.5000	462.488
3671.0000	462.618
3671.5000	462.741
3672.0000	462.77
3672.5000	462.747
3673.0000	462.708
3673.5000	462.729
3674.0000	462.73
3674.5000	462.695
3675.0000	462.742
3675.5000	462.702
3676.0000	462.741
3676.5000	462.705
3677.0000	462.681
3677.5000	462.665
3678.0000	462.668
3678.5000	462.743
3679.0000	462.694
3679.5000	462.802
3680.0000	462.8
3680.5000	462.809
3681.0000	462.872
3681.5000	462.805
3682.0000	462.889
3682.5000	462.912
3683.0000	462.921
3683.5000	462.902
3684.0000	462.833
3684.5000	462.84
3685.0000	462.852
3685.5000	462.952
3686.0000	462.949
3686.5000	462.875
3687.0000	462.853
3687.5000	462.833
3688.0000	462.876
3688.5000	462.898
3689.0000	462.952
3689.5000	462.901
3690.0000	462.898
3690.5000	462.868
3691.0000	462.84
3691.5000	462.894
3692.0000	462.915
3692.5000	463.012
3693.0000	463.077
3693.5000	463.075
3694.0000	463.07
3694.5000	463.086
3695.0000	463.034
3695.5000	463.047
3696.0000	463.071
3696.5000	463.071
3697.0000	463.03
3697.5000	463.039
3698.0000	463.008
3698.5000	462.964
3699.0000	463.006
3699.5000	463.029
3700.0000	463.08
3700.5000	463.112
3701.0000	463.119
3701.5000	463.083
3702.0000	463.085
3702.5000	463.013
3703.0000	462.943
3703.5000	462.931
3704.0000	462.94
3704.5000	463.07
3705.0000	463.194
3705.5000	463.226
3706.0000	463.095
3706.5000	462.956
3707.0000	462.865
3707.5000	462.845
3708.0000	463.052
3708.5000	463.161
3709.0000	463.223
3709.5000	463.215
3710.0000	463.111
3710.5000	463.047
3711.0000	463.044
3711.5000	463.094
3712.0000	463.034
3712.5000	463.083
3713.0000	463.077
3713.5000	463.059
3714.0000	463.081
3714.5000	463.011
3715.0000	463.037
3715.5000	463.002
3716.0000	463.031
3716.5000	463.124
3717.0000	463.114
3717.5000	463.158
3718.0000	463.228
3718.5000	463.227
3719.0000	463.15
3719.5000	463.12
3720.0000	463.036
3720.5000	463.009
3721.0000	463.018
3721.5000	462.987
3722.0000	463.091
3722.5000	463.098
3723.0000	463.091
3723.5000	463.119
3724.0000	463.081
3724.5000	463.103
3725.0000	463.152
3725.5000	463.256
3726.0000	463.252
3726.5000	463.191
3727.0000	463.218
3727.5000	463.136
3728.0000	463.072
3728.5000	463.123
3729.0000	463.177
3729.5000	463.181
3730.0000	463.221
3730.5000	463.189
3731.0000	463.094
3731.5000	463.036
3732.0000	463.074
3732.5000	463.091
3733.0000	463.162
3733.5000	463.152
3734.0000	463.121
3734.5000	463.082
3735.0000	463.001
3735.5000	463.038
3736.0000	463.058
3736.5000	463.146
3737.0000	463.222
3737.5000	463.191
3738.0000	463.107
3738.5000	463.064
3739.0000	463.011
3739.5000	463.001
3740.0000	462.996
3740.5000	462.907
3741.0000	462.922
3741.5000	463
3742.0000	462.954
3742.5000	463.057
3743.0000	463.002
3743.5000	462.916
3744.0000	463.086
3744.5000	462.996
3745.0000	462.924
3745.5000	462.943
3746.0000	462.813
3746.5000	462.904
3747.0000	462.978
3747.5000	463.003
3748.0000	462.957
3748.5000	462.872
3749.0000	462.827
3749.5000	462.758
3750.0000	462.796
3750.5000	462.831
3751.0000	462.857
3751.5000	462.875
3752.0000	462.837
3752.5000	462.797
3753.0000	462.824
3753.5000	462.882
3754.0000	462.955
3754.5000	462.947
3755.0000	462.921
3755.5000	462.83
3756.0000	462.779
3756.5000	462.833
3757.0000	462.798
3757.5000	462.769
3758.0000	462.796
3758.5000	462.759
3759.0000	462.799
3759.5000	462.803
3760.0000	462.896
3760.5000	462.872
3761.0000	462.847
3761.5000	462.895
3762.0000	462.799
3762.5000	462.749
3763.0000	462.726
3763.5000	462.683
3764.0000	462.603
3764.5000	462.527
3765.0000	462.645
3765.5000	462.657
3766.0000	462.677
3766.5000	462.805
3767.0000	462.724
3767.5000	462.778
3768.0000	462.762
3768.5000	462.732
3769.0000	462.696
3769.5000	462.685
3770.0000	462.698
3770.5000	462.689
3771.0000	462.706
3771.5000	462.665
3772.0000	462.723
3772.5000	462.755
3773.0000	462.734
3773.5000	462.719
3774.0000	462.639
3774.5000	462.583
3775.0000	462.57
3775.5000	462.514
3776.0000	462.528
3776.5000	462.588
3777.0000	462.613
3777.5000	462.671
3778.0000	462.663
3778.5000	462.62
3779.0000	462.552
3779.5000	462.574
3780.0000	462.569
3780.5000	462.56
3781.0000	462.631
3781.5000	462.654
3782.0000	462.643
3782.5000	462.663
3783.0000	462.636
3783.5000	462.652
3784.0000	462.578
3784.5000	462.528
3785.0000	462.502
3785.5000	462.553
3786.0000	462.588
3786.5000	462.538
3787.0000	462.62
3787.5000	462.464
3788.0000	462.454
3788.5000	462.538
3789.0000	462.42
3789.5000	462.447
3790.0000	462.488
3790.5000	462.396
3791.0000	462.438
3791.5000	462.454
3792.0000	462.463
3792.5000	462.489
3793.0000	462.436
3793.5000	462.377
3794.0000	462.327
3794.5000	462.366
3795.0000	462.381
3795.5000	462.341
3796.0000	462.367
3796.5000	462.397
3797.0000	462.305
3797.5000	462.386
3798.0000	462.414
3798.5000	462.334
3799.0000	462.407
3799.5000	462.373
3800.0000	462.379
3800.5000	462.418
3801.0000	462.542
3801.5000	462.549
3802.0000	462.557
3802.5000	462.521
3803.0000	462.356
3803.5000	462.481
3804.0000	462.429
3804.5000	462.515
3805.0000	462.556
3805.5000	462.385
3806.0000	462.33
3806.5000	462.265
3807.0000	462.146
3807.5000	462.206
3808.0000	462.312
3808.5000	462.247
3809.0000	462.41
3809.5000	462.378
3810.0000	462.281
3810.5000	462.264
3811.0000	462.194
3811.5000	462.239
3812.0000	462.281
3812.5000	462.299
3813.0000	462.334
3813.5000	462.338
3814.0000	462.412
3814.5000	462.41
3815.0000	462.413
3815.5000	462.305
3816.0000	462.117
3816.5000	462.179
3817.0000	462.149
3817.5000	462.143
3818.0000	462.132
3818.5000	462.098
3819.0000	462.113
3819.5000	462.133
3820.0000	462.181
3820.5000	462.188
3821.0000	462.142
3821.5000	462.22
3822.0000	462.255
3822.5000	462.166
3823.0000	462.172
3823.5000	462.117
3824.0000	462.127
3824.5000	462.188
3825.0000	462.122
3825.5000	462.052
3826.0000	462.041
3826.5000	462.044
3827.0000	462.139
3827.5000	462.18
3828.0000	462.198
3828.5000	462.268
3829.0000	462.255
3829.5000	462.235
3830.0000	462.203
3830.5000	462.121
3831.0000	462.058
3831.5000	462.055
3832.0000	462.12
3832.5000	462.065
3833.0000	462.088
3833.5000	462.06
3834.0000	461.972
3834.5000	462.037
3835.0000	462.048
3835.5000	462.003
3836.0000	461.982
3836.5000	461.94
3837.0000	461.854
3837.5000	462.001
3838.0000	462.01
3838.5000	461.977
3839.0000	462.083
3839.5000	462.056
3840.0000	462.077
3840.5000	462.215
3841.0000	462.176
3841.5000	462.157
3842.0000	462.198
3842.5000	462.077
3843.0000	462.066
3843.5000	462.06
3844.0000	461.975
3844.5000	462.02
3845.0000	462.032
3845.5000	461.967
3846.0000	461.992
3846.5000	461.951
3847.0000	461.943
3847.5000	461.945
3848.0000	461.941
3848.5000	461.993
3849.0000	462.02
3849.5000	462.012
3850.0000	462.023
3850.5000	462.047
3851.0000	462.031
3851.5000	462.074
3852.0000	462.082
3852.5000	462.028
3853.0000	462.029
3853.5000	462.001
3854.0000	461.977
3854.5000	461.948
3855.0000	461.946
3855.5000	461.929
3856.0000	461.896
3856.5000	461.954
3857.0000	461.93
3857.5000	462.023
3858.0000	462.104
3858.5000	462.086
3859.0000	462.094
3859.5000	462.065
3860.0000	462.059
3860.5000	462.04
3861.0000	462.022
3861.5000	462.021
3862.0000	462.059
3862.5000	462.058
3863.0000	462.145
3863.5000	462.16
3864.0000	462.099
3864.5000	462.138
3865.0000	462.174
3865.5000	462.153
3866.0000	462.171
3866.5000	462.19
3867.0000	462.099
3867.5000	462.077
3868.0000	462.042
3868.5000	462.023
3869.0000	462.088
3869.5000	462.085
3870.0000	462.089
3870.5000	462.181
3871.0000	462.034
3871.5000	462.047
3872.0000	462.037
3872.5000	461.892
3873.0000	462.014
3873.5000	461.958
3874.0000	461.958
3874.5000	462.009
3875.0000	461.964
3875.5000	462.13
3876.0000	462.124
3876.5000	462.07
3877.0000	462.105
3877.5000	462.025
3878.0000	462.06
3878.5000	462.071
3879.0000	462.112
3879.5000	462.118
3880.0000	462.18
3880.5000	462.25
3881.0000	462.24
3881.5000	462.218
3882.0000	462.231
3882.5000	462.222
3883.0000	462.224
3883.5000	462.2
3884.0000	462.202
3884.5000	462.168
3885.0000	462.187
3885.5000	462.218
3886.0000	462.154
3886.5000	462.227
3887.0000	462.178
3887.5000	462.185
3888.0000	462.196
3888.5000	462.179
3889.0000	462.141
3889.5000	462.161
3890.0000	462.133
3890.5000	462.156
3891.0000	462.236
3891.5000	462.209
3892.0000	462.291
3892.5000	462.307
3893.0000	462.337
3893.5000	462.415
3894.0000	462.381
3894.5000	462.338
3895.0000	462.356
3895.5000	462.356
3896.0000	462.354
3896.5000	462.409
3897.0000	462.386
3897.5000	462.339
3898.0000	462.479
3898.5000	462.426
3899.0000	462.395
3899.5000	462.515
3900.0000	462.529
3900.5000	462.6
3901.0000	462.605
3901.5000	462.608
3902.0000	462.558
3902.5000	462.497
3903.0000	462.497
3903.5000	462.464
3904.0000	462.452
3904.5000	462.539
3905.0000	462.546
3905.5000	462.56
3906.0000	462.522
3906.5000	462.482
3907.0000	462.549
3907.5000	462.497
3908.0000	462.524
3908.5000	462.438
3909.0000	462.421
3909.5000	462.51
3910.0000	462.541
3910.5000	462.659
3911.0000	462.629
3911.5000	462.545
3912.0000	462.538
3912.5000	462.499
3913.0000	462.622
3913.5000	462.648
3914.0000	462.754
3914.5000	462.788
3915.0000	462.758
3915.5000	462.769
3916.0000	462.659
3916.5000	462.679
3917.0000	462.63
3917.5000	462.643
3918.0000	462.619
3918.5000	462.652
3919.0000	462.729
3919.5000	462.714
3920.0000	462.849
3920.5000	462.902
3921.0000	462.878
3921.5000	462.928
3922.0000	462.862
3922.5000	462.734
3923.0000	462.681
3923.5000	462.664
3924.0000	462.667
3924.5000	462.821
3925.0000	462.849
3925.5000	462.825
3926.0000	462.879
3926.5000	462.8
3927.0000	462.854
3927.5000	462.884
3928.0000	462.787
3928.5000	462.727
3929.0000	462.674
3929.5000	462.737
3930.0000	462.749
3930.5000	462.86
3931.0000	462.955
3931.5000	462.878
3932.0000	462.923
3932.5000	462.9
3933.0000	462.817
3933.5000	462.819
3934.0000	462.808
3934.5000	462.699
3935.0000	462.662
3935.5000	462.725
3936.0000	462.671
3936.5000	462.746
3937.0000	462.81
3937.5000	462.834
3938.0000	462.947
3938.5000	462.981
3939.0000	463.05
3939.5000	462.898
3940.0000	462.828
3940.5000	462.73
3941.0000	462.687
3941.5000	462.753
3942.0000	462.82
3942.5000	462.846
3943.0000	462.775
3943.5000	462.867
3944.0000	462.728
3944.5000	462.761
3945.0000	462.879
3945.5000	462.68
3946.0000	462.796
3946.5000	462.848
3947.0000	462.744
3947.5000	462.966
3948.0000	462.964
3948.5000	462.894
3949.0000	462.892
3949.5000	462.752
3950.0000	462.687
3950.5000	462.363
3951.0000	462.06
3951.5000	461.688
3952.0000	461.368
3952.5000	461.483
3953.0000	461.464
3953.5000	461.634
3954.0000	461.763
3954.5000	461.762
3955.0000	461.938
3955.5000	461.99
3956.0000	462.074
3956.5000	462.179
3957.0000	462.213
3957.5000	462.297
3958.0000	462.392
3958.5000	462.414
3959.0000	462.459
3959.5000	462.445
3960.0000	462.373
3960.5000	462.393
3961.0000	462.429
3961.5000	462.473
3962.0000	462.511
3962.5000	462.507
3963.0000	462.429
3963.5000	462.409
3964.0000	462.458
3964.5000	462.496
3965.0000	462.546
3965.5000	462.604
3966.0000	462.508
3966.5000	462.636
3967.0000	462.645
3967.5000	462.636
3968.0000	462.701
3968.5000	462.571
3969.0000	462.484
3969.5000	462.459
3970.0000	462.401
3970.5000	462.292
3971.0000	462.36
3971.5000	462.32
3972.0000	462.422
3972.5000	462.593
3973.0000	462.594
3973.5000	462.696
3974.0000	462.578
3974.5000	462.508
3975.0000	462.499
3975.5000	462.467
3976.0000	462.547
3976.5000	462.58
3977.0000	462.649
3977.5000	462.655
3978.0000	462.623
3978.5000	462.638
3979.0000	462.581
3979.5000	462.549
3980.0000	462.592
3980.5000	462.558
3981.0000	462.509
3981.5000	462.515
3982.0000	462.475
3982.5000	462.52
3983.0000	462.607
3983.5000	462.572
3984.0000	462.493
3984.5000	462.447
3985.0000	462.42
3985.5000	462.44
3986.0000	462.468
3986.5000	462.4
3987.0000	462.424
3987.5000	462.383
3988.0000	462.406
3988.5000	462.397
3989.0000	462.358
3989.5000	462.327
3990.0000	462.293
3990.5000	462.321
3991.0000	462.276
3991.5000	462.317
3992.0000	462.245
3992.5000	462.234
3993.0000	462.167
3993.5000	462.098
3994.0000	462.218
3994.5000	462.217
3995.0000	462.272
3995.5000	462.279
3996.0000	462.277
3996.5000	462.302
3997.0000	462.324
3997.5000	462.298
3998.0000	462.271
3998.5000	462.186
3999.0000	462.159
3999.5000	462.245
4000.0000	462.208
4000.5000	462.278
4001.0000	462.327
4001.5000	462.272
4002.0000	462.384
4002.5000	462.336
4003.0000	462.304
4003.5000	462.33
4004.0000	462.25
4004.5000	462.31
4005.0000	462.295
4005.5000	462.354
4006.0000	462.245
4006.5000	462.144
4007.0000	462.1
4007.5000	461.944
4008.0000	462.039
4008.5000	462.036
4009.0000	462.02
4009.5000	462.062
4010.0000	461.969
4010.5000	461.97
4011.0000	461.996
4011.5000	461.999
4012.0000	462.101
4012.5000	462.068
4013.0000	462.171
4013.5000	462.161
4014.0000	462.13
4014.5000	462.184
4015.0000	462.081
4015.5000	462.101
4016.0000	462.083
4016.5000	462.045
4017.0000	461.978
4017.5000	461.947
4018.0000	461.897
4018.5000	461.836
4019.0000	461.929
4019.5000	461.886
4020.0000	461.918
4020.5000	461.98
4021.0000	461.941
4021.5000	461.981
4022.0000	462
4022.5000	461.995
4023.0000	461.981
4023.5000	461.937
4024.0000	461.88
4024.5000	461.927
4025.0000	461.951
4025.5000	461.932
4026.0000	461.908
4026.5000	461.81
4027.0000	461.741
4027.5000	461.789
4028.0000	461.859
4028.5000	461.793
4029.0000	461.826
4029.5000	461.815
4030.0000	461.777
4030.5000	461.857
4031.0000	461.795
4031.5000	461.751
4032.0000	461.768
4032.5000	461.812
4033.0000	461.81
4033.5000	461.807
4034.0000	461.761
4034.5000	461.711
4035.0000	461.745
4035.5000	461.754
4036.0000	461.76
4036.5000	461.709
4037.0000	461.724
4037.5000	461.696
4038.0000	461.707
4038.5000	461.695
4039.0000	461.628
4039.5000	461.669
4040.0000	461.602
4040.5000	461.592
4041.0000	461.618
4041.5000	461.549
4042.0000	461.555
4042.5000	461.609
4043.0000	461.607
4043.5000	461.626
4044.0000	461.686
4044.5000	461.62
4045.0000	461.673
4045.5000	461.637
4046.0000	461.466
4046.5000	461.461
4047.0000	461.376
4047.5000	461.446
4048.0000	461.572
4048.5000	461.624
4049.0000	461.634
4049.5000	461.575
4050.0000	461.592
4050.5000	461.617
4051.0000	461.502
4051.5000	461.545
4052.0000	461.454
4052.5000	461.403
4053.0000	461.453
4053.5000	461.405
4054.0000	461.416
4054.5000	461.357
4055.0000	461.336
4055.5000	461.269
4056.0000	461.215
4056.5000	461.27
4057.0000	461.383
4057.5000	461.463
4058.0000	461.554
4058.5000	461.512
4059.0000	461.515
4059.5000	461.448
4060.0000	461.43
4060.5000	461.435
4061.0000	461.384
4061.5000	461.4
4062.0000	461.397
4062.5000	461.337
4063.0000	461.432
4063.5000	461.441
4064.0000	461.487
4064.5000	461.536
4065.0000	461.439
4065.5000	461.47
4066.0000	461.303
4066.5000	461.308
4067.0000	461.344
4067.5000	461.255
4068.0000	461.309
4068.5000	461.336
4069.0000	461.288
4069.5000	461.289
4070.0000	461.251
4070.5000	461.135
4071.0000	461.157
4071.5000	461.214
4072.0000	461.27
4072.5000	461.337
4073.0000	461.283
4073.5000	461.247
4074.0000	461.175
4074.5000	461.155
4075.0000	461.177
4075.5000	461.274
4076.0000	461.288
4076.5000	461.285
4077.0000	461.225
4077.5000	461.21
4078.0000	461.291
4078.5000	461.28
4079.0000	461.283
4079.5000	461.265
4080.0000	461.2
4080.5000	461.181
4081.0000	461.191
4081.5000	461.132
4082.0000	461.171
4082.5000	461.244
4083.0000	461.284
4083.5000	461.237
4084.0000	461.237
4084.5000	461.204
4085.0000	461.136
4085.5000	461.198
4086.0000	461.252
4086.5000	461.191
4087.0000	461.183
4087.5000	461.168
4088.0000	461.14
4088.5000	461.22
4089.0000	461.158
4089.5000	461.177
4090.0000	461.152
4090.5000	461.139
4091.0000	461.21
4091.5000	461.172
4092.0000	461.18
4092.5000	461.195
4093.0000	461.258
4093.5000	461.221
4094.0000	461.144
4094.5000	461.18
4095.0000	461.118
4095.5000	461.208
4096.0000	461.31
4096.5000	461.228
4097.0000	461.265
4097.5000	461.244
4098.0000	461.274
4098.5000	461.344
4099.0000	461.414
4099.5000	461.435
4100.0000	461.354
4100.5000	461.252
4101.0000	461.185
4101.5000	461.121
4102.0000	461.125
4102.5000	461.14
4103.0000	461.244
4103.5000	461.331
4104.0000	461.324
4104.5000	461.409
4105.0000	461.25
4105.5000	461.214
4106.0000	461.25
4106.5000	461.197
4107.0000	461.234
4107.5000	461.242
4108.0000	461.29
4108.5000	461.383
4109.0000	461.442
4109.5000	461.468
4110.0000	461.394
4110.5000	461.398
4111.0000	461.396
4111.5000	461.432
4112.0000	461.447
4112.5000	461.388
4113.0000	461.335
4113.5000	461.274
4114.0000	461.295
4114.5000	461.302
4115.0000	461.295
4115.5000	461.348
4116.0000	461.355
4116.5000	461.35
4117.0000	461.449
4117.5000	461.394
4118.0000	461.385
4118.5000	461.456
4119.0000	461.444
4119.5000	461.498
4120.0000	461.637
4120.5000	461.653
4121.0000	461.651
4121.5000	461.632
4122.0000	461.545
4122.5000	461.461
4123.0000	461.443
4123.5000	461.416
4124.0000	461.399
4124.5000	461.477
4125.0000	461.544
4125.5000	461.606
4126.0000	461.54
4126.5000	461.52
4127.0000	461.411
4127.5000	461.44
4128.0000	461.551
4128.5000	461.628
4129.0000	461.717
4129.5000	461.639
4130.0000	461.58
4130.5000	461.462
4131.0000	461.429
4131.5000	461.487
4132.0000	461.518
4132.5000	461.585
4133.0000	461.641
4133.5000	461.603
4134.0000	461.648
4134.5000	461.603
4135.0000	461.585
4135.5000	461.666
4136.0000	461.56
4136.5000	461.599
4137.0000	461.582
4137.5000	461.548
4138.0000	461.669
4138.5000	461.71
4139.0000	461.675
4139.5000	461.679
4140.0000	461.701
4140.5000	461.619
4141.0000	461.719
4141.5000	461.707
4142.0000	461.542
4142.5000	461.607
4143.0000	461.569
4143.5000	461.631
4144.0000	461.755
4144.5000	461.751
4145.0000	461.756
4145.5000	461.687
4146.0000	461.707
4146.5000	461.683
4147.0000	461.723
4147.5000	461.728
4148.0000	461.678
4148.5000	461.667
4149.0000	461.593
4149.5000	461.556
4150.0000	461.591
4150.5000	461.574
4151.0000	461.594
4151.5000	461.658
4152.0000	461.652
4152.5000	461.743
4153.0000	461.799
4153.5000	461.868
4154.0000	461.79
4154.5000	461.741
4155.0000	461.696
4155.5000	461.645
4156.0000	461.709
4156.5000	461.702
4157.0000	461.719
4157.5000	461.735
4158.0000	461.682
4158.5000	461.669
4159.0000	461.628
4159.5000	461.576
4160.0000	461.661
4160.5000	461.676
4161.0000	461.69
4161.5000	461.771
4162.0000	461.765
4162.5000	461.746
4163.0000	461.731
4163.5000	461.616
4164.0000	461.557
4164.5000	461.662
4165.0000	461.645
4165.5000	461.701
4166.0000	461.694
4166.5000	461.487
4167.0000	461.61
4167.5000	461.648
4168.0000	461.737
4168.5000	461.856
4169.0000	461.75
4169.5000	461.718
4170.0000	461.73
4170.5000	461.679
4171.0000	461.7
4171.5000	461.702
4172.0000	461.694
4172.5000	461.746
4173.0000	461.786
4173.5000	461.76
4174.0000	461.612
4174.5000	461.636
4175.0000	461.607
4175.5000	461.654
4176.0000	461.719
4176.5000	461.638
4177.0000	461.586
4177.5000	461.533
4178.0000	461.559
4178.5000	461.592
4179.0000	461.64
4179.5000	461.62
4180.0000	461.621
4180.5000	461.683
4181.0000	461.679
4181.5000	461.667
4182.0000	461.628
4182.5000	461.49
4183.0000	461.494
4183.5000	461.514
4184.0000	461.515
4184.5000	461.701
4185.0000	461.647
4185.5000	461.612
4186.0000	461.59
4186.5000	461.439
4187.0000	461.482
4187.5000	461.509
4188.0000	461.534
4188.5000	461.572
4189.0000	461.52
4189.5000	461.516
4190.0000	461.486
4190.5000	461.494
4191.0000	461.486
4191.5000	461.458
4192.0000	461.441
4192.5000	461.494
4193.0000	461.441
4193.5000	461.454
4194.0000	461.492
4194.5000	461.367
4195.0000	461.46
4195.5000	461.484
4196.0000	461.5
4196.5000	461.535
4197.0000	461.44
4197.5000	461.444
4198.0000	461.472
4198.5000	461.484
4199.0000	461.544
4199.5000	461.58
4200.0000	461.54
4200.5000	461.49
4201.0000	461.502
4201.5000	461.361
4202.0000	461.318
4202.5000	461.371
4203.0000	461.411
4203.5000	461.479
4204.0000	461.519
4204.5000	461.431
4205.0000	461.277
4205.5000	461.248
4206.0000	461.214
4206.5000	461.295
4207.0000	461.353
4207.5000	461.245
4208.0000	461.308
4208.5000	461.248
4209.0000	461.33
4209.5000	461.469
4210.0000	461.357
4210.5000	461.37
4211.0000	461.3
4211.5000	461.273
4212.0000	461.227
4212.5000	461.242
4213.0000	461.295
4213.5000	461.307
4214.0000	461.418
4214.5000	461.391
4215.0000	461.304
4215.5000	461.221
4216.0000	461.131
4216.5000	461.158
4217.0000	461.183
4217.5000	461.192
4218.0000	461.306
4218.5000	461.174
4219.0000	461.173
4219.5000	461.231
4220.0000	461.17
4220.5000	461.195
4221.0000	461.107
4221.5000	461.036
4222.0000	461.042
4222.5000	461.156
4223.0000	461.18
4223.5000	461.204
4224.0000	461.231
4224.5000	461.149
4225.0000	461.115
4225.5000	461.083
4226.0000	460.986
4226.5000	460.97
4227.0000	460.963
4227.5000	460.995
4228.0000	460.988
4228.5000	461.022
4229.0000	461.12
4229.5000	461.083
4230.0000	461.102
4230.5000	461.107
4231.0000	460.971
4231.5000	460.992
4232.0000	460.98
4232.5000	460.84
4233.0000	460.914
4233.5000	460.868
4234.0000	460.888
4234.5000	461.009
4235.0000	460.951
4235.5000	460.933
4236.0000	460.95
4236.5000	460.903
4237.0000	460.993
4237.5000	461.078
4238.0000	461.029
4238.5000	461.027
4239.0000	460.958
4239.5000	460.885
4240.0000	460.907
4240.5000	460.908
4241.0000	460.892
4241.5000	460.893
4242.0000	460.82
4242.5000	460.831
4243.0000	460.827
4243.5000	460.809
4244.0000	460.844
4244.5000	460.893
4245.0000	460.868
4245.5000	460.838
4246.0000	460.73
4246.5000	460.636
4247.0000	460.655
4247.5000	460.699
4248.0000	460.776
4248.5000	460.751
4249.0000	460.77
4249.5000	460.662
4250.0000	460.682
4250.5000	460.686
4251.0000	460.66
4251.5000	460.739
4252.0000	460.693
4252.5000	460.736
4253.0000	460.76
4253.5000	460.674
4254.0000	460.703
4254.5000	460.557
4255.0000	460.507
4255.5000	460.57
4256.0000	460.57
4256.5000	460.668
4257.0000	460.629
4257.5000	460.639
4258.0000	460.565
4258.5000	460.528
4259.0000	460.54
4259.5000	460.575
4260.0000	460.613
4260.5000	460.662
4261.0000	460.715
4261.5000	460.594
4262.0000	460.669
4262.5000	460.591
4263.0000	460.524
4263.5000	460.603
4264.0000	460.566
4264.5000	460.57
4265.0000	460.563
4265.5000	460.47
4266.0000	460.39
4266.5000	460.362
4267.0000	460.393
4267.5000	460.423
4268.0000	460.394
4268.5000	460.396
4269.0000	460.418
4269.5000	460.387
4270.0000	460.416
4270.5000	460.486
4271.0000	460.439
4271.5000	460.424
4272.0000	460.398
4272.5000	460.304
4273.0000	460.357
4273.5000	460.337
4274.0000	460.305
4274.5000	460.279
4275.0000	460.206
4275.5000	460.252
4276.0000	460.312
4276.5000	460.367
4277.0000	460.349
4277.5000	460.321
4278.0000	460.3
4278.5000	460.219
4279.0000	460.209
4279.5000	460.213
4280.0000	460.174
4280.5000	460.308
4281.0000	460.41
4281.5000	460.5
4282.0000	460.503
4282.5000	460.395
4283.0000	460.289
4283.5000	460.22
4284.0000	460.285
4284.5000	460.437
4285.0000	460.394
4285.5000	460.305
4286.0000	460.245
4286.5000	460.109
4287.0000	460.171
4287.5000	460.324
4288.0000	460.379
4288.5000	460.497
4289.0000	460.497
4289.5000	460.459
4290.0000	460.31
4290.5000	460.148
4291.0000	460.193
4291.5000	460.139
4292.0000	460.222
4292.5000	460.293
4293.0000	460.212
4293.5000	460.303
4294.0000	460.304
4294.5000	460.305
4295.0000	460.342
4295.5000	460.212
4296.0000	460.167
4296.5000	460.115
4297.0000	460.031
4297.5000	460.009
4298.0000	460.059
4298.5000	460.062
4299.0000	460.069
4299.5000	460.059
4300.0000	460.029
4300.5000	459.954
4301.0000	460.038
4301.5000	460.019
4302.0000	460.012
4302.5000	460.122
4303.0000	460.059
4303.5000	460.103
4304.0000	460.132
4304.5000	460.114
4305.0000	460.086
4305.5000	460.091
4306.0000	460.11
4306.5000	460.135
4307.0000	460.246
4307.5000	460.278
4308.0000	460.142
4308.5000	460.102
4309.0000	459.994
4309.5000	459.956
4310.0000	460.059
4310.5000	460.034
4311.0000	460.002
4311.5000	460.033
4312.0000	460.028
4312.5000	459.987
4313.0000	460.036
4313.5000	460.098
4314.0000	460.104
4314.5000	460.168
4315.0000	460.15
4315.5000	460.113
4316.0000	460.074
4316.5000	460.003
4317.0000	459.988
4317.5000	459.945
4318.0000	460.03
4318.5000	460.047
4319.0000	460.116
4319.5000	460.134
4320.0000	460.071
4320.5000	460.081
4321.0000	459.998
4321.5000	459.932
4322.0000	459.995
4322.5000	460.031
4323.0000	460.094
4323.5000	460.201
4324.0000	460.162
4324.5000	460.104
4325.0000	460.052
4325.5000	460.015
4326.0000	459.99
4326.5000	460.078
4327.0000	460.103
4327.5000	460.024
4328.0000	460.092
4328.5000	460.089
4329.0000	460.045
4329.5000	460.159
4330.0000	460.116
4330.5000	460.096
4331.0000	460.149
4331.5000	460.197
4332.0000	460.17
4332.5000	460.214
4333.0000	460.228
4333.5000	460.133
4334.0000	460.214
4334.5000	460.198
4335.0000	460.297
4335.5000	460.296
4336.0000	460.293
4336.5000	460.301
4337.0000	460.2
4337.5000	460.194
4338.0000	460.152
4338.5000	460.135
4339.0000	460.154
4339.5000	460.245
4340.0000	460.304
4340.5000	460.366
4341.0000	460.401
4341.5000	460.333
4342.0000	460.321
4342.5000	460.341
4343.0000	460.312
4343.5000	460.33
4344.0000	460.346
4344.5000	460.258
4345.0000	460.269
4345.5000	460.233
4346.0000	460.274
4346.5000	460.303
4347.0000	460.224
4347.5000	460.227
4348.0000	460.177
4348.5000	460.146
4349.0000	460.208
4349.5000	460.254
4350.0000	460.267
4350.5000	460.356
4351.0000	460.388
4351.5000	460.439
4352.0000	460.425
4352.5000	460.5
4353.0000	460.564
4353.5000	460.555
4354.0000	460.588
4354.5000	460.596
4355.0000	460.638
4355.5000	460.646
4356.0000	460.613
4356.5000	460.585
4357.0000	460.546
4357.5000	460.537
4358.0000	460.588
4358.5000	460.623
4359.0000	460.557
4359.5000	460.572
4360.0000	460.553
4360.5000	460.412
4361.0000	460.431
4361.5000	460.466
4362.0000	460.481
4362.5000	460.575
4363.0000	460.703
4363.5000	460.621
4364.0000	460.7
4364.5000	460.731
4365.0000	460.633
4365.5000	460.624
4366.0000	460.513
4366.5000	460.464
4367.0000	460.428
4367.5000	460.45
4368.0000	460.502
4368.5000	460.547
4369.0000	460.514
4369.5000	460.515
4370.0000	460.61
4370.5000	460.551
4371.0000	460.702
4371.5000	460.84
4372.0000	460.733
4372.5000	460.802
4373.0000	460.775
4373.5000	460.615
4374.0000	460.601
4374.5000	460.519
4375.0000	460.501
4375.5000	460.557
4376.0000	460.546
4376.5000	460.516
4377.0000	460.565
4377.5000	460.527
4378.0000	460.594
4378.5000	460.617
4379.0000	460.547
4379.5000	460.583
4380.0000	460.526
4380.5000	460.608
4381.0000	460.631
4381.5000	460.587
4382.0000	460.536
4382.5000	460.524
4383.0000	460.496
4383.5000	460.655
4384.0000	460.721
4384.5000	460.71
4385.0000	460.716
4385.5000	460.589
4386.0000	460.628
4386.5000	460.558
4387.0000	460.523
4387.5000	460.586
4388.0000	460.604
4388.5000	460.588
4389.0000	460.631
4389.5000	460.663
4390.0000	460.538
4390.5000	460.586
4391.0000	460.53
4391.5000	460.4
4392.0000	460.471
4392.5000	460.465
4393.0000	460.443
4393.5000	460.522
4394.0000	460.478
4394.5000	460.46
4395.0000	460.531
4395.5000	460.463
4396.0000	460.466
4396.5000	460.483
4397.0000	460.434
4397.5000	460.439
4398.0000	460.448
4398.5000	460.41
4399.0000	460.425
4399.5000	460.498
4400.0000	460.49
4400.5000	460.506
4401.0000	460.54
4401.5000	460.543
4402.0000	460.509
4402.5000	460.54
4403.0000	460.496
4403.5000	460.395
4404.0000	460.399
4404.5000	460.437
4405.0000	460.394
4405.5000	460.394
4406.0000	460.452
4406.5000	460.37
4407.0000	460.439
4407.5000	460.373
4408.0000	460.306
4408.5000	460.457
4409.0000	460.327
4409.5000	460.429
4410.0000	460.487
4410.5000	460.296
4411.0000	460.38
4411.5000	460.331
4412.0000	460.338
4412.5000	460.313
4413.0000	460.259
4413.5000	460.239
4414.0000	460.174
4414.5000	460.27
4415.0000	460.346
4415.5000	460.385
4416.0000	460.336
4416.5000	460.286
4417.0000	460.291
4417.5000	460.161
4418.0000	460.19
4418.5000	460.136
4419.0000	460.011
4419.5000	460.089
4420.0000	460.063
4420.5000	460.078
4421.0000	460.082
4421.5000	460.102
4422.0000	460.141
4422.5000	460.148
4423.0000	460.184
4423.5000	460.135
4424.0000	460.118
4424.5000	460.162
4425.0000	460.094
4425.5000	460.17
4426.0000	460.049
4426.5000	459.952
4427.0000	460.031
4427.5000	459.997
4428.0000	460.074
4428.5000	460.096
4429.0000	460.04
4429.5000	460.015
4430.0000	459.984
4430.5000	459.942
4431.0000	459.967
4431.5000	459.91
4432.0000	459.899
4432.5000	459.956
4433.0000	460.035
4433.5000	460.083
4434.0000	460.116
4434.5000	460.074
4435.0000	459.965
4435.5000	459.953
4436.0000	459.961
4436.5000	459.94
4437.0000	459.894
4437.5000	459.8
4438.0000	459.828
4438.5000	459.855
4439.0000	459.873
4439.5000	459.905
4440.0000	459.818
4440.5000	459.81
4441.0000	459.856
4441.5000	459.831
4442.0000	459.759
4442.5000	459.676
4443.0000	459.65
4443.5000	459.64
4444.0000	459.714
4444.5000	459.802
4445.0000	459.744
4445.5000	459.738
4446.0000	459.74
4446.5000	459.675
4447.0000	459.699
4447.5000	459.821
4448.0000	459.8
4448.5000	459.864
4449.0000	459.842
4449.5000	459.733
4450.0000	459.686
4450.5000	459.633
4451.0000	459.621
4451.5000	459.606
4452.0000	459.62
4452.5000	459.705
4453.0000	459.651
4453.5000	459.69
4454.0000	459.654
4454.5000	459.514
4455.0000	459.573
4455.5000	459.47
4456.0000	459.457
4456.5000	459.527
4457.0000	459.447
4457.5000	459.45
4458.0000	459.5
4458.5000	459.423
4459.0000	459.563
4459.5000	459.611
4460.0000	459.682
4460.5000	459.705
4461.0000	459.614
4461.5000	459.585
4462.0000	459.506
4462.5000	459.504
4463.0000	459.431
4463.5000	459.49
4464.0000	459.543
4464.5000	459.502
4465.0000	459.567
4465.5000	459.459
4466.0000	459.32
4466.5000	459.26
4467.0000	459.222
4467.5000	459.2
4468.0000	459.276
4468.5000	459.313
4469.0000	459.298
4469.5000	459.301
4470.0000	459.162
4470.5000	459.196
4471.0000	459.2
4471.5000	459.186
4472.0000	459.239
4472.5000	459.165
4473.0000	459.13
4473.5000	459.212
4474.0000	459.184
4474.5000	459.186
4475.0000	459.178
4475.5000	459.082
4476.0000	459.094
4476.5000	459.108
4477.0000	459.068
4477.5000	459.094
4478.0000	459.022
4478.5000	459.047
4479.0000	459.069
4479.5000	459.039
4480.0000	459.094
4480.5000	459.077
4481.0000	459.122
4481.5000	459.118
4482.0000	459.164
4482.5000	459.174
4483.0000	459.101
4483.5000	459.195
4484.0000	459.162
4484.5000	459.083
4485.0000	459.107
4485.5000	459.049
4486.0000	459.061
4486.5000	459.075
4487.0000	459.098
4487.5000	459.031
4488.0000	458.99
4488.5000	459.022
4489.0000	459.002
4489.5000	458.98
4490.0000	458.898
4490.5000	458.912
4491.0000	458.8
4491.5000	458.836
4492.0000	458.872
4492.5000	458.789
4493.0000	458.756
4493.5000	458.739
4494.0000	458.805
4494.5000	458.879
4495.0000	458.935
4495.5000	458.913
4496.0000	458.915
4496.5000	458.798
4497.0000	458.841
4497.5000	458.904
4498.0000	458.865
4498.5000	458.874
4499.0000	458.914
4499.5000	458.802
4500.0000	458.766
4500.5000	458.755
4501.0000	458.737
4501.5000	458.796
4502.0000	458.817
4502.5000	458.873
4503.0000	458.783
4503.5000	458.762
4504.0000	458.679
4504.5000	458.567
4505.0000	458.601
4505.5000	458.659
4506.0000	458.725
4506.5000	458.797
4507.0000	458.785
4507.5000	458.693
4508.0000	458.698
4508.5000	458.688
4509.0000	458.634
4509.5000	458.613
4510.0000	458.592
4510.5000	458.592
4511.0000	458.659
4511.5000	458.688
4512.0000	458.806
4512.5000	458.816
4513.0000	458.682
4513.5000	458.702
4514.0000	458.591
4514.5000	458.495
4515.0000	458.587
4515.5000	458.541
4516.0000	458.438
4516.5000	458.491
4517.0000	458.498
4517.5000	458.507
4518.0000	458.593
4518.5000	458.618
4519.0000	458.668
4519.5000	458.62
4520.0000	458.613
4520.5000	458.611
4521.0000	458.533
4521.5000	458.652
4522.0000	458.606
4522.5000	458.591
4523.0000	458.632
4523.5000	458.543
4524.0000	458.605
4524.5000	458.649
4525.0000	458.674
4525.5000	458.686
4526.0000	458.602
4526.5000	458.577
4527.0000	458.55
4527.5000	458.537
4528.0000	458.508
4528.5000	458.581
4529.0000	458.627
4529.5000	458.647
4530.0000	458.742
4530.5000	458.707
4531.0000	458.651
4531.5000	458.618
4532.0000	458.609
4532.5000	458.559
4533.0000	458.572
4533.5000	458.612
4534.0000	458.618
4534.5000	458.604
4535.0000	458.558
4535.5000	458.513
4536.0000	458.484
4536.5000	458.518
4537.0000	458.526
4537.5000	458.57
4538.0000	458.589
4538.5000	458.465
4539.0000	458.526
4539.5000	458.558
4540.0000	458.508
4540.5000	458.616
4541.0000	458.595
4541.5000	458.562
4542.0000	458.604
4542.5000	458.599
4543.0000	458.619
4543.5000	458.552
4544.0000	458.608
4544.5000	458.6
4545.0000	458.586
4545.5000	458.707
4546.0000	458.653
4546.5000	458.696
4547.0000	458.708
4547.5000	458.708
4548.0000	458.695
4548.5000	458.671
4549.0000	458.6
4549.5000	458.634
4550.0000	458.719
4550.5000	458.637
4551.0000	458.667
4551.5000	458.679
4552.0000	458.628
4552.5000	458.717
4553.0000	458.763
4553.5000	458.695
4554.0000	458.656
4554.5000	458.636
4555.0000	458.632
4555.5000	458.613
4556.0000	458.688
4556.5000	458.749
4557.0000	458.729
4557.5000	458.726
4558.0000	458.642
4558.5000	458.599
4559.0000	458.699
4559.5000	458.704
4560.0000	458.831
4560.5000	458.872
4561.0000	458.818
4561.5000	458.853
4562.0000	458.78
4562.5000	458.727
4563.0000	458.723
4563.5000	458.769
4564.0000	458.778
4564.5000	458.845
4565.0000	458.827
4565.5000	458.793
4566.0000	458.882
4566.5000	458.85
4567.0000	458.915
4567.5000	458.884
4568.0000	458.745
4568.5000	458.804
4569.0000	458.805
4569.5000	458.773
4570.0000	458.875
4570.5000	458.838
4571.0000	458.817
4571.5000	458.945
4572.0000	458.992
4572.5000	458.99
4573.0000	459.02
4573.5000	458.981
4574.0000	459.005
4574.5000	459.052
4575.0000	459.019
4575.5000	459.04
4576.0000	459.017
4576.5000	459.031
4577.0000	459.036
4577.5000	459.059
4578.0000	458.988
4578.5000	458.997
4579.0000	459.004
4579.5000	458.93
4580.0000	458.997
4580.5000	458.948
4581.0000	458.909
4581.5000	458.979
4582.0000	458.992
4582.5000	458.981
4583.0000	459.066
4583.5000	459.118
4584.0000	459.042
4584.5000	459.07
4585.0000	459.057
4585.5000	458.952
4586.0000	458.96
4586.5000	458.987
4587.0000	458.963
4587.5000	459.023
4588.0000	459.083
4588.5000	459.075
4589.0000	459.053
4589.5000	459.022
4590.0000	459.025
4590.5000	458.964
4591.0000	459.007
4591.5000	459.033
4592.0000	458.996
4592.5000	459.052
4593.0000	459.089
4593.5000	459.084
4594.0000	459.119
4594.5000	459.054
4595.0000	459.052
4595.5000	459.04
4596.0000	459.052
4596.5000	459.093
4597.0000	459.033
4597.5000	459.064
4598.0000	459.07
4598.5000	459.022
4599.0000	459.038
4599.5000	458.986
4600.0000	459.026
4600.5000	459.046
4601.0000	459.088
4601.5000	459.175
4602.0000	458.99
4602.5000	459.085
4603.0000	459.02
4603.5000	458.908
4604.0000	459.008
4604.5000	458.888
4605.0000	458.886
4605.5000	458.876
4606.0000	458.87
4606.5000	458.916
4607.0000	458.998
4607.5000	459.036
4608.0000	459.048
4608.5000	459.022
4609.0000	458.928
4609.5000	458.921
4610.0000	458.904
4610.5000	458.896
4611.0000	458.917
4611.5000	458.945
4612.0000	458.95
4612.5000	458.963
4613.0000	459.006
4613.5000	459.034
4614.0000	459.01
4614.5000	459.037
4615.0000	458.919
4615.5000	458.769
4616.0000	458.759
4616.5000	458.718
4617.0000	458.733
4617.5000	458.794
4618.0000	458.799
4618.5000	458.869
4619.0000	458.985
4619.5000	459.034
4620.0000	459.043
4620.5000	459.009
4621.0000	458.94
4621.5000	458.895
4622.0000	458.821
4622.5000	458.802
4623.0000	458.755
4623.5000	458.765
4624.0000	458.753
4624.5000	458.745
4625.0000	458.726
4625.5000	458.7
4626.0000	458.718
4626.5000	458.763
4627.0000	458.839
4627.5000	458.89
4628.0000	458.967
4628.5000	458.935
4629.0000	458.953
4629.5000	458.887
4630.0000	458.816
4630.5000	458.882
4631.0000	458.853
4631.5000	458.872
4632.0000	458.829
4632.5000	458.783
4633.0000	458.788
4633.5000	458.831
4634.0000	459.02
4634.5000	458.893
4635.0000	458.886
4635.5000	458.863
4636.0000	458.653
4636.5000	458.697
4637.0000	458.712
4637.5000	458.671
4638.0000	458.798
4638.5000	458.791
4639.0000	458.7
4639.5000	458.67
4640.0000	458.643
4640.5000	458.616
4641.0000	458.597
4641.5000	458.542
4642.0000	458.454
4642.5000	458.47
4643.0000	458.493
4643.5000	458.615
4644.0000	458.714
4644.5000	458.686
4645.0000	458.603
4645.5000	458.569
4646.0000	458.493
4646.5000	458.545
4647.0000	458.648
4647.5000	458.583
4648.0000	458.636
4648.5000	458.688
4649.0000	458.584
4649.5000	458.632
4650.0000	458.627
4650.5000	458.606
4651.0000	458.756
4651.5000	458.763
4652.0000	458.707
4652.5000	458.675
4653.0000	458.612
4653.5000	458.578
4654.0000	458.584
4654.5000	458.517
4655.0000	458.487
4655.5000	458.49
4656.0000	458.442
4656.5000	458.416
4657.0000	458.332
4657.5000	458.242
4658.0000	458.223
4658.5000	458.322
4659.0000	458.317
4659.5000	458.35
4660.0000	458.333
4660.5000	458.288
4661.0000	458.335
4661.5000	458.31
4662.0000	458.281
4662.5000	458.211
4663.0000	458.202
4663.5000	458.229
4664.0000	458.307
4664.5000	458.317
4665.0000	458.336
4665.5000	458.383
4666.0000	458.355
4666.5000	458.369
4667.0000	458.353
4667.5000	458.315
4668.0000	458.243
4668.5000	458.228
4669.0000	458.107
4669.5000	458.031
4670.0000	458.161
4670.5000	458.174
4671.0000	458.354
4671.5000	458.316
4672.0000	458.266
4672.5000	458.197
4673.0000	458.079
4673.5000	458.066
4674.0000	458.042
4674.5000	457.998
4675.0000	457.996
4675.5000	458.071
4676.0000	458.05
4676.5000	458.086
4677.0000	458.085
4677.5000	458.064
4678.0000	458.058
4678.5000	458.078
4679.0000	458.056
4679.5000	458.102
4680.0000	458.039
4680.5000	458.052
4681.0000	458.016
4681.5000	457.898
4682.0000	457.969
4682.5000	457.932
4683.0000	457.925
4683.5000	457.973
4684.0000	457.907
4684.5000	457.981
4685.0000	457.972
4685.5000	457.992
4686.0000	458.005
4686.5000	457.906
4687.0000	457.987
4687.5000	458.005
4688.0000	458.05
4688.5000	458.05
4689.0000	457.956
4689.5000	457.884
4690.0000	457.857
4690.5000	457.881
4691.0000	457.823
4691.5000	457.851
4692.0000	457.834
4692.5000	457.852
4693.0000	457.892
4693.5000	457.796
4694.0000	457.808
4694.5000	457.671
4695.0000	457.643
4695.5000	457.739
4696.0000	457.714
4696.5000	457.733
4697.0000	457.741
4697.5000	457.686
4698.0000	457.63
4698.5000	457.599
4699.0000	457.648
4699.5000	457.589
4700.0000	457.62
4700.5000	457.63
4701.0000	457.614
4701.5000	457.67
4702.0000	457.62
4702.5000	457.648
4703.0000	457.564
4703.5000	457.547
4704.0000	457.578
4704.5000	457.575
4705.0000	457.623
4705.5000	457.55
4706.0000	457.57
4706.5000	457.603
4707.0000	457.563
4707.5000	457.563
4708.0000	457.538
4708.5000	457.507
4709.0000	457.55
4709.5000	457.62
4710.0000	457.464
4710.5000	457.472
4711.0000	457.459
4711.5000	457.382
4712.0000	457.415
4712.5000	457.396
4713.0000	457.264
4713.5000	457.263
4714.0000	457.339
4714.5000	457.339
4715.0000	457.44
4715.5000	457.52
4716.0000	457.492
4716.5000	457.433
4717.0000	457.402
4717.5000	457.321
4718.0000	457.388
4718.5000	457.482
4719.0000	457.518
4719.5000	457.47
4720.0000	457.401
4720.5000	457.292
4721.0000	457.227
4721.5000	457.251
4722.0000	457.242
4722.5000	457.23
4723.0000	457.248
4723.5000	457.288
4724.0000	457.279
4724.5000	457.311
4725.0000	457.288
4725.5000	457.239
4726.0000	457.163
4726.5000	457.184
4727.0000	457.239
4727.5000	457.276
4728.0000	457.383
4728.5000	457.362
4729.0000	457.334
4729.5000	457.339
4730.0000	457.293
4730.5000	457.224
4731.0000	457.263
4731.5000	457.248
4732.0000	457.245
4732.5000	457.31
4733.0000	457.282
4733.5000	457.182
4734.0000	457.133
4734.5000	457.151
4735.0000	457.104
4735.5000	457.171
4736.0000	457.262
4736.5000	457.212
4737.0000	457.271
4737.5000	457.312
4738.0000	457.271
4738.5000	457.267
4739.0000	457.186
4739.5000	457.106
4740.0000	457.1
4740.5000	457.158
4741.0000	457.169
4741.5000	457.281
4742.0000	457.309
4742.5000	457.29
4743.0000	457.253
4743.5000	457.255
4744.0000	457.238
4744.5000	457.173
4745.0000	457.211
4745.5000	457.148
4746.0000	457.129
4746.5000	457.21
4747.0000	457.224
4747.5000	457.285
4748.0000	457.323
4748.5000	457.218
4749.0000	457.238
4749.5000	457.129
4750.0000	457.185
4750.5000	457.286
4751.0000	457.215
4751.5000	457.263
4752.0000	457.221
4752.5000	457.216
4753.0000	457.299
4753.5000	457.32
4754.0000	457.275
4754.5000	457.271
4755.0000	457.217
4755.5000	457.175
4756.0000	457.235
4756.5000	457.192
4757.0000	457.232
4757.5000	457.313
4758.0000	457.33
4758.5000	457.392
4759.0000	457.39
4759.5000	457.346
4760.0000	457.336
4760.5000	457.278
4761.0000	457.255
4761.5000	457.239
4762.0000	457.212
4762.5000	457.229
4763.0000	457.204
4763.5000	457.177
4764.0000	457.128
4764.5000	457.089
4765.0000	457.076
4765.5000	457.173
4766.0000	457.119
4766.5000	457.233
4767.0000	457.334
4767.5000	457.294
4768.0000	457.339
4768.5000	457.339
4769.0000	457.316
4769.5000	457.273
4770.0000	457.296
4770.5000	457.23
4771.0000	457.275
4771.5000	457.268
4772.0000	457.232
4772.5000	457.25
4773.0000	457.2
4773.5000	457.26
4774.0000	457.334
4774.5000	457.401
4775.0000	457.417
4775.5000	457.356
4776.0000	457.363
4776.5000	457.24
4777.0000	457.232
4777.5000	457.344
4778.0000	457.387
4778.5000	457.472
4779.0000	457.524
4779.5000	457.495
4780.0000	457.46
4780.5000	457.397
4781.0000	457.43
4781.5000	457.414
4782.0000	457.434
4782.5000	457.447
4783.0000	457.37
4783.5000	457.376
4784.0000	457.376
4784.5000	457.475
4785.0000	457.418
4785.5000	457.474
4786.0000	457.457
4786.5000	457.408
4787.0000	457.511
4787.5000	457.499
4788.0000	457.502
4788.5000	457.464
4789.0000	457.577
4789.5000	457.523
4790.0000	457.457
4790.5000	457.496
4791.0000	457.396
4791.5000	457.508
4792.0000	457.686
4792.5000	457.657
4793.0000	457.679
4793.5000	457.544
4794.0000	457.471
4794.5000	457.596
4795.0000	457.564
4795.5000	457.562
4796.0000	457.581
4796.5000	457.522
4797.0000	457.453
4797.5000	457.594
4798.0000	457.557
4798.5000	457.553
4799.0000	457.691
4799.5000	457.631
4800.0000	457.651
4800.5000	457.605
4801.0000	457.64
4801.5000	457.63
4802.0000	457.616
4802.5000	457.626
4803.0000	457.521
4803.5000	457.487
4804.0000	457.586
4804.5000	457.607
4805.0000	457.6
4805.5000	457.66
4806.0000	457.648
4806.5000	457.664
4807.0000	457.703
4807.5000	457.695
4808.0000	457.572
4808.5000	457.643
4809.0000	457.659
4809.5000	457.635
4810.0000	457.638
4810.5000	457.56
4811.0000	457.569
4811.5000	457.508
4812.0000	457.509
4812.5000	457.481
4813.0000	457.472
4813.5000	457.486
4814.0000	457.437
4814.5000	457.435
4815.0000	457.413
4815.5000	457.425
4816.0000	457.469
4816.5000	457.553
4817.0000	457.549
4817.5000	457.59
4818.0000	457.646
4818.5000	457.643
4819.0000	457.621
4819.5000	457.616
4820.0000	457.624
4820.5000	457.599
4821.0000	457.673
4821.5000	457.674
4822.0000	457.695
4822.5000	457.702
4823.0000	457.648
4823.5000	457.669
4824.0000	457.614
4824.5000	457.582
4825.0000	457.553
4825.5000	457.53
4826.0000	457.535
4826.5000	457.542
4827.0000	457.583
4827.5000	457.541
4828.0000	457.512
4828.5000	457.471
4829.0000	457.44
4829.5000	457.478
4830.0000	457.465
4830.5000	457.521
4831.0000	457.524
4831.5000	457.495
4832.0000	457.514
4832.5000	457.476
4833.0000	457.498
4833.5000	457.524
4834.0000	457.465
4834.5000	457.428
4835.0000	457.443
4835.5000	457.447
4836.0000	457.462
4836.5000	457.466
4837.0000	457.453
4837.5000	457.433
4838.0000	457.437
4838.5000	457.473
4839.0000	457.386
4839.5000	457.35
4840.0000	457.375
4840.5000	457.336
4841.0000	457.301
4841.5000	457.297
4842.0000	457.364
4842.5000	457.395
4843.0000	457.419
4843.5000	457.433
4844.0000	457.33
4844.5000	457.305
4845.0000	457.334
4845.5000	457.414
4846.0000	457.468
4846.5000	457.414
4847.0000	457.397
4847.5000	457.3
4848.0000	457.286
4848.5000	457.355
4849.0000	457.345
4849.5000	457.417
4850.0000	457.391
4850.5000	457.347
4851.0000	457.429
4851.5000	457.415
4852.0000	457.423
4852.5000	457.506
4853.0000	457.378
4853.5000	457.288
4854.0000	457.272
4854.5000	457.263
4855.0000	457.313
4855.5000	457.365
4856.0000	457.328
4856.5000	457.234
4857.0000	457.241
4857.5000	457.206
4858.0000	457.139
4858.5000	457.157
4859.0000	457.156
4859.5000	457.177
4860.0000	457.276
4860.5000	457.238
4861.0000	457.181
4861.5000	457.2
4862.0000	457.147
4862.5000	457.142
4863.0000	457.106
4863.5000	456.996
4864.0000	457.025
4864.5000	456.978
4865.0000	457.146
4865.5000	457.204
4866.0000	457.129
4866.5000	457.135
4867.0000	457.036
4867.5000	456.954
4868.0000	457.027
4868.5000	457.089
4869.0000	457.077
4869.5000	457.144
4870.0000	457.163
4870.5000	457.12
4871.0000	457.065
4871.5000	457.094
4872.0000	457.035
4872.5000	456.996
4873.0000	456.941
4873.5000	456.873
4874.0000	456.855
4874.5000	456.922
4875.0000	456.939
4875.5000	456.93
4876.0000	456.907
4876.5000	456.905
4877.0000	456.996
4877.5000	456.948
4878.0000	456.938
4878.5000	456.848
4879.0000	456.716
4879.5000	456.754
4880.0000	456.718
4880.5000	456.683
4881.0000	456.734
4881.5000	456.695
4882.0000	456.728
4882.5000	456.739
4883.0000	456.742
4883.5000	456.751
4884.0000	456.782
4884.5000	456.767
4885.0000	456.658
4885.5000	456.657
4886.0000	456.574
4886.5000	456.599
4887.0000	456.654
4887.5000	456.61
4888.0000	456.693
4888.5000	456.67
4889.0000	456.717
4889.5000	456.819
4890.0000	456.679
4890.5000	456.665
4891.0000	456.61
4891.5000	456.508
4892.0000	456.562
4892.5000	456.52
4893.0000	456.499
4893.5000	456.577
4894.0000	456.532
4894.5000	456.528
4895.0000	456.508
4895.5000	456.413
4896.0000	456.425
4896.5000	456.442
4897.0000	456.365
4897.5000	456.39
4898.0000	456.409
4898.5000	456.37
4899.0000	456.436
4899.5000	456.38
4900.0000	456.374
4900.5000	456.372
4901.0000	456.302
4901.5000	456.258
4902.0000	456.184
4902.5000	456.158
4903.0000	456.2
4903.5000	456.262
4904.0000	456.317
4904.5000	456.357
4905.0000	456.392
4905.5000	456.344
4906.0000	456.372
4906.5000	456.397
4907.0000	456.365
4907.5000	456.337
4908.0000	456.296
4908.5000	456.267
4909.0000	456.25
4909.5000	456.33
4910.0000	456.273
4910.5000	456.308
4911.0000	456.273
4911.5000	456.17
4912.0000	456.184
4912.5000	456.104
4913.0000	456.085
4913.5000	456.136
4914.0000	456.113
4914.5000	456.131
4915.0000	456.224
4915.5000	456.245
4916.0000	456.244
4916.5000	456.23
4917.0000	456.198
4917.5000	456.085
4918.0000	456.075
4918.5000	455.973
4919.0000	455.923
4919.5000	455.952
4920.0000	455.971
4920.5000	456.038
4921.0000	456
4921.5000	455.962
4922.0000	455.87
4922.5000	455.888
4923.0000	455.894
4923.5000	455.92
4924.0000	455.925
4924.5000	455.863
4925.0000	455.919
4925.5000	455.885
4926.0000	455.867
4926.5000	455.898
4927.0000	455.84
4927.5000	455.895
4928.0000	455.927
4928.5000	455.921
4929.0000	455.927
4929.5000	455.896
4930.0000	455.903
4930.5000	455.8
4931.0000	455.87
4931.5000	455.951
4932.0000	455.9
4932.5000	455.943
4933.0000	455.851
4933.5000	455.726
4934.0000	455.737
4934.5000	455.762
4935.0000	455.809
4935.5000	455.783
4936.0000	455.65
4936.5000	455.642
4937.0000	455.559
4937.5000	455.566
4938.0000	455.788
4938.5000	455.958
4939.0000	455.968
4939.5000	455.962
4940.0000	455.876
4940.5000	455.664
4941.0000	455.662
4941.5000	455.747
4942.0000	455.7
4942.5000	455.771
4943.0000	455.779
4943.5000	455.665
4944.0000	455.677
4944.5000	455.674
4945.0000	455.668
4945.5000	455.694
4946.0000	455.707
4946.5000	455.706
4947.0000	455.683
4947.5000	455.647
4948.0000	455.607
4948.5000	455.506
4949.0000	455.539
4949.5000	455.581
4950.0000	455.619
4950.5000	455.654
4951.0000	455.604
4951.5000	455.611
4952.0000	455.624
4952.5000	455.584
4953.0000	455.541
4953.5000	455.562
4954.0000	455.563
4954.5000	455.624
4955.0000	455.683
4955.5000	455.651
4956.0000	455.615
4956.5000	455.565
4957.0000	455.598
4957.5000	455.536
4958.0000	455.562
4958.5000	455.671
4959.0000	455.617
4959.5000	455.683
4960.0000	455.617
4960.5000	455.584
4961.0000	455.566
4961.5000	455.56
4962.0000	455.629
4962.5000	455.558
4963.0000	455.591
4963.5000	455.604
4964.0000	455.643
4964.5000	455.687
4965.0000	455.692
4965.5000	455.626
4966.0000	455.571
4966.5000	455.555
4967.0000	455.47
4967.5000	455.465
4968.0000	455.5
4968.5000	455.465
4969.0000	455.665
4969.5000	455.72
4970.0000	455.619
4970.5000	455.682
4971.0000	455.507
4971.5000	455.517
4972.0000	455.634
4972.5000	455.603
4973.0000	455.624
4973.5000	455.616
4974.0000	455.573
4974.5000	455.577
4975.0000	455.685
4975.5000	455.688
4976.0000	455.618
4976.5000	455.594
4977.0000	455.595
4977.5000	455.608
4978.0000	455.687
4978.5000	455.783
4979.0000	455.68
4979.5000	455.587
4980.0000	455.569
4980.5000	455.417
4981.0000	455.487
4981.5000	455.551
4982.0000	455.556
4982.5000	455.58
4983.0000	455.518
4983.5000	455.57
4984.0000	455.578
4984.5000	455.681
4985.0000	455.677
4985.5000	455.624
4986.0000	455.719
4986.5000	455.746
4987.0000	455.814
4987.5000	455.891
4988.0000	455.778
4988.5000	455.745
4989.0000	455.694
4989.5000	455.662
4990.0000	455.603
4990.5000	455.596
4991.0000	455.687
4991.5000	455.635
4992.0000	455.761
4992.5000	455.746
4993.0000	455.663
4993.5000	455.701
4994.0000	455.684
4994.5000	455.73
4995.0000	455.798
4995.5000	455.815
4996.0000	455.864
4996.5000	455.84
4997.0000	455.783
4997.5000	455.815
4998.0000	455.787
4998.5000	455.723
4999.0000	455.753
4999.5000	455.717
5000.0000	455.695
